#   1 NUMBER                 Running object number                                     
#   2 X_IMAGE                Object position along x                                    [pixel]
#   3 Y_IMAGE                Object position along y                                    [pixel]
#   4 ALPHA_J2000            Right ascension of barycenter (J2000)                      [deg]
#   5 DELTA_J2000            Declination of barycenter (J2000)                          [deg]
#   6 FLUX_APER              Flux vector within fixed circular aperture(s)              [count]
#   9 FLUXERR_APER           RMS error vector for aperture flux(es)                     [count]
#  12 FLUX_RADIUS            Fraction-of-light radii                                    [pixel]
#  13 FWHM_IMAGE             FWHM assuming a gaussian core                              [pixel]
#  14 BACKGROUND             Background at centroid position                            [count]
#  15 THRESHOLD              Detection threshold above background                       [count]
#  16 FLUX_MAX               Peak flux above background                                 [count]
#  17 ISOAREA_IMAGE          Isophotal area above Analysis threshold                    [pixel**2]
#  18 A_IMAGE                Profile RMS along major axis                               [pixel]
#  19 B_IMAGE                Profile RMS along minor axis                               [pixel]
#  20 THETA_IMAGE            Position angle (CCW/x)                                     [deg]
#  21 FLAGS                  Extraction flags                                          
         1    645.3878     17.0911 307.6696294  +6.6972657     1280.045     3814.079     6051.651     91.73231     183.3185     366.8927      3.489    10.65     1177.535     64.70941     155.3422        34     1.879     1.688  12.95   3
         2    645.0238     25.7689 307.6694867  +6.6936764     4563.562     13538.94     18054.78      91.4397     183.4646     366.8927      2.926     7.39     1177.849     64.70941     497.1816        74     2.355     1.906  45.58   3
         3    636.6362     21.1695 307.6731305  +6.6952928     3698.238     11319.38     14888.96     91.58612     183.3185     366.9292      2.920     7.47     1177.774     64.70941     432.9553        65     2.217     1.899  41.15   3
         4    246.4001     21.7454 307.8353843  +6.6820210     2373.345     5298.233     7578.085     91.14615     183.1722      366.637      2.727     7.74     1202.743     64.70941     259.9259        41     2.386     1.278  15.83   3
         5    405.5582     23.0531 307.7691577  +6.6868044     2755.114     5188.447     6384.188     92.02398     183.6836     367.1483      2.173     8.62     1190.166     64.70941     360.8352        32     2.498     1.036  53.56   3
         6    407.5172     20.4714 307.7684308  +6.6879341     2898.336     6558.238      7506.94     92.31474     183.9751     367.1483      2.421     6.81     1190.122     64.70941     307.8271        34     2.013     1.177  43.51   3
         7    668.4000     18.8283 307.6600010  +6.6973165     7155.955     20218.68     32618.71     91.14615     183.3185     366.8562      3.439     7.89      1177.31     64.70941     801.9904       109     2.826     2.191 -30.15   0
         8    143.6917     12.1446 307.8784191  +6.6825390     1905.775     6108.167     8478.506     91.87826     183.4646     367.2577      3.107     9.21     1204.667     64.70941     230.2797        59     2.372     1.832  54.65  16
         9     53.4539     14.8832 307.9158478  +6.6783853     1301.331     3844.601     4754.797     92.02398     183.6106     367.2577      2.812     9.55     1207.625     64.70941     150.3751        34     1.956     1.587 -65.20   0
        10    877.2948      7.9426 307.5734994  +6.7087570     961.9591     2425.891     2642.094     91.87826     183.6106     365.2455      2.350     8.42     1172.582     64.70941     102.3745        18     1.630     1.214 -81.77  16
        11    963.2446      4.4009 307.5378757  +6.7130734     649.7138      1333.06     1616.918     91.29305     183.2454     327.5294      1.975     4.50      1166.66     64.70941     80.87109         5     1.189     0.485  -3.68  16
        12    729.9767      3.6710 307.6349075  +6.7056158     658.0242     1354.272      2436.85     91.58612      178.354     316.9256      3.093     6.06     1174.902     64.70941       96.505         6     1.147     0.899 -15.21  16
        13    787.0345      1.2960 307.6112599  +6.7084943     664.0338     965.0247     661.9586     79.52679     145.2262     275.6348      1.437     2.83     1174.474     64.70941     154.6793         5     0.775     0.396  19.94  24
        14    250.6076    984.3512 307.8009180  +6.2853630     2886.639     6259.038     7554.855      91.4397     183.3916     366.6735      2.271     5.76     1238.082     64.70941     348.5186        41     1.869     1.431  45.01   0
        15    999.4471   1021.2852 307.4885123  +6.2950830     4350.469     7308.684     8064.435     92.02399     178.8042     317.6435      1.834     4.09     1235.887     64.70941     529.2815        32     1.598     1.083  38.34  24
        16    903.3120   1023.7305 307.5283765  +6.2908829     2259.296      2717.78      2882.71     79.01971     145.0415     275.1482      1.116     3.15      1239.91     64.70941     551.2502        10     1.169     0.444  -0.01  24
        17    877.6317   1021.7427 307.5391143  +6.2908491     9382.724      17315.7     17835.36     91.87826     174.3267     310.3894      1.943     4.41     1239.368     64.70941     1036.625        41     1.713     1.243  23.81  24
        18    534.9297   1023.4802 307.6814537  +6.2787262      3407.82     4716.537     5677.845     83.15097     149.5894     279.7842      1.394     4.31     1239.456     64.70941     645.8772        17     1.403     0.653   8.34  24
        19    521.9250   1021.0416 307.6869398  +6.2792977     2754.867     5804.673     6161.189     91.87826     180.8162     321.2508      2.238     5.93     1239.377     64.70941     311.5785        38     1.922     1.299  26.11  24
        20    777.0449    984.2156 307.5821782  +6.3029749     929.7971     1899.599     1575.897      91.4397     183.3916     366.8196      2.040     6.53      1236.41     64.70941     145.5394        13     1.393     0.965 -85.08   0
        21    638.4331    983.8362 307.6397882  +6.2985176      3060.96     6528.992     7034.908     91.58612     183.3185     366.8196      2.159     5.08     1237.179     64.70941     344.9688        40     1.797     1.357  34.67   0
        22     19.5696    981.9958 307.8969931  +6.2786004     1406.149     3100.944     3215.813      91.4397     183.4646     366.8562      2.283     8.07     1236.135     64.70941     181.3668        22     1.670     1.126  55.12   0
        23    460.5154    982.5746 307.7137595  +6.2931064     756.6008     1430.804     1288.722     92.16948     183.3185     366.9657      1.894     4.37     1238.064     64.70941     107.9171         6     1.148     0.474 -81.21   0
        24    868.6367    980.7605 307.5442353  +6.3074444     696.3268     1242.852     1226.745     91.73231     183.4646     366.9657      1.674     3.69     1235.571     64.70941     119.6582         5     0.944     0.414  -6.99   0
        25    941.3496    977.3305 307.5141360  +6.3112739     631.5334     1179.835     931.6855     91.87826     183.5376     367.1483      1.882     4.92     1234.351     64.70941     116.4196         6     1.331     0.516 -52.57   0
        26    563.2600    976.3413 307.6712782  +6.2991024     1112.534     2148.111      2372.96     92.02399     183.5376     367.1483      2.144     5.63      1237.56     64.70941     186.8521        15     1.516     1.183  34.69   0
        27    994.2583    976.4556 307.4921797  +6.3133912     793.9356     1481.286     1735.056     92.16948     183.6106     367.1118      1.877     6.09     1232.399     64.70941     109.3142         8     1.451     0.719 -21.05   0
        28    602.3763    973.0881 307.6551345  +6.3017471      833.428     1476.788     1377.584     92.02398     183.3916     366.9657      1.900     6.41      1236.92     64.70941     117.1516         8     1.157     0.996  56.67   0
        29    282.7389    970.0883 307.7880515  +6.2923166     834.5872     1899.385     2353.039     92.02398     183.7565     367.1483      2.486     5.64     1237.883     64.70941     122.8442        10     1.835     0.488  32.33   0
        30    886.4618    963.0508 307.5374260  +6.3153373     5358.038     10298.04     10717.42     92.02398     183.5376     367.1118      2.057     4.48     1233.724     64.70941      609.541        43     1.789     1.307  33.33   0
        31    422.2043    960.3482 307.7304320  +6.3009901     1213.036     2803.843     3445.247     91.29305     183.3916     366.6735      2.463     7.87     1237.952     64.70941     156.2284        19     1.388     1.247 -58.32   0
        32    324.3388    958.9310 307.7711450  +6.2983060     5529.279     12929.42      14607.5     92.16947     183.6106     367.1483      2.362     5.57     1237.986     64.70941     641.2047        53     1.943     1.562  34.56   0
        33    244.3002    957.8904 307.8044374  +6.2960597     4341.514     9757.837     11142.42     92.02398      184.048     367.0753      2.329     5.34     1237.575     64.70941     537.1219        49     1.937     1.509  41.31   0
        34    902.7142    948.2543 307.5311718  +6.3219769     807.4681     1264.695     1360.544     92.02399     183.5376     367.2942      1.724     4.91     1231.912     64.70941     130.7614         7     1.119     0.610  68.50   0
        35    738.1873    941.0732 307.5997830  +6.3194668     1151.882     2433.212     1724.616      91.4397     183.2454     366.8562      2.070     7.64     1234.015     64.70941      123.485        18     1.483     1.102  65.52   0
        36    969.6926    936.6051 307.5037318  +6.3290035     1089.764     2062.897     2974.306     91.58612     183.2454     366.8196      2.144     6.34     1229.481     64.70941     117.1521        15     1.365     0.828  37.77   0
        37    657.3159    934.2751 307.6336185  +6.3195770     1439.058     2946.889     3045.389     92.16948     183.9751     367.2212      2.118     6.39     1234.821     64.70941     173.5526        22     1.402     1.295  19.91   0
        38    524.0858    935.9954 307.6889226  +6.3144280     674.1947     1516.408     2440.612      91.4397     183.2454     366.7831      2.763     3.88      1236.42     64.70941     110.8792         5     0.837     0.515 -29.81   0
        39     53.9448    931.2274 307.8844382  +6.3006794     2064.168     4526.701     4923.484     91.58612     183.6836     366.9292      2.252     5.88      1235.93     64.70941     247.2642        28     1.626     1.301  54.48   0
        40    197.9173    930.0941 307.8246545  +6.3059664     1199.603     3006.929     3537.359     91.73231     183.9751     367.2577      2.444     8.19     1236.535     64.70941      185.201        18     1.567     1.196  55.02   0
        41     71.4905    929.7922 307.8771967  +6.3018588     1155.733     2704.648     3421.711     91.58612     183.2454     366.8927      2.421     7.22     1235.922     64.70941     144.1531        18     1.793     0.814  30.00   0
        42    935.1125    930.1230 307.5183204  +6.3305274      687.559     1266.307     1703.582     92.02398     183.9751     367.2212      2.229     5.18     1229.202     64.70941     125.9078         7     1.311     0.579 -12.00   0
        43    651.8842    923.7729 307.6362309  +6.3237255     4261.102      9286.37     10207.93     92.16947     183.3185     366.9657      2.262     5.09     1234.395     64.70941     510.7908        46     1.917     1.429  41.70   0
        44    889.4360    919.8164 307.5376494  +6.3332588     1931.918     3475.968     3753.003     91.58612     183.3185     366.8562      1.885     5.60     1229.983     64.70941     205.0408        24     1.513     1.109  48.04   0
        45     11.1224    921.8904 307.9025490  +6.3030933     787.1832     1638.154     1710.345     91.73231     183.9023     367.1483      2.155     5.68     1235.558     64.70941      90.9043         7     1.137     0.800 -76.45   0
        46    334.9077    917.1779 307.7681704  +6.3158706     9004.685     21505.41     25426.62     92.02398     183.3916     366.9292      2.438     5.65     1237.761     64.70941     1032.141        63     2.110     1.578  39.02   0
        47    207.2478    917.8508 307.8211935  +6.3113255     664.1071     1275.344     1890.201     92.02398     183.4646     367.0753      2.158     5.15     1236.462     64.70941     99.72119         6     1.356     0.553  19.89   0
        48     70.2413    917.6682 307.8781283  +6.3068146     861.2299     1797.013      1831.39     91.87826     183.5376     367.2212      2.205     3.98     1235.526     64.70941     139.7013         6     0.913     0.497  47.18   0
        49     98.6155    907.6136 307.8666804  +6.3119095     1052.959     2198.098     2538.893     91.73231     183.2454     367.0388      2.273     5.71     1235.346     64.70941     139.0848        17     1.307     1.174 -44.30   0
        50    879.8698    901.5043 307.5422428  +6.3404898     1545.372     2950.385     3363.513     91.87826     183.6836     367.1118      1.992     5.62     1229.495     64.70941     172.5328        19     1.370     1.030  43.29   0
        51    850.1766    901.0798 307.5545966  +6.3396780     1346.663     2882.339     2987.445     91.58612     183.2454     367.0753      2.112     5.39     1230.002     64.70941     189.1322        20     1.377     1.142   1.91   0
        52    814.0154    900.7741 307.5696341  +6.3386018     2022.269     4026.612     4503.136     91.73231     183.4646     367.0388      2.158     5.30     1230.556     64.70941     244.8967        26     1.548     1.210  31.60   0
        53     81.7625    901.1375 307.8739034  +6.3140146     1511.099     3117.952     3667.804     92.02398     183.6836     367.1118      2.269     6.13     1235.023     64.70941     204.4722        24     1.599     1.206  24.06   0
        54    549.9584    892.2928 307.6796516  +6.3333061     188955.5     445273.4     517254.6     92.16947     183.5376     367.2212      2.446     5.56     1235.044     64.70941     21213.72       170     2.216     1.807  36.76   0
        55    394.2906    895.0579 307.7442451  +6.3269723     4092.199     9828.079     11316.43     91.87826     183.6106     367.2577      2.469     5.99     1237.117     64.70941     513.3531        53     1.985     1.618  44.49   0
        56    337.4971    893.4358 307.7679001  +6.3257440     6927.639     16810.94     19957.89     92.02399     183.4646     367.2942      2.513     5.82     1237.279     64.70941     786.1376        65     2.094     1.653  38.09   0
        57    637.2819    894.8800 307.6432765  +6.3351496     814.3195      1640.72     1289.219     92.16948     183.9023     367.2577      2.078     7.59     1233.335     64.70941     117.1416        13     1.430     1.127  20.82   0
        58    655.5983    889.4178 307.6358498  +6.3380113     2104.195     4935.539     5308.377     91.58612     183.0991     366.7831      2.283     6.18     1232.463     64.70941     220.2332        34     1.617     1.498  60.72   0
        59    888.0858    888.1675 307.5392788  +6.3462607     3745.414     7602.093     8758.674     92.02398     183.3916     367.1118      2.186     5.20      1228.79     64.70941     384.3988        40     1.845     1.297  29.97   0
        60    630.5126    883.4646 307.6464758  +6.3396299     2084.994     4910.076     5912.147     92.02399     183.8294     367.1483      2.520     6.88     1233.011     64.70941     227.8271        34     1.943     1.379  49.16   0
        61   1021.4454    882.3439 307.4840546  +6.3530897     3808.267     7037.525     7707.248     92.02399     177.2991     315.0172      1.965     4.47     1224.828     64.70941     445.1132        33     1.559     1.263  43.23  24
        62    818.4854    882.1686 307.5684050  +6.3464202     1159.478     2345.946      2397.24     92.02399     183.3916     367.0022      2.109     7.36     1229.323     64.70941     117.2516        19     1.330     1.141  38.32   0
        63    623.5474    878.0323 307.6495541  +6.3416371     1295.426      3079.85     4760.041     91.87826     183.6106     367.0022      3.015     7.31     1233.064     64.70941     163.3606        21     1.629     1.389 -45.36   2
        64    945.7988    880.2062 307.5155635  +6.3514598       689.65      936.892     1297.541     91.29304     183.2454     366.8927      1.421     3.97     1227.281     64.70941     108.9211         6     0.756     0.597 -37.98   0
        65    907.1562    875.9602 307.5317657  +6.3519266     2319.717       4848.1     5425.387     91.73231     183.6106     366.9657      2.232     5.53     1228.069     64.70941     276.5161        29     1.475     1.366 -13.54   0
        66    365.5220    872.3287 307.7569708  +6.3353810      1515.92     3620.777     4084.882     92.31474     183.9023     367.0753      2.480     6.72     1236.753     64.70941     192.7639        26     1.733     1.366  50.10   0
        67    501.8557    862.3202 307.7006563  +6.3440574     1711.107     3841.894     4485.093     92.16947     183.6106     367.1483      2.365     7.74     1235.096     64.70941     207.9023        29     1.738     1.465 -82.13   0
        68    548.6425    858.2326 307.6813521  +6.3473027     3291.677     8095.484     10751.69     91.58612     183.6106     366.9292      2.736     6.69     1233.598     64.70941     366.1711        51     2.235     1.536  16.97   0
        69    108.9828    857.5280 307.8640762  +6.3329025     771.9054     1462.659     1477.319      91.4397     183.5376     366.9657      1.859     4.83     1234.123     64.70941     120.3511         7     0.984     0.672  18.07   0
        70    466.2784    856.2137 307.7156477  +6.3453877     916.8915     1830.916     1628.365     91.58612     183.3185     366.8927      1.945     5.73     1235.089     64.70941      149.891        12     1.332     0.774  37.79   0
        71    883.0167    855.3484 307.5424932  +6.3596215     813.1472     1677.115     1885.944      91.4397     183.6836     366.7831      2.191     5.92     1227.472     64.70941     111.3085         7     1.148     0.859 -26.14   0
        72    519.0403    852.0244 307.6938639  +6.3488748     10307.04     25741.64     29887.72     91.58612     183.4646     366.8562      2.498     5.79     1233.654     64.70941     1235.896        72     2.098     1.707  35.46   0
        73    932.5271    849.9143 307.5221010  +6.3635064     2695.663     5378.017     5542.109     92.16947     183.9751     367.1118      2.080     5.34     1226.442     64.70941     295.7013        31     1.632     1.253  42.46   0
        74    311.6100    840.7168 307.7804469  +6.3466108     1780.283      4446.29     5033.975     91.58612     183.2454     366.9292      2.435     6.78     1235.813     64.70941     234.9633        33     1.753     1.483  48.37   0
        75     30.2109    842.3132 307.8973264  +6.3365355     974.8131     1954.853     2312.418     91.58612     183.3185     366.9292      2.209     5.44     1232.264     64.70941     154.9725         9     1.174     0.713  39.50   0
        76     12.4735    839.7243 307.9047850  +6.3370081     1176.399     2721.878     3693.949     92.31474     183.9023     367.1483      2.883     8.26       1231.9     64.70941     154.9124        19     2.105     0.906  69.82  16
        77    777.1044    836.3445 307.5871502  +6.3639341     33521.86     74626.53      85124.5     91.87826     183.5376     367.3672      2.313     5.25     1226.753     64.70941      3526.97        92     2.077     1.660  36.81   0
        78    234.7539    834.4426 307.8125977  +6.3466277     2888.829     7315.423     10501.33     92.02399     183.6106     367.0388      3.301     6.40     1235.328     64.70941      356.915        50     2.073     1.618  38.70   0
        79    902.2832    831.4692 307.5352924  +6.3701055     5877.864     11767.34     13422.37     92.31474     183.9023     367.1483      2.166     4.92     1225.949     64.70941     598.0895        45     1.810     1.365  42.97   3
        80    899.1995    823.0159 307.5368593  +6.3734877     4575.754     9387.015     10211.75     91.58612     183.0991     366.8196      2.162     4.83     1225.579     64.70941     488.7428        44     1.785     1.389  28.63   2
        81    700.2808    828.2141 307.6193515  +6.3647292     40456.89     113951.1     162229.2     91.58612     183.3185     366.8927      3.094     9.60     1227.458     64.70941     5260.178       155     3.521     1.748  29.83   0
        82    344.1018    828.7122 307.7673522  +6.3526451     10212.88     26811.29     32112.14     92.02398     184.1208     367.1483      2.608     6.08     1235.272     64.70941     1262.148        78     2.230     1.765  37.74   0
        83    405.9493    826.4818 307.7417263  +6.3556302      11110.2     28710.28     34549.43     92.02398     183.6836     367.1483      2.595     6.08     1233.797     64.70941     1289.228        81     2.244     1.758  31.02   0
        84    393.9994    827.8787 307.7466449  +6.3546553     793.0563     1756.048     2123.816     91.14615     182.8794     366.8562      2.530     5.79     1234.213     64.70941     110.2181        10     1.796     0.525  36.04   0
        85    233.9974    813.2683 307.8136315  +6.3553308     773132.7      2455711      3126466     91.29304     183.1722     366.8562      2.880     8.21     1234.586     64.70941     63738.88       539     2.719     2.188  41.42   4
        86    942.8353    824.7639 307.5186656  +6.3742167     1564.897     3154.367     3547.228     91.73231     183.3185     366.8196      2.219     6.24     1224.689     64.70941     218.4857        22     1.628     1.171  23.09   0
        87    639.0723    821.7191 307.6450082  +6.3653682     3306.083     8178.376     11537.74     92.31474     183.9751     367.1483      2.887    12.09     1228.209     64.70941      1067.38        54     2.793     1.458  28.45   0
        88    427.0672    819.6812 307.7331811  +6.3591386     884.7375     1926.453      2273.47     92.16947     183.9023     367.1483      2.260     6.03     1232.803     64.70941     115.7141        10     1.332     0.769 -64.02   2
        89   1022.5945    814.4969 307.4858644  +6.3810969     774.6787     1168.773     1355.341     91.73231     163.2115     295.9818      1.832     4.91     1221.864     64.70941     100.3876         6     0.946     0.723 -16.56  24
        90    408.8622    809.1490 307.7411037  +6.3628724     26416.86     69048.16     83309.66     92.02398     183.5376     367.1118      2.593     5.99     1232.635     64.70941     3042.433       101     2.280     1.833  36.44   0
        91    674.5539    811.9554 307.6305931  +6.3705749     1249.847     2990.625     3945.527     92.02398     183.6106     367.0388      2.580     9.05     1226.843     64.70941     159.5007        25     1.795     1.273   2.63   0
        92    526.6216    808.0234 307.6922040  +6.3672659     3569.258     9085.629     10912.05     91.73231     183.3916     367.0753      2.556     6.05     1228.922     64.70941     445.8051        53     2.027     1.630  41.23   0
        93    443.3320    806.4004 307.7268722  +6.3651562     2329.214     6047.241     8567.932     91.29305     183.0259     366.8562      3.145     9.63     1231.134     64.70941     254.9672        50     2.433     1.635  39.42   2
        94    440.8071    799.4653 307.7281567  +6.3679307      1232.61     2554.881     3617.213      91.4397     183.3185     366.9292      2.663     7.30     1230.698     64.70941     140.6187        17     1.823     0.819  22.98   3
        95    771.6705    804.5759 307.5904821  +6.3768494     6721.786     15777.88     17784.23     91.58612     183.4646     367.0388      2.362     5.56     1225.176     64.70941     710.8065        57     1.948     1.579  40.57   0
        96    122.2259    787.8234 307.8609441  +6.3620791     1072.096     2717.569     3919.141      91.4397     183.4646     367.0022      3.145    10.82     1232.378     64.70941     174.0675        23     2.017     1.617 -54.38   3
        97    137.4707    796.4500 307.8543156  +6.3590335     1568.576     3782.266     4604.032     92.02399     183.5376     367.1483      2.630     8.17     1233.132     64.70941     174.6469        29     2.040     1.261  34.29   3
        98    129.5520    796.8264 307.8575935  +6.3586133     5835.093     15466.11     20327.38     91.58612     183.6836     367.0388      2.840     6.09     1232.953     64.70941     732.7975        71     2.405     1.724  29.09   3
        99    121.9101    794.0635 307.8608631  +6.3594962      1490.36      3560.28     5171.281     92.02399     183.8294     367.1483      3.067     6.98     1232.594     64.70941     191.6199        21     1.636     1.056 -67.56   3
       100    794.1828    797.8602 307.5813531  +6.3803667     768.6958     1791.186     1958.943     91.58612     183.5376     366.8196      1.681     3.50     1224.365     64.70941     123.0425         5     1.368     0.259   9.87   0
       101    966.2564    792.5988 307.5100170  +6.3882540     1004.496     1738.796     1695.051     91.29305     183.2454     366.7831      1.808     5.87     1222.288     64.70941     154.5925        11     1.371     0.934  84.40   0
       102    917.0804    792.9324 307.5304435  +6.3864832     4081.226     8745.186     9596.071     92.16948     183.9023     367.1118      2.230     5.01     1223.343     64.70941     401.0168        45     1.684     1.515  37.81   0
       103    672.5793    790.9818 307.6321232  +6.3791551     921.8643     2318.449     2221.812     91.73231     183.5376     367.0022      2.239     7.05     1225.673     64.70941     114.1274        14     1.422     0.980 -53.56   0
       104    236.5881    787.4762 307.8134312  +6.3660494     671.4296     1361.067     4959.315     91.58612     183.1722     366.9292      7.155     7.22     1233.479     64.70941     101.7028         9     1.560     0.935 -43.40   1
       105    911.6377    784.9984 307.5329733  +6.3895731     1736.285     4030.715     4438.793     90.99902     183.3916     366.8562      2.307     5.99     1222.805     64.70941     184.5934        30     1.613     1.396  38.33   0
       106    940.4449    784.2198 307.5210271  +6.3908510     1974.533     4293.628     4830.335     91.58612     183.4646     366.9292      2.232     5.98     1222.157     64.70941     202.1528        29     1.643     1.331  38.65   0
       107    559.9194    788.7925 307.6790175  +6.3763037     1123.021     2667.004     3382.869     91.58612     183.0991     366.9292      2.803     6.42     1227.253     64.70941     163.5836        17     1.458     1.092   5.67   2
       108    811.4508    782.6702 307.5746898  +6.3872028     754.0168     1210.796     1670.437     91.87826     183.5376     367.1483      1.898     6.45     1223.508     64.70941     121.5055         7     1.161     1.005 -86.33   0
       109    237.3542    779.6482 307.8133788  +6.3693018     1097.828     3110.456     5544.006     92.02399     183.4646     367.1483      7.315    11.03     1233.128     64.70941     132.2751        24     2.237     1.515   8.69   0
       110    971.5068    784.0443 307.5081235  +6.3919548     1272.624     2375.275     2460.963     92.02398     183.5376     367.2577      1.947     6.40      1221.59     64.70941     154.6982        18     1.305     1.085  61.34   0
       111    955.5360    771.9379 307.5151695  +6.3964152     1641.451     3519.276     3701.086     92.02398     183.6106     367.1483      2.131     6.17     1221.039     64.70941      189.479        27     1.663     1.178  19.63   0
       112    902.5046    772.2231 307.5372002  +6.3945361     643.9506     1410.841     755.7261     92.02399     183.3185     366.9292      1.993     3.80     1221.928     64.70941     101.0251         5     1.040     0.399  -7.06   0
       113    675.4027    770.5723 307.6316403  +6.3876625     688.2214     1260.174     1808.559      91.4397     183.3185     366.8927      2.387     6.10     1224.737     64.70941     93.67566         7     1.173     0.892 -85.99   0
       114    644.0206    769.7886 307.6447092  +6.3869403     1816.705      1743.64     2076.676     91.58612     183.2454     367.0022      0.544     0.86     1225.382     64.70941     1219.378         5     0.446     0.360 -46.92   0
       115    997.0410    765.8662 307.4981244  +6.4002961     1093.948     2381.466     2841.969     92.02398     183.5376     367.2212      2.288     6.76     1220.173     64.70941     132.5159        15     1.402     0.993 -57.36   0
       116    884.8664    761.8968 307.5448795  +6.3982069     962.9037     2289.794     2045.138     92.02398     183.6836     367.1483      2.344     7.47     1221.451     64.70941     103.1161        16     1.508     1.036  61.10   0
       117    859.5677    755.5757 307.5556073  +6.3999718     627.2919     1364.479     1357.899     91.29305     183.3916     366.8927      1.938     4.17     1221.381     64.70941     90.78284         5     1.012     0.490   4.29   0
       118    841.4401    753.1060 307.5632248  +6.4003873      984.558     2259.347     2030.927     92.16947     183.5376     367.2213      2.231     7.50     1221.404     64.70941     131.9683        15     1.578     1.125 -88.90   0
       119    597.5829    754.6539 307.6645209  +6.3916320     4755.939     4616.424     3906.809      91.4397     183.6836     366.7831      0.779     0.96     1226.038     64.70941     1726.795         5     0.532     0.474 -10.03   0
       120     42.0573    752.1730 307.8954722  +6.3740891      1306.47     2894.619      3603.56     91.58612     183.6836     366.9292      2.361     8.30      1230.52     64.70941     166.6045        22     1.777     1.273  28.16   0
       121    653.6893    740.5411 307.6416807  +6.3993191     3073.958     8041.935     8969.022     91.87826     183.6106     367.2577      2.537     6.32     1224.107     64.70941     349.0652        49     1.924     1.674  39.33   0
       122    115.9918    738.9918 307.8651958  +6.3819993     976.6956     1641.874     2312.099     91.29305     183.3916     366.9657      1.779     6.26     1230.562     64.70941     142.1764        11     1.836     0.600  44.43   3
       123    117.5127    735.8315 307.8646713  +6.3833530     1831.593     3675.719     4299.949     92.16948     183.3185     367.0388      2.222     6.69     1230.446     64.70941      253.027        26     1.967     1.023  45.73   3
       124    628.0499    736.1192 307.6524862  +6.4002878      965.915     2261.409     2741.549     92.02399     183.6836     367.1118      2.482     7.47     1224.856     64.70941     169.3805        13     1.392     1.121  75.91   0
       125    990.1926    735.5984 307.5019916  +6.4125463       1920.9     3714.486     3707.052     91.29305     183.2454     366.8927      2.103     4.91     1218.515     64.70941     210.9606        21     1.418     1.067 -89.39   2
       126    770.6550    732.5721 307.5933379  +6.4064979     10926.05     26686.94     31178.03     91.73231     183.6836     366.9292      2.461     5.67     1221.003     64.70941     1096.611        72     2.128     1.672  33.93   0
       127    900.6642    732.1425 307.5393182  +6.4109976     2507.449     5351.196     6136.647     92.16947     183.5376     367.1483      2.275     5.28     1218.717     64.70941     297.9777        32     1.552     1.375  37.10   0
       128    244.3317    726.3559 307.8122899  +6.3915032     3200.465     8466.476     10882.37     92.02399     183.5376     367.1483      2.801     6.37      1230.04     64.70941     369.9465        59     2.139     1.790  33.54   0
       129    723.1550    713.8221 307.6137137  +6.4126465     1718.079     4543.377     5266.743      91.4397     183.6106     366.9292      2.502     7.36      1220.35     64.70941     179.7335        39     1.869     1.586  26.00   0
       130    989.1393    710.3122 307.5032823  +6.4229352     5920.647     12376.79        13446     92.02398     183.8294     367.1483      2.215     5.16      1216.17     64.70941     605.3573        48     1.866     1.424  40.56   0
       131    927.4014    710.4075 307.5289392  +6.4208458     1551.919     3392.615      3710.34     91.29305     183.2454     366.8927      2.343     6.08     1216.659     64.70941     159.2334        25     1.472     1.413  68.78   0
       132      8.6511    709.7902 307.9107979  +6.3904399     1063.461     2901.406     3568.964      91.4397     183.4646     366.7831      2.853     6.79     1229.676     64.70941     143.4557        14     1.565     1.201 -14.10  18
       133     66.8426    705.7170 307.8867534  +6.3940692     12450.62     32613.72     40247.34     92.02398     183.6106     367.0388      2.664     6.09     1228.807     64.70941     1556.642        87     2.300     1.814  40.27   0
       134    527.8975    705.0912 307.6951614  +6.4097398     981.3394     2236.363     3166.893     92.02399     184.1935     367.1118      2.778     7.16     1223.541     64.70941     120.1404        14     1.562     0.919 -19.86   2
       135    651.1946    725.5055 307.6432263  +6.4054341     3351.094     8705.818     9557.775     91.73231     183.2454     366.8196      2.459     5.92     1223.125     64.70941     356.6156        56     1.962     1.756  28.17   0
       136    496.0405    705.7439 307.7083794  +6.4084080     522.8741     1198.792     1635.869     92.02398     183.6836     367.1483      2.886     4.68     1224.872     64.70941     91.53662         6     1.257     0.495  57.32   0
       137    712.5564    697.5845 307.6186679  +6.4189873      1744.26     4152.647     4499.475     91.29305     183.3916     366.8562      2.360     7.14     1219.521     64.70941     206.4187        32     1.805     1.367  42.84   0
       138    734.4551    695.5582 307.6096348  +6.4205515     2146.504      5311.33     6104.898     91.87827     183.5376     367.1483      2.498     6.59      1219.05     64.70941     219.5607        36     1.808     1.428  24.19   0
       139    566.2302    693.5855 307.6796195  +6.4157609     1459.093     4024.219     4935.002     91.58612     183.3185     367.0388      2.660     8.00     1221.624     64.70941     174.3978        31     1.785     1.686   9.91   0
       140   1007.4114    691.6245 307.4963180  +6.4312455      3396.06     7084.595     7260.144     91.58612     183.3916     367.0388      2.099     5.52     1214.322     64.70941     353.8768        38     1.776     1.353  33.90   0
       141    972.7682    690.6519 307.5107499  +6.4304964     5297.481     11464.87     12311.43     91.87826     183.6836     367.0388      2.211     5.24     1214.661     64.70941     538.5133        47     1.867     1.423  36.33   0
       142    131.4856    684.5903 307.8606076  +6.4049431     10927.43     30137.43     37667.04     91.58612     183.2454     366.9292      2.719     6.26     1227.153     64.70941      1384.68        85     2.329     1.839  41.50   0
       143    418.2025    685.0436 307.7414317  +6.4143433     1236.867     3293.141     4095.262     91.29304     183.0991     366.7101      2.558     7.77     1226.077     64.70941     186.6395        25     1.834     1.325  67.59   0
       144    967.7428    673.5422 307.5134159  +6.4373827     4577.926     9922.097     12029.76     92.02399     183.6106     367.1483      2.332     5.73     1213.291     64.70941     477.6747        55     2.045     1.535  31.38   0
       145   1022.3257    668.5623 307.4908968  +6.4412476     62073.35     107196.2     112082.7     91.87826     167.1859     300.7867      1.868     4.80     1211.919     64.70941     6226.296        63     1.742     1.281  73.60  24
       146    560.0402    670.5228 307.6829735  +6.4250616     15407.11     28302.69     32475.01     91.87826     183.6106     367.1483      2.015     5.93     1219.534     64.70941     1789.624        39     2.084     0.970  36.59   3
       147    561.8055    667.9883 307.6823256  +6.4261653     20959.82      43100.2     51658.26     91.58612     183.3185     367.0022      2.273     6.25     1219.376     64.70941     2352.739        66     2.454     1.206  31.84   3
       148    169.6741    665.1175 307.8453988  +6.4142486     1130.632     2709.477     3264.982     92.31474     183.9751     367.1848      2.319     6.94     1225.918     64.70941     158.5302        15     2.115     0.639  38.24   2
       149    458.6549    653.0049 307.7257055  +6.4289007     25957.72     77156.59     96882.59     91.29304     183.3916     366.7466      2.792     6.79     1222.867     64.70941     2958.504       114     2.390     1.972  38.39   0
       150      3.0766    654.5150 307.9149972  +6.4130379      964.583     1786.706     2194.897     92.16947     172.4722     307.6142      2.098     6.33     1228.055     64.70941     131.9351        13     1.341     1.011  13.05  24
       151    302.3881    640.4185 307.7910807  +6.4288694     755.6001     2016.436     3285.128     91.58612     183.2454     367.0022      3.233     6.62     1223.407     64.70941     126.7594         9     1.462     0.842 -67.67   2
       152    729.5197    637.9999 307.6136326  +6.4441146     1711.227     2996.488     3792.506     91.14615     182.8794     366.7831      1.866     5.45      1215.63     64.70941     209.0228        20     1.637     0.823  38.17   3
       153    730.7979    635.1828 307.6131966  +6.4453184     2349.791     4451.155     5395.423     91.58612     183.0991     366.8196      2.128     7.25     1215.444     64.70941     315.0331        29     2.178     1.025  36.93   3
       154    784.1290    631.5889 307.5911512  +6.4485746     6922.668     17390.15     20027.71      91.4397     183.1722     366.8927      2.491     6.15     1214.852     64.70941     700.2953        62     2.073     1.667  37.27   0
       155   1023.0011    630.3215 307.4919056  +6.4570343     998.9765     1727.927     1949.192     88.15694     156.7625     288.5547      1.808     6.50     1208.695     64.70941     137.8231        13     1.553     0.763  83.54  24
       156   1000.6680    631.2792 307.5011563  +6.4558982      711.501     1484.941     2352.398     92.16948     183.9023     367.1118      2.859     6.89     1209.688     64.70941     93.49792         9     1.465     0.908  11.62   0
       157    607.3899    631.7280 307.6646073  +6.4426323     987.8835     1792.135     2516.898      91.4397     183.1722     366.9292      1.949     5.27     1215.963     64.70941     130.0535        11     1.438     0.545  26.34   3
       158    608.9438    628.6875 307.6640644  +6.4439374     1261.805     2791.181     3901.127     92.02398     183.4646     367.2577      3.145     9.01     1215.646     64.70941     168.9471        22     2.216     1.023  16.10   2
       159    859.5568    613.7744 307.5604013  +6.4584267     1428.372     3256.645     3670.915     91.58612     183.6106     367.0022      2.476     8.26     1213.215     64.70941     169.6543        20     1.739     1.097  24.64   2
       160    818.6169    612.0845 307.5774754  +6.4577621     1394.983     3326.089     3782.289     91.58612     183.3185     367.0388      2.458     8.69      1213.69     64.70941     137.6801        27     1.545     1.364  80.53   0
       161    246.6478    609.8234 307.8152871  +6.4396173      2173.05     4171.147     5305.289     91.58612     183.6106     366.9657      2.187     6.34     1222.984     64.70941      271.303        21     1.972     0.740  27.51   3
       162    247.5157    606.2090 307.8150492  +6.4411362      3434.75     6920.807     9283.868     91.58612     183.2454     366.9292      2.320     7.08     1222.679     64.70941     407.7759        43     2.393     1.110  38.02   3
       163    799.4592    603.5218 307.5857279  +6.4606547      77230.7     203365.5     242027.5     92.16948     183.6106     367.0388      2.615     6.09      1213.44     64.70941     7379.078       171     2.385     2.106   8.74   0
       164    180.6515    604.3115 307.8429042  +6.4396811     17149.72     31285.05     35534.96     92.02399     183.3916     367.2212      1.986     6.40     1223.491     64.70941     1935.497        41     2.001     1.034  31.83   3
       165    181.9591    600.9728 307.8424742  +6.4411011     23283.29     50215.46     65304.64     91.58612     183.3916     366.9292      2.509     6.87     1223.339     64.70941     2637.812        85     2.703     1.378  32.83   3
       166    104.0320    600.5421 307.8748771  +6.4386693      1637.52     2973.879     4194.236     91.87826     183.6836     367.0388      1.887     5.65      1223.47     64.70941     216.7759        15     1.532     0.688  32.94   3
       167    105.8209    597.3954 307.8742407  +6.4400263     2756.639      5862.51     8048.126     91.58612     183.3185     366.8927      2.680     7.35     1223.335     64.70941     323.7623        38     2.461     1.048  39.16   2
       168    969.9508    593.7935 307.5151890  +6.4703313     720.1329     1623.924     1911.041      91.4397     183.3916     366.6735      2.541     6.38     1208.824     64.70941     117.3822         8     1.635     0.699  39.27   0
       169    834.7104    591.2540 307.5714898  +6.4668843      1892.69     3315.662     4375.259     92.02399     183.3916     367.2577      2.388     7.56     1211.913     64.70941     248.7356        23     2.294     0.877  38.71   3
       170    836.2874    589.6450 307.5708887  +6.4676000     1926.848     3672.775     4265.318     92.02399     183.4646     367.1118      2.223     6.15     1211.817     64.70941     252.5693        20     1.889     0.763  31.34   3
       171    353.7850    591.0174 307.7713961  +6.4509512     5191.835     10401.58     12143.19     91.73231     183.2454     367.0388      2.163     6.17      1219.23     64.70941     543.1936        33     2.033     0.976  29.38   3
       172    355.3119    587.9355 307.7708661  +6.4522726     6912.039        13993      17136.3     92.02398     183.8294     367.1118      2.342     6.84         1219     64.70941     816.2784        49     2.485     1.086  29.55   3
       173    790.0288    584.0467 307.5903060  +6.4683693     2706.567     7325.685     8762.267     91.58612     183.6836     367.0022      2.635     6.87      1212.02     64.70941     302.8478        48     1.935     1.697  47.54   0
       174    157.6394    587.4200 307.8530430  +6.4458736      913.215     2116.316     3040.622     91.58612     183.3916     366.8196      2.859     6.57     1222.919     64.70941     108.0769        12     1.738     0.697  29.90   0
       175    519.4355    585.8077 307.7027209  +6.4586292     1947.602     3533.399     4148.517      91.4397     183.3916     366.8562      1.896     6.81     1216.215     64.70941     280.3015        20     1.870     0.760  31.84   3
       176    521.4422    582.8951 307.7019855  +6.4598967     2648.822     5859.293     7457.425     92.02398     183.5376     367.2577      2.420     7.61     1215.976     64.70941      287.775        34     2.241     1.078  36.57   3
       177    167.2643    579.2382 307.8493209  +6.4495685      2239.63     4982.984     6872.724     92.02399     183.5376     367.2213      2.382     7.16      1222.51     64.70941     250.5735        25     2.104     0.843  26.78   3
       178    168.5150    576.0071 307.8489110  +6.4509423     2910.456     5800.586     7545.447     91.58612     183.2454     366.9292      2.366     6.69     1222.349     64.70941     317.3594        37     2.227     1.098  25.01   3
       179    565.7817    576.9146 307.6837583  +6.4638408     1063.222     3030.575     4196.612     91.58612     183.3185     367.0388      3.029     9.53      1214.57     64.70941     116.2864        23     1.623     1.560 -37.33   0
       180    262.0456    575.5361 307.8100524  +6.4542661     24798.35      46135.9     52695.24     92.02398     183.5376     367.1483      2.030     6.12      1219.88     64.70941     2838.722        41     2.151     0.946  35.46   3
       181    264.0201    572.6218 307.8093307  +6.4555334     34819.34     75377.52     94253.52     91.73231     183.5376     367.0388      2.426     6.88     1219.576     64.70941     3855.435        85     2.615     1.366  36.55   3
       182     39.8607    575.8145 307.9023898  +6.4467120     2301.706     6282.051     7691.091      91.4397     183.5376     366.8196      2.694     7.21     1223.268     64.70941     284.9374        48     2.159     1.636  49.90   0
       183    806.3999    576.6115 307.5837524  +6.4719789     933.2848     2076.914     2822.305     91.58612     183.2454     366.8927      2.652     6.57     1211.293     64.70941     158.0991        11     1.455     0.861  -1.20   0
       184    489.9717    564.4888 307.7156904  +6.4664343     16806.34     50993.88     67990.55     92.16947     183.3185     367.0022      2.940     7.04     1214.837     64.70941     1801.919       121     2.537     2.088  29.37   0
       185    961.9738    566.7127 307.5194187  +6.4812300     866.6006     2095.656     2242.293     92.16947     183.3916     367.0388      2.266     8.65     1207.345     64.70941     142.9115        14     1.738     1.202  48.19   0
       186    204.5923    561.1843 307.8344200  +6.4582599     953.5539      2459.07     4696.535     91.58612     183.3185     366.9292      4.285     8.79     1220.706     64.70941     126.1533        13     1.812     1.190  60.26   2
       187    651.6757    558.9276 307.6486645  +6.4741183      1043.52     2302.201     4332.044     92.31474     183.9023     367.1118      4.241     6.60     1211.631     64.70941     144.0736        12     1.599     0.764  28.51   3
       188    648.1825    558.4931 307.6501312  +6.4741810     1083.328     2554.934     4315.488     91.87826     183.3916     366.9292      2.991     9.15     1211.657     64.70941      146.697        19     2.218     1.053  69.60   2
       189    319.4592    552.2170 307.7869809  +6.4657983     1335.855     3508.976     5366.527     91.58612     183.4646     366.8196      3.026     9.62     1216.681     64.70941     149.1327        30     2.509     1.029  41.79   2
       190    317.7962    555.0462 307.7875761  +6.4645764      1022.56     1989.332     3340.029     91.29304     183.3185     366.7466      2.159     5.91     1216.921     64.70941     128.3641        10     1.653     0.594  40.49   3
       191    134.4102    552.2698 307.8638936  +6.4595852     10328.27     30734.78     38765.69      91.4397     183.3916     366.9292      2.823     6.90     1221.718     64.70941     1259.919        86     2.364     1.919  41.67   0
       192    786.2408    565.8837 307.5924946  +6.4757306     7549.982      20181.1     24025.65     92.02398     183.5376     367.0388      2.584     6.29     1210.785     64.70941     802.2229        71     2.168     1.750  37.37   0
       193    500.2832    551.5851 307.7118418  +6.4720976      721.288     2002.091     2897.647     91.58612     183.2454     366.9657      3.028     7.04     1213.867     64.70941     112.8815         8     1.716     0.809  24.34   2
       194    388.1868    554.1155 307.7583497  +6.4673122     747.1248     1770.724     2554.382     91.58612     183.4646     366.9292      3.087     4.31     1216.301     64.70941     103.8934         6     0.991     0.701   3.00   0
       195     99.0092    552.7441 307.8785914  +6.4582039      864.549     1811.022     2473.458     91.29305     183.5376     366.7831      2.167     6.23     1221.894     64.70941     152.4741        11     1.764     0.619  18.81   2
       196    100.3132    549.6755 307.8781538  +6.4595125     1078.619     2400.405     2725.924     92.02399     183.9751     367.1848      2.439     7.54     1221.791     64.70941     113.5717        16     1.676     0.948  18.71   2
       197    959.3222    546.0250 307.5212191  +6.4896702     2809.465     6140.598     6281.097     91.58612     183.5376     367.0753      2.165     5.74     1205.989     64.70941     286.2675        34     1.608     1.420  54.49   0
       198      1.7289    537.4122 307.9195464  +6.4612633     5348.753     8399.863     9186.471     84.90507     152.3409     283.5424      1.689     5.49     1221.585     64.70941     926.7146        26     1.760     0.837  88.84  24
       199    429.7924    534.7704 307.7417124  +6.4766761     12043.87     22545.44     25955.66     91.58612     183.3916     366.8562      2.041     6.75     1214.299     64.70941     1494.433        40     2.255     0.931  32.62   3
       200    432.0104    531.9901 307.7408848  +6.4778963     16454.06     35623.08     44076.57     91.58612     183.3916     367.0388      2.402     6.89     1213.996     64.70941     1784.679        67     2.612     1.224  31.85   3
       201    639.3752    532.6898 307.6546657  +6.4845244     4968.486     14539.94     17658.81     92.16948     183.3916     366.9292      2.766     6.95     1210.676     64.70941     526.2472        66     2.158     1.860  30.49   0
       202    196.5880    530.9435 307.8387752  +6.4704577     7370.238      22893.4     29877.62     91.29304     183.5376     366.7466      2.907     7.13     1218.494     64.70941     884.0356        90     2.487     1.959  43.34   0
       203    561.1805    529.4215 307.6872799  +6.4832652     1116.045     3196.608      3862.83     91.73231     183.5376     367.0388      2.819     9.35     1211.577     64.70941     120.3483        26     1.730     1.410  18.12   0
       204    934.7230    526.3661 307.5321083  +6.4969571     2763.757     6259.241     7031.295     91.87826     183.6106     367.0753      2.303     6.12     1205.456     64.70941     258.5278        37     1.658     1.495  47.75   0
       205    607.0314    526.7556 307.6683112  +6.4858927     2033.394     3836.622     5013.493     91.58612     183.6836     366.9657      2.099     5.64     1210.943     64.70941      266.821        19     1.590     0.939  29.12   3
       206    608.5206    523.8771 307.6677897  +6.4871290     2550.848     5646.977     7147.947     92.31474     183.9023     367.2942      2.427     7.85     1210.749     64.70941     275.5137        36     2.186     1.250  19.29   3
       207    957.5676    518.5219 307.5228767  +6.5009496     1972.218     4429.356     4767.637     91.87827     183.6106     367.0753      2.234     7.34     1204.173     64.70941     203.9591        28     1.710     1.207  17.64   0
       208    519.5049    518.2015 307.7049836  +6.4865003     2323.478     4904.591     6086.681      91.4397     183.2454     366.6735      2.251     7.23     1211.098     64.70941     266.8505        27     2.115     0.875  24.63   3
       209    520.8051    515.1669 307.7045461  +6.4877947     2661.199     5871.432     7985.319     91.29304     183.4646     366.8562      2.451     7.39     1210.863     64.70941     289.4066        38     2.352     1.034  28.99   3
       210    366.7587    516.4522 307.7685349  +6.4821219     1012.764     2812.739     3534.097     92.02399     183.6836     367.1118      2.763     8.01     1213.339     64.70941     144.8752        18     1.790     1.215 -74.58   0
       211    876.3263    511.8197 307.5568746  +6.5010132     1681.884     4295.808     5180.844     91.58612     183.5376     367.0388      2.607     7.63     1205.213     64.70941     186.0498        34     1.671     1.622  60.36   0
       212    883.8301    506.0928 307.5539487  +6.5036234     1275.903     2865.896     3184.292     92.16947     183.3185     367.0388      2.249     7.50     1204.746     64.70941     198.6875        19     1.339     1.176 -45.00   0
       213    708.1217    502.0766 307.6271252  +6.4994338     1312.016     3460.198     3025.579     92.31474     183.9023     367.2212      2.359     9.30     1208.461     64.70941     153.2776        27     1.698     1.423  82.14   0
       214    377.5592    502.7250 307.7645115  +6.4881413     1041.578     1950.533     2925.337     91.87826     183.6106     367.1483      2.208     5.64     1212.242     64.70941     164.6998        11     1.646     0.544  44.34   2
       215    379.9788    499.8745 307.7636025  +6.4893972     1344.813      3055.92     4396.777     91.58612     183.4646     367.0388      2.989     7.52     1211.992     64.70941     186.8207        20     1.859     0.908  39.32   2
       216     70.2701    501.7001 307.8922742  +6.4782818     925.4042     2576.114     3119.213     92.02399     183.7565     367.1483      2.771     8.86     1220.182     64.70941     100.8861        17     1.830     1.199 -66.25   2
       217    605.7449    499.0223 307.6697853  +6.4972823     3039.091     6067.062     8013.986      91.4397     183.6106     366.8927      2.147     6.52     1209.327     64.70941     336.4285        27     2.101     0.857  32.65   3
       218    606.9620    495.8848 307.6693856  +6.4986162     3908.609     8553.391     10300.87     92.02399     183.6106     367.0753      2.341     7.44      1209.15     64.70941     400.5447        38     2.228     1.088  28.67   3
       219    768.6276    495.3234 307.6022018  +6.5042317     5635.943     10047.47     11959.57     91.87826     183.6106     367.0753      1.979     5.11     1206.606     64.70941     742.4313        27     1.824     0.946  34.89   3
       220    769.8311    492.6538 307.6017918  +6.5053722     6827.298     14304.02     18960.43     91.87826     183.6836     367.0022      2.507     6.49     1206.446     64.70941     682.2415        52     2.271     1.574  29.69   3
       221    290.7642    493.4583 307.8009042  +6.4890602     1055.706     2719.531      4162.25     92.02399     183.6106     367.1118      2.976     3.78     1212.053     64.70941     200.7689         8     1.194     0.634  29.74   2
       222    107.1606    486.1082 307.8774713  +6.4859450     1724.537     5060.678      7027.94     92.16947     183.5376     367.1848      3.024     9.33     1218.419     64.70941     192.3951        46     2.299     1.678  39.38   0
       223    954.0509    488.3242 307.5253579  +6.5132813      1009.55     2022.311      2544.39     92.02398     183.6836     367.1118      2.329     6.27     1202.222     64.70941     135.5156        11     1.176     0.938 -22.35   0
       224    743.9914    486.3903 307.6127451  +6.5070942     817.5076     1622.675     2073.475      91.4397     183.3916     367.0022      2.153     7.21     1207.007     64.70941     123.4796        10     2.038     0.714  50.38   2
       225    744.8311    483.0386 307.6125094  +6.5085039     883.2519     2109.628     2388.953     91.58612     183.3185     366.9292      2.467     5.95     1206.801     64.70941     128.5273         9     1.633     0.704  29.64   3
       226   1008.4806    483.0072 307.5029106  +6.5172804     2475.381     5899.471     6263.203     91.58612     183.0991     366.9292      2.367     6.09     1199.557     64.70941     291.0497        43     1.909     1.456  30.38   0
       227    343.2680    480.4879 307.7795204  +6.4961620     1255.048     3404.157     4434.549     92.16948     183.9023     367.1483      3.041     9.66      1210.49     64.70941     157.1936        24     1.951     1.334  84.66   0
       228    706.9761    467.1562 307.6287830  +6.5137908      5068.11     9761.469     11952.36      91.4397     183.5376     366.9292      2.159     6.28     1206.013     64.70941     552.4926        34     2.142     0.915  31.72   3
       229    708.1866    464.2982 307.6283765  +6.5150092     6056.331     13233.35     16913.52     91.87826     183.3185     366.8196      2.438     6.53     1205.682     64.70941     623.1016        44     2.475     1.038  26.99   3
       230    825.0201    467.6647 307.5796945  +6.5175094     724.3312     1492.713     934.3196     91.58612     183.6106     366.9292      2.144     5.24     1203.158     64.70941     88.62317         7     1.041     0.746 -76.27   0
       231    809.1801    467.3505 307.5862899  +6.5171121     880.9058     2164.377     2504.967      91.4397     183.6836     366.9292      2.242     5.17     1203.349     64.70941     115.1348         8     1.424     0.531  82.64   2
       232    629.2305    461.7000 307.6612865  +6.5134502      996.923      2976.36     3439.572     92.02399     183.3185     367.2212      2.769     8.81     1206.147     64.70941     157.4712        20     1.921     1.339 -35.73   0
       233    599.6827    458.3089 307.6736844  +6.5138632      4293.02     7367.892     8618.563     91.73231     183.9023     367.1848      1.903     6.21     1205.782     64.70941     583.6016        22     1.865     0.787  35.32   3
       234    601.3515    455.0282 307.6731018  +6.5152713      6289.05     14872.04      22313.2     91.58612     183.6836     367.0388      3.081     9.91     1205.465     64.70941     628.5072        81     3.410     1.612  43.10   2
       235    933.0135    454.9211 307.5352310  +6.5263524     1957.802     4787.132     5533.725     91.58612     183.3185     366.8562      2.423     7.85     1200.727     64.70941     182.7427        36     1.821     1.521  29.70   0
       236    371.2243    453.4205 307.7688186  +6.5082539     8377.513     15773.39     18381.68     91.58612     183.3916     367.0753      2.021     5.85     1208.065     64.70941     990.4397        37     2.037     0.995  35.45   3
       237    373.1219    450.3421 307.7681343  +6.5095863     10680.09     23831.95     31010.16     92.02398     183.5376     367.0388      2.548     7.36     1207.786     64.70941     1177.465        63     2.630     1.253  35.05   3
       238    118.7112    450.7340 307.8738741  +6.5009135     1021.272      2622.69     3098.307     92.02399     183.8294     367.0753      2.613     8.94     1215.272     64.70941     129.1646        21     1.600     1.393 -73.13   0
       239    889.0179    449.9601 307.5536881  +6.5269355     761.1506     1666.758     2201.699     91.58612     183.3916     366.8562      2.560     6.49     1201.195     64.70941       116.33         8     1.512     0.781  32.73   0
       240    901.9630    445.8192 307.5484466  +6.5290728     2349.925     6275.226      6986.42     91.58612     183.3916     366.8562      2.565     7.84     1200.723     64.70941       249.55        45     2.066     1.560  33.51   0
       241     53.2359    447.3662 307.9012047  +6.5001077     631.4854     1615.693     2068.477     91.73231     183.3185     366.8196      2.358     4.26     1217.988     64.70941        110.4         5     1.406     0.368  83.30   2
       242    229.0118    444.2333 307.8282460  +6.5072859     4082.186      8511.12     10263.14      91.4397     183.3185     367.0022      2.235     5.79     1209.741     64.70941     498.0736        30     1.837     1.061  23.93   3
       243    230.8845    441.0788 307.8275748  +6.5086489     5286.174      11487.1     15347.87     92.02398     183.9751     367.2212      2.598     7.57     1209.509     64.70941     618.1144        56     2.665     1.425  29.09   3
       244    129.3091    432.6783 307.8700833  +6.5087112     1582.762     3242.433     4348.605     91.73231     183.9023     367.1848      2.150     6.77     1213.631     64.70941     209.2251        19     1.874     0.777  37.78   3
       245    131.4765    429.8440 307.8692788  +6.5099521     1908.775     4150.011     5560.735     91.87826     183.6836     367.1483      2.635     8.41     1213.365     64.70941     245.1198        32     2.429     1.070  36.96   2
       246    236.9738    430.1625 307.8254147  +6.5133525     602.3621     1346.871     2045.522     91.58612     183.3916     366.8927      1.958     4.97     1208.657     64.70941     93.84229         5     1.545     0.452 -25.19   0
       247    153.4535    425.6579 307.8602859  +6.5124137     1083.883     2857.064     4244.166     92.16948     183.6106     367.1118      3.227     9.14     1212.379     64.70941     149.1028        20     2.265     1.029  35.10   0
       248    374.5401    423.1301 307.7684686  +6.5208509     783.3397      1729.36     2880.562     92.16947     183.6106     367.1483      1.911     3.71     1205.422     64.70941     156.4902         6     1.150     0.343  42.05   0
       249    427.8416    416.7632 307.7465273  +6.5252559     1983.515     3676.847     4750.463     91.73231     183.6106     366.9657      2.003     7.13      1203.68     64.70941      268.463        23     1.998     0.819  28.80   3
       250    430.2643    413.6786 307.7456249  +6.5266084      2727.79     6104.771     7823.785     92.31474     183.6836     367.0753      2.482     8.02     1203.436     64.70941     313.9904        44     2.518     1.289  30.53   3
       251    376.3907    419.7918 307.7678126  +6.5222889     723.9795     1570.963     2628.763      91.4397     183.3916     366.9657      1.963     3.72      1205.14     64.70941     107.9867         5     1.004     0.396   5.51   0
       252     26.2290    415.6032 307.9135126  +6.5122952     1426.184      3965.91      5679.38      91.4397     183.3185     366.8927      3.181     8.05     1217.951     64.70941     186.3461        34     2.072     1.591 -82.66   0
       253    769.0033    413.5194 307.6048121  +6.5379661     4479.942      8573.82     12371.82     91.29305     183.0991     366.7831      2.821     6.13     1200.118     64.70941     531.0417        36     2.840     1.004  18.60   3
       254    770.3959    410.8020 307.6043251  +6.5391327     4915.756     11282.15     14281.16     91.29305     183.0991     366.8196      2.517     7.07     1199.921     64.70941     483.6012        46     2.298     1.250  31.05   3
       255   1013.6660    406.7629 307.5033272  +6.5488830     2032.274     4887.519     5102.575     91.87826     183.5376     367.1848      2.411     6.50     1193.452     64.70941     216.1243        34     1.653     1.516  69.08  16
       256    476.6483    400.6466 307.7267848  +6.5335290     1178.997     2161.362     3651.357     92.02399     183.4646     367.1118      2.303     6.39     1201.036     64.70941     146.8788        12     1.424     0.806  35.71   3
       257    478.0958    396.9941 307.7263070  +6.5350829     1120.745     2585.813     3966.446     91.73231     183.2454     366.8927      2.667     8.36     1200.623     64.70941     139.6177        20     2.191     0.891  30.79   2
       258    835.3807    394.9399 307.5778454  +6.5478333     15380.44     41503.79     51058.59     91.58612     183.4646     366.9657      2.688     6.25     1198.271     64.70941     1429.757        96     2.248     1.930  44.37   0
       259    451.0865    397.8823 307.7375049  +6.5338152     886.2048     2101.249     2678.221     91.73231     183.8294     367.2212      2.987     6.25     1201.654     64.70941     126.3806        10     1.263     0.870  51.00   0
       260    607.3188    387.4311 307.6729110  +6.5433354     981.8575     3047.208     4170.162     91.87826     183.4646     367.0753      3.026    10.66     1199.021     64.70941     128.6404        26     1.918     1.650  66.13   0
       261    690.7944    382.5966 307.6383718  +6.5481096     26963.46     52611.16     60203.91     91.29305     183.2454     366.9292      2.097     5.71     1198.968     64.70941     3208.443        49     2.180     1.025  31.24   3
       262    692.5616    379.7223 307.6377344  +6.5493534     29506.15     62053.13     74814.37     91.87826     183.6836     367.1118      2.338     7.06     1198.816     64.70941     3061.011        71     2.517     1.207  27.97   3
       263     90.3299    378.6724 307.8881247  +6.5296670     1740.774      3263.58     4208.579     92.16948     183.7565     367.0753      2.164     7.02     1212.824     64.70941     207.0752        20     1.808     0.763  32.14   3
       264     92.6178    375.8177 307.8872708  +6.5309204     2405.691     5308.583     6704.215     91.73231     183.2454     367.0388      2.477     7.33     1212.619     64.70941     321.9884        37     2.372     1.191  40.31   3
       265    553.7015    377.9930 307.6955207  +6.5454382      931.541     2780.243      3672.49     91.73231     183.1722     366.8562      2.909     7.36     1197.866     64.70941     110.5503        11     1.568     0.967  68.13   2
       266    536.5232    375.9840 307.7027302  +6.5456933     1986.236     3306.963     4786.899      91.4397     183.3185     366.9657      2.071     5.67     1197.766     64.70941     258.7322        14     1.586     0.630  49.38   3
       267    537.9662    372.9647 307.7022326  +6.5469861      2614.03     6758.586     9277.252     91.73231     183.3185     366.8196      3.052     8.56     1197.547     64.70941     295.6276        49     2.448     1.552  31.48   2
       268    399.2312    371.3875 307.7599610  +6.5430051     7139.202     12308.93      12961.6      91.4397     183.3916     367.0388      1.858     6.03     1201.466     64.70941     874.4847        28     1.889     0.857  30.56   3
       269    401.3745    368.0961 307.7591817  +6.5444334     9431.727     21634.73     28207.93     92.16947     183.3185     366.9657      2.599     7.72     1201.258     64.70941     965.7488        67     2.713     1.429  32.57   3
       270    266.6291    371.6754 307.8150753  +6.5384538     1002.337     3014.702     4448.394     91.87826     183.6836     367.1483      3.047     8.34     1204.365     64.70941     141.2101        20     1.706     1.527  87.80   0
       271    508.3352    368.7053 307.7146953  +6.5477533     661.4885     1600.535     1712.208     91.87826     183.7565     367.1483      2.325     6.51     1197.554     64.70941      97.4707         8     1.723     0.691 -63.22   0
       272    488.5807    361.1707 307.7231633  +6.5502000      2853.44      5884.13     8017.327     91.58612     183.3916     367.0388      2.305     6.68     1196.989     64.70941     317.2181        28     2.149     0.963  35.52   3
       273    490.5710    358.6400 307.7224217  +6.5513096     3185.172     7149.719     9368.809     91.58612     183.3185     366.9657      2.527     8.30     1196.795     64.70941      353.958        43     2.422     1.203  30.10   3
       274    758.7064    358.4459 307.6109556  +6.5603263      1312.77      3718.03     4139.316     91.87826     183.5376     367.2577      2.672     9.58     1197.019     64.70941     145.8899        31     1.832     1.486  35.59   0
       275    378.4862    345.8495 307.7694520  +6.5528391      2424.97     4942.893     5399.954     92.02398     183.5376     367.1848      2.244     7.11     1200.021     64.70941     271.0042        29     2.120     1.004  33.52   3
       276    380.6434    342.9402 307.7686540  +6.5541105     2755.959     5745.572     7399.499     91.87826     183.6106     367.2577      2.390     8.08     1199.789     64.70941     307.3688        37     2.345     1.087  26.39   3
       277    235.5998    342.1454 307.8289784  +6.5495883     672.5155     1671.283      3285.38     91.14615     183.1722     366.6735      3.633     8.63     1204.165     64.70941     125.7155        13     2.494     0.834  36.18   2
       278    746.6346    341.3180 307.6165538  +6.5669850     18664.09     32855.57     36159.13     92.02399     183.5376     367.0753      1.924     5.69     1195.968     64.70941     2306.303        42     2.058     0.961  27.27   3
       279    747.6086    338.4023 307.6162475  +6.5682194     20789.47     46443.95     55697.36     91.29305     183.2454     366.8562      2.399     6.86     1195.657     64.70941     1986.297        62     2.498     1.181  26.67   3
       280    420.1960    341.7605 307.7522511  +6.5559181      558.438     1363.601     1872.447     90.99902     183.3185     366.7831      2.171     3.77     1199.036     64.70941     100.4097         5     1.198     0.341  12.89   0
       281    420.3961    337.8878 307.7522993  +6.5575211     776.1142     1517.038     2123.575      91.4397     183.2454     366.7466      2.309     6.37     1198.672     64.70941     103.5967        10     1.287     0.885  40.48   0
       282    922.3511    335.4933 307.5436967  +6.5752300     1117.145     2823.846     3367.409     91.87827     183.4646     367.2577      2.536     8.90     1191.366     64.70941     137.3904        20     1.649     1.402 -87.81   0
       283    981.8130    334.2784 307.5190160  +6.5777059     526.9532     1376.972     2038.131     91.58612     183.3185     366.8927      2.530     5.51     1189.469     64.70941      132.657         7     2.453     0.349  47.15   2
       284    406.4996    333.8431 307.7582138  +6.5587243     653.5957     1479.464     1713.556     92.02399     183.4646     367.3672      3.106     5.53     1198.705     64.70941     100.6714         7     1.235     0.698  85.55   0
       285    826.2611    329.1690 307.5838601  +6.5746426     579.6942     1510.335     2019.579     91.73231     183.6836     367.0388      2.703     7.58      1193.73     64.70941     92.71509        10     1.413     1.139  54.93   0
       286    181.7911    326.4414 307.8518816  +6.5542606      886.788     2811.871     3443.151     91.29305     183.3916     366.8196      2.891     9.36     1205.966     64.70941     133.3834        19     2.252     1.086 -86.71   0
       287    744.9618    325.6454 307.6177795  +6.5733900     2063.725     3961.077     5075.207     91.73231     183.5376     367.0022      2.016     5.68     1194.554     64.70941     235.0592        14     1.688     0.673  31.60   3
       288    746.7267    323.2886 307.6171255  +6.5744203     2320.346     5598.054     7456.208     92.02399     183.9023     367.1483      2.716     9.42     1194.237     64.70941     256.4631        40     2.312     1.447  42.49   2
       289    761.6473    321.9988 307.6109659  +6.5754486     1120.446     3091.531     4216.486     91.29304     183.1722     366.6004      2.974     9.36     1193.967     64.70941       129.84        22     1.791     1.364  46.04   0
       290    351.2534    317.5602 307.7817341  +6.5635904     887.0918     2224.129     3365.929     91.87826     183.6106     367.0753      2.974     6.58     1199.071     64.70941     114.1211        11     1.412     1.049  81.81   0
       291   1000.2191    312.7687 307.5120895  +6.5871840     3300.383     7937.862     9206.028      91.4397     183.3916     366.9657      2.376     5.87     1187.339     64.70941     341.4463        44     1.896     1.462  42.36   0
       292    479.2331    312.2348 307.7287092  +6.5700603     652.0771     1421.761      1881.12     91.58612     183.3185     366.8196      2.581     6.75     1192.758     64.70941     102.3643        11     1.503     0.850  18.95   0
       293    240.5470    311.2059 307.8279737  +6.5625074     1657.997      3362.67     4434.155      91.4397     183.3185     366.7831      2.136     7.62     1202.896     64.70941     199.5232        21     1.745     0.973  35.52   3
       294    241.9056    307.6802 307.8275288  +6.5640062     2032.674     4451.336     5980.331     91.73231     183.9023     367.1848      2.566     8.70     1202.757     64.70941     244.3195        36     2.499     1.103  32.03   3
       295    374.6295    301.0002 307.7725783  +6.5711979     688.5565     1641.338     2320.019     91.29304     183.3916     366.8927      2.356     5.76     1197.262     64.70941        100.8         6     1.529     0.611   5.75   0
       296    898.0391    289.9439 307.5553433  +6.5931988     1018.029     2562.272     3214.758     92.02399     183.6836     367.0753      2.594     7.51     1189.303     64.70941     123.7484        16     1.520     1.039  77.35   0
       297    718.1545    288.4034 307.6301850  +6.5878496     2087.191     6073.558     7579.589     91.29305     183.2454     366.7101      2.856     7.55     1190.663     64.70941     276.0496        48     2.010     1.745  -9.26   0
       298    660.3788    287.1058 307.6542498  +6.5864601     815.0057      2036.04     2660.281     91.87826     183.3916     366.9292      2.829     5.29     1190.273     64.70941     129.2936         7     1.211     0.652  89.70   2
       299    556.3009    289.6215 307.6974354  +6.5819535     789.3798     1980.232     2076.615     92.02399     183.3185     366.8562      2.471     6.21     1190.481     64.70941     94.82788         9     1.359     0.798  44.37   0
       300    217.5805    276.2065 307.8387118  +6.5761659     737.4929     1547.212     2870.146     91.58612     183.3185     366.8927      3.160     6.20     1202.875     64.70941     95.59009         8     1.448     0.746  29.54   2
       301    219.3680    273.3568 307.8380656  +6.5774004     923.4666     2043.844     2503.931      91.4397     183.5376     366.9292      2.181     5.13     1202.839     64.70941      138.421         9     1.407     0.529  54.13   2
       302    859.9018    274.5052 307.5717213  +6.5982953     723.8271     1890.478      2530.14     92.02398     184.2663     366.9292      2.766     5.30      1189.67     64.70941     104.6115         8     1.152     0.689  28.63   2
       303    748.3309    271.6407 307.6182060  +6.5957643     667.8451     1635.322     2964.802     91.87826     183.6106     367.2212      3.040     5.52     1189.968     64.70941     91.49084         7     1.492     0.576  64.97   2
       304    450.5397    265.5197 307.7422234  +6.5883592     7226.586     13511.56     15602.87     92.16948     183.6106     367.0753      2.052     6.16     1190.693     64.70941     866.3114        33     2.122     0.909  26.45   3
       305    452.2832    262.3134 307.7416073  +6.5897391     7891.696     18842.45     26037.76     91.73231     183.8294     367.1848      2.746     7.56     1190.333     64.70941     856.0681        68     2.640     1.489  23.45   3
       306    776.4636    263.9737 307.6067686  +6.5998611     4832.843     8659.898     10061.83     91.58612     183.6106     367.0388      2.028     6.23     1189.584     64.70941     605.4556        29     2.065     0.844  38.26   3
       307    777.6188    261.3949 307.6063756  +6.6009626     5432.258     12431.34     15920.07     91.58612     183.1722     366.8927      2.573     7.02     1189.385     64.70941     550.6936        48     2.593     1.195  30.30   3
       308    140.6380    256.2159 307.8713797  +6.5818299     869.6122     2408.515     3501.269     91.73231     183.3916     366.8196      3.186    10.59     1206.822     64.70941     118.3741        18     2.191     1.428  25.26   0
       309    574.2236    250.9976 307.6912931  +6.5984728     1231.395     1933.233     2662.321     91.58612     183.2454     366.8927      1.855     6.38     1187.717     64.70941     171.5046        14     1.862     0.614  42.00   3
       310    576.2184    247.9966 307.6905655  +6.5997764     1628.523     4082.335      4965.63     91.58612     183.0991     366.8927      2.554     9.54     1187.532     64.70941      184.502        34     2.173     1.234  41.48   2
       311    537.1215    251.3928 307.7067055  +6.5970723     817.6577      1837.87     3294.661     91.58612     183.0259     366.8562      3.815     6.71     1187.389     64.70941     118.3909         9     1.378     0.918  69.08   0
       312    882.5673    245.7241 307.5632702  +6.6109132     5354.767     14212.21     16916.94     91.87826     183.6106     367.0388      2.610     6.68     1186.669     64.70941     544.8865        62     2.122     1.717  42.63   0
       313    380.6766    250.9316 307.7717645  +6.5920389     488.4509     1032.778     1162.456     92.16947     183.7565     367.0753      1.790     3.47     1194.088     64.70941      93.5614         5     1.695     0.205 -54.50   0
       314    936.0556    246.6497 307.5409993  +6.6123092     1220.973      3151.41     3815.289     92.02398     183.6106     367.1483      2.531     8.73     1185.683     64.70941     138.7877        23     1.631     1.415  54.06   0
       315    969.2902    243.4810 307.5272879  +6.6147194     5124.119     12460.83      14192.5     91.73231     183.8294     367.1848      2.453     6.06     1184.529     64.70941     504.3722        58     2.154     1.570  43.22   0
       316      9.0607    243.0184 307.9265301  +6.5828594      9931.47     30806.41     40281.04     91.58612     183.5376     366.9292      2.932     7.44     1214.565     64.70941     1142.727        93     2.434     1.998  41.90  16
       317    680.6384    243.9347 307.6472883  +6.6049311     1072.287     3373.762     4394.208     91.87826     183.5376     367.2212      2.831    10.05     1187.876     64.70941     144.6494        26     1.789     1.574  44.80   0
       318    488.8065    240.6254 307.7271583  +6.5998985     666.4969     1896.869     2331.114      91.4397     183.4646     366.8927      2.803     6.08     1186.632     64.70941     119.8588         9     1.206     0.861  46.36   2
       319    820.8550    236.3962 307.5892444  +6.6127062     782.9144     1934.456     2496.537     91.29305     183.3916     366.7466      2.725     5.72     1187.096     64.70941     106.4728         7     1.359     0.678  88.92   2
       320    501.7011    235.5213 307.7219703  +6.6024329     899.8463     2894.823     3113.488     91.73231     183.9751     367.1483      2.835     8.89     1186.213     64.70941     125.6104        17     1.793     1.231 -60.13   2
       321    732.7694    231.8110 307.6260239  +6.6116649     15938.22     47831.09     60358.62      91.4397     183.3185     366.9657      2.798     6.73     1187.625     64.70941     1587.878       102     2.331     2.010  38.91   0
       322    336.1412    231.3982 307.7909438  +6.5986024     2716.472     7881.163     12165.59     91.29305     183.2454     366.7831      3.315     7.99     1195.816     64.70941     283.1434        78     2.437     2.118  85.23   0
       323    873.2303    234.6947 307.5675250  +6.6151494     1027.223     2329.303      2811.56     92.16948     183.3185     367.1118      2.492     6.53     1185.921     64.70941     153.9034        10     1.744     0.686 -49.46   2
       324    966.1976    230.0658 307.5290267  +6.6201469     1424.482     3471.201     3828.107     91.29304     183.2454     366.8562      2.361     8.53     1184.071     64.70941     163.9316        27     1.553     1.360  58.86   0
       325    900.6352    228.8661 307.5563274  +6.6184631     3770.355     9661.094     11190.16     91.87826     183.6106     367.1848      2.500     6.12     1185.265     64.70941     356.1333        54     2.044     1.600  36.38   0
       326    443.4579    229.9688 307.7463742  +6.6027773     1572.412     3285.229     3454.055     91.87826     183.6106     367.0388      2.271     7.92     1188.682     64.70941     182.4552        23     2.023     0.882  23.16   3
       327    445.0691    226.7006 307.7458152  +6.6041783     1613.979     3482.165     4397.274     92.02398     183.7565     367.1118      2.496     9.30     1188.313     64.70941     194.8707        30     2.332     1.083  27.28   3
       328   1004.4086    228.9336 307.5131771  +6.6218824     1013.004      2242.91     2693.309      91.4397     183.3185     366.9657      2.280     7.27     1182.915     64.70941      111.671        17     1.394     1.063  10.03   0
       329    101.6445    219.7972 307.8888307  +6.5955354     1693.447     5657.552     7339.016     91.29305     183.0991     366.7101      2.909     9.18     1210.227     64.70941     189.6639        50     2.113     1.828  35.30   0
       330    271.2187    218.4078 307.8183773  +6.6017860     10372.86     19474.15     21255.77     91.58612     183.2454     366.9292      2.052     5.95     1199.962     64.70941     1149.449        43     2.120     1.050  27.13   3
       331    272.8025    214.9057 307.8178379  +6.6032826     11797.77     26680.73     33988.55     91.58612     183.2454     366.7831      2.520     7.37     1199.889     64.70941     1259.495        67     2.705     1.285  30.45   3
       332    246.6344    219.0926 307.8285751  +6.6006811     1921.434       4594.1     5307.592     92.16947     183.4646     367.1848      2.319     6.76     1201.391     64.70941      245.877        32     2.029     1.103  24.29   3
       333    248.0829    215.8544 307.8280830  +6.6020644     2176.811      4592.86     5571.942     92.02398     183.6106     367.2212      2.425     8.26     1201.379     64.70941     240.9855        32     2.416     0.941  27.85   3
       334    395.0214    213.5157 307.7670710  +6.6079416     15858.51     31001.73     36013.94     91.73231     183.2454     367.0022      2.159     6.23     1191.053     64.70941     1763.209        49     2.288     1.063  32.48   3
       335    397.2152    210.4132 307.7662642  +6.6092938     17203.14     38769.54     49628.16     91.87826     183.2454     367.0388      2.579     8.30     1190.624     64.70941      1704.26        69     2.680     1.246  30.42   3
       336    152.3932    215.3115 307.8678848  +6.5990846     1368.578     2661.991     4122.526      91.4397     183.2454     366.8196      2.232     7.25     1205.738     64.70941     186.6565        18     1.738     0.848 -10.63   3
       337    153.0449    211.6677 307.8677378  +6.6006085      1317.79     2788.065     3788.909     92.02398     183.5376     367.1483      2.761     9.23     1205.639     64.70941     167.3914        20     1.969     1.209  -3.42   2
       338    734.4349    209.2955 307.6260934  +6.6210018     12070.77     22269.23     25581.98     92.16948     183.4646     367.2212      2.037     5.65     1186.144     64.70941     1442.663        46     2.095     1.092  31.84   3
       339    735.9706    206.5562 307.6255475  +6.6221822     11707.97     25363.19     31350.83     91.58612     183.6106     366.9657      2.409     7.36     1186.004     64.70941     1147.178        55     2.505     1.159  30.33   3
       340    299.1929    211.3953 307.8069851  +6.6056123     5862.017     11575.64     14660.41     91.29305     183.3185     366.9292      2.355     8.07      1198.27     64.70941     638.7271        51     2.763     1.416  23.47   3
       341    301.4959    208.4789 307.8061267  +6.6068915     6321.465     14006.53     19807.61     91.73231     183.9023     367.1483      2.796     8.85     1198.165     64.70941     678.1021        56     2.797     1.381  17.80   3
       342     52.3392    205.4233 307.9098187  +6.5998075     3535.716     11289.79     14415.28     91.58612     183.5376     367.0022      2.935     7.88     1212.585     64.70941     407.1606        70     2.342     1.905  46.37   0
       343    782.1456    206.8506 307.6063385  +6.6235977     602.4538     1344.317     2020.419     92.02398     183.6106     367.1483      2.261     4.12     1185.607     64.70941     94.23376         6     1.423     0.341 -86.27   0
       344    992.8353    200.8211 307.5189382  +6.6330870     601.0259     1205.702     1795.307      91.4397     183.3916     366.8196      2.277     5.54     1181.034     64.70941     77.96399         5     1.173     0.737  11.43   0
       345    994.4249    188.0451 307.5187085  +6.6384063     1256.641     2750.174     3264.805      91.4397     183.6836     366.9657      2.270     8.61     1179.899     64.70941     133.3856        22     1.758     1.178  55.68   0
       346    270.0049    184.5183 307.8200341  +6.6157149     9484.578     18503.18     23320.03     91.58612     183.0991     366.8196      2.255     6.62     1200.552     64.70941     1115.448        46     2.335     1.060  27.13   3
       347    272.2005    181.4069 307.8192270  +6.6170709     10599.13      24334.2     31009.37     91.29305     183.2454     366.8927      2.568     8.03     1200.496     64.70941     1108.924        54     2.543     1.210  29.90   3
       348    586.0106    184.0493 307.6886615  +6.6264632     656.3729     1849.018     2395.593      91.4397     183.4646     366.7466      3.361     7.97     1184.788     64.70941     98.72131        11     1.781     0.996 -22.41   0
       349     16.3449    181.4076 307.9256016  +6.6084997     1815.227     5589.417     8129.925      91.4397     183.3916     366.7831      3.229     9.48     1214.695     64.70941     192.8192        48     2.140     1.790  81.20   0
       350    702.4486    178.9299 307.6404209  +6.6324540     3229.584     9629.934     11935.77     92.02398     183.5376     367.1483      2.811     7.56     1184.642     64.70941     364.4452        63     2.284     1.813  47.87   0
       351    112.9309    178.2847 307.8855519  +6.6130252     1642.862     3024.052      4509.46     92.31474     183.9023     367.1483      2.637     6.36     1208.256     64.70941     221.6869        24     1.953     0.996  19.27   3
       352    114.4710    175.4722 307.8850074  +6.6142361     1757.344     4256.857     6183.823     92.31474     183.7565     367.0388      3.689     9.43     1208.118     64.70941     217.1273        32     2.561     1.003  20.54   2
       353    384.7276    171.5677 307.7727754  +6.6248892     1546.715     4612.551     6284.552     91.87826     183.6106     367.1483      3.147     9.25     1189.782     64.70941     180.3417        32     2.128     1.390  27.15   2
       354    348.0031    171.0365 307.7880627  +6.6238807     1165.859     3574.989     4163.754     90.99902     183.3916     366.8927      2.746    10.51     1194.791     64.70941     144.2754        31     1.925     1.598 -63.99   0
       355    994.4182    164.5852 307.5195033  +6.6480769     979.8913     1966.331     1511.314     91.73231     183.2454     367.0022      1.994     6.00     1177.945     64.70941     124.0052         9     1.202     0.842 -87.22   0
       356    199.7715    162.5766 307.8499813  +6.6224089     1637.893     3092.499     4328.836      91.4397     183.4646     366.9292      2.059     6.20     1204.135     64.70941     233.2391        21     1.925     0.835  21.13   3
       357    200.9962    158.8348 307.8495994  +6.6239923     2023.698     4925.108       6589.6     90.99902     183.4646     366.8562      2.654     9.41     1204.134     64.70941     202.7894        38     2.242     1.298  21.26   3
       358     83.0971    159.9441 307.8985803  +6.6195853     910.8384     2663.138     3759.335     91.87826     183.6106     367.3672      3.125     9.16      1209.86     64.70941     129.6818        20     1.868     1.253 -67.02   0
       359    662.0471    158.7201 307.6579041  +6.6394390     2313.235     7265.133     9037.635     92.02398     183.6106     367.1118      2.808     8.24     1184.395     64.70941     258.4849        53     2.112     1.764  45.56   0
       360    614.0802    156.0438 307.6779394  +6.6389435     3505.454     11149.31     15095.97     92.02399     183.6106     367.0753      2.997     7.60     1184.198     64.70941     387.6522        68     2.357     1.887  53.63   3
       361    617.7708    147.5022 307.6766943  +6.6425875     19852.15     61924.46     81987.45     92.16948     183.3185     367.1118      2.950     7.34     1183.673     64.70941     2090.587       118     2.481     2.121  44.70   3
       362    340.9107    154.0016 307.7915904  +6.6306656     1085.612     2400.589     3417.442     91.14615     183.1722     366.8562      2.427     7.69     1195.469     64.70941     136.7139        16     1.748     0.946  20.52   3
       363    342.6500    151.1058 307.7909656  +6.6319174     1444.391     2995.371     4470.856     91.87826     183.4646     367.2577      2.687     7.26     1195.324     64.70941     171.6414        19     1.905     0.775  32.89   2
       364    297.2357    140.1647 307.8102200  +6.6349088     1378.163     3845.587     5677.368     91.73231     183.3185     366.8196      3.211     9.61     1199.674     64.70941     166.0952        30     2.238     1.173  47.47   2
       365    669.0012    134.3092 307.6558393  +6.6497333     600.6055     1230.068     726.2075     91.14615     183.0991     366.8562      1.995     4.17     1182.754     64.70941     94.41162         5     1.094     0.454 -67.54   0
       366    681.0005    133.0053 307.6508941  +6.6506706     1102.844     1999.795     2658.508     91.29305     183.2454     366.8927      2.046     6.96     1182.558     64.70941     141.0591        14     1.724     0.787  41.71   3
       367    682.6472    130.2997 307.6503010  +6.6518408     1143.275     2633.966     3097.662     92.02399     183.4646     367.3672      2.387     7.05      1182.34     64.70941     144.6819        16     1.863     0.748  33.42   3
       368      2.1435    124.3822 307.9334498  +6.6315291     7916.477      16076.1     23433.99     89.36462      159.222     291.1435      3.045     8.37     1216.125     64.70941     1385.249        76     3.143     1.470 -86.58  24
       369    424.9762    121.4853 307.7577410  +6.6468784      1689.52     4246.542     6283.272     92.02398     183.3185     366.9292      3.222     8.99     1183.902     64.70941     184.1664        32     2.121     1.435  56.03   2
       370    896.3887    117.8100 307.5618458  +6.6641020     1997.622     5082.616     5726.413     91.73231     183.3916     367.0753      2.566     7.33     1177.148     64.70941     221.1727        41     1.883     1.536  34.45   0
       371    878.2837    118.4764 307.5693518  +6.6632255     1307.073     3113.405      4031.81     92.16948     183.9751     367.2213      2.618     8.58     1177.311     64.70941     161.9292        24     1.701     1.211  -7.05   0
       372    589.0777    118.0145 307.6896245  +6.6537862     605.1069     1207.294     1406.468     91.58612     183.2454     366.9292      2.387     5.23     1181.581     64.70941     104.9941         6     1.135     0.681 -27.52   0
       373    135.3130    111.5122 307.8785196  +6.6412989      1304.84     4097.893     4863.897     91.73231      184.048     367.2212      2.870    10.81      1206.27     64.70941     149.2668        38     1.936     1.767  62.55   0
       374     17.2873    109.5173 307.9276602  +6.6381644     4944.639     15268.77     20128.83     91.73231     183.8294     367.1848      2.966     7.18      1214.94     64.70941     531.3198        78     2.316     1.985  50.67   0
       375    818.6952    103.4377 307.5946387  +6.6674430     2694.722     7756.976     9866.917     92.16948     183.4646     367.2577      2.844     7.23     1177.947     64.70941     299.4502        55     2.083     1.804  36.73   0
       376    763.6665    103.7178 307.6175115  +6.6654963     1478.883     4157.154     5466.771     92.31474     183.9023     367.1848      2.782    10.34     1179.685     64.70941     158.6276        37     2.164     1.536  38.13   0
       377     57.5195    101.2995 307.9112126  +6.6429011     1462.477     4194.135     5460.489     91.87826     184.1208     367.1848      2.913     8.02     1211.433     64.70941      199.772        36     1.826     1.738 -39.01   0
       378      1.8284     96.2245 307.9345408  +6.6431250     1185.224     2082.592     3060.113     86.46883     154.4374     285.4265      2.322     4.56     1216.189     64.70941     170.0538        13     1.234     0.789  81.48  24
       379    758.0488     92.8684 307.6202147  +6.6697817     773.5779     1651.956     2651.881     92.02398     183.5376     367.1118      3.043     6.77     1179.318     64.70941     95.53796         8     1.336     0.963  32.13   0
       380     84.3889     87.7026 307.9005040  +6.6494066      2962.42     5910.449     7475.245     91.73231     183.2454     366.8927      2.361     7.53     1208.917     64.70941     398.1235        29     2.364     0.944  43.64   3
       381     86.4135     84.7749 307.8997619  +6.6506813     3672.171     8227.189     10633.98     91.73231     183.3916     367.0388      2.757     7.51     1208.684     64.70941       419.65        45     2.306     1.225  41.18   3
       382    413.0612     87.0248 307.7638654  +6.6606854     848.6347     2140.412     3386.353     91.58612     183.5376     367.0022      3.954    10.41     1185.395     64.70941     117.9916        17     3.116     0.968  64.40   2
       383    626.8159     78.6110 307.6752677  +6.6712872     6895.943     14087.99     17476.19     91.73231     183.2454     367.0022      2.253     6.83     1179.751     64.70941     793.9025        42     2.328     1.089  27.35   3
       384    628.9962     76.2485 307.6744411  +6.6723337     6133.688     12859.82     15850.12     91.29304     183.3916     366.6735      2.347     8.14     1179.648     64.70941     669.9697        39     2.443     1.030  31.25   3
       385    252.8748     71.2104 307.8310096  +6.6618480     3158.125     7528.459     13052.29     91.58612     183.1722     366.8927      5.279     7.45     1202.713     64.70941     354.2628        42     2.109     1.991  76.98   3
       386    254.4415     68.0766 307.8304647  +6.6631922     3331.497       7782.7     11381.33     91.87826     183.6106     367.1483      5.633    14.33     1202.676     64.70941     330.7556        51     2.879     2.321  81.29   3
       387    527.5811     73.2316 307.7167143  +6.6701949     1965.752     6534.041     8655.992      91.4397     183.3916     366.9657      2.966     8.65     1180.471     64.70941     255.6049        58     2.282     1.832  43.10   0
       388    245.6787     76.1486 307.8338338  +6.6595716     800.7883     1545.352     4411.142     92.02398     183.6836     367.1118      4.686     5.43     1202.931     64.70941     115.6136         7     1.007     0.827 -11.85   1
       389    432.4905     70.9907 307.7563308  +6.6679439     7530.883     14697.82     18792.76     91.73231     183.2454     366.8196      2.416     9.95     1185.081     64.70941     867.9087        48     2.806     1.130  54.31   3
       390    434.6769     68.3054 307.7555129  +6.6691238     8027.939     18736.94      23428.3     91.73231     183.7565     367.1848      2.490     7.14     1185.097     64.70941     879.0642        48     2.300     1.197  50.31   3
       391    613.8846     67.2908 307.6810285  +6.6755225     1475.059     4335.189     6140.518     91.73231     183.9751     367.2577      3.080    10.42     1179.432     64.70941     181.5792        36     2.128     1.423  81.36   2
       392    617.8973     68.7814 307.6793094  +6.6750418     565.9891     651.1826     2186.251     91.87826     183.4646     366.8196      1.664     3.33     1179.473     64.70941     113.5529         5     0.829     0.721 -52.75   3
       393    909.5919     69.4804 307.5579887  +6.6844635     938.0156     2224.295     3169.254     91.58612     183.1722     366.9292      2.955     3.62     1174.087     64.70941     152.2587         8     0.924     0.661  35.94   2
       394    240.6133     67.8767 307.8362213  +6.6628118     1122.958     2271.137     4529.494     91.58612     183.2454     366.8927      4.973     8.53     1203.045     64.70941     149.3484        21     2.128     0.954  59.00   3
       395    243.4341     65.0386 307.8351450  +6.6640761     1168.271     2400.577     4599.597     91.73231     183.3916     366.8562      5.738     8.60     1202.977     64.70941     159.0989        20     2.086     0.991  42.95   3
       396     20.2085     68.2825 307.9278512  +6.6552593     1051.935      2303.56     3421.203     91.58612     183.1722     366.9292      3.156     5.66     1212.443     64.70941     124.1813        10     1.181     0.764  51.62   0
       397    682.5832     60.3993 307.6526949  +6.6806528      532.229     1476.258     2102.934     91.58612     183.0991     366.7466      1.887     3.73      1178.73     64.70941     109.7771         5     1.611     0.249  49.14   0
       398    685.0247     57.0325 307.6517937  +6.6821221     518.2303     1275.398      2079.11     91.29305     183.3916     366.8927      2.651     3.69     1178.573     64.70941     80.41333         5     1.020     0.383  32.46   0
       399    171.3272     51.6281 307.8655838  +6.6671897     3894.803     12473.65     16437.95     91.87826     183.6106     367.0388      2.957     7.38     1204.253     64.70941     416.2639        76     2.377     1.996  47.36   0
       400    515.4786     49.8155 307.7225411  +6.6794435     1218.571     3533.297     3909.681     91.58612     183.3185     366.9292      2.608     7.91     1180.961     64.70941     154.5311        29     1.789     1.426 -62.63   0
       401    916.9056     48.8688 307.5556438  +6.6932031     2024.024     5093.871     5461.216     91.87826     183.6836     367.1483      2.437     6.34     1172.761     64.70941     268.8541        41     1.849     1.546  34.35   0
       402    716.3069     48.6773 307.6390683  +6.6866082     813.9456     1998.221      2386.56     91.73231     183.9023     367.1483      2.392     5.43     1177.705     64.70941     108.8549         8     1.445     0.575  26.76   0
       403    981.5260     44.8103 307.5289084  +6.6970230     1240.281     2646.485     3303.069     91.58612     183.1722     366.9657      2.409     7.22     1168.615     64.70941     130.7838        16     1.242     1.177  52.84   0
       404    701.0630     41.7570 307.6456416  +6.6889531     3086.499     9283.518     11121.35     92.02398     183.5376     367.1483      2.734     7.49     1177.621     64.70941     402.2755        58     2.147     1.796  35.72   0
       405    620.9995     41.2230 307.6789533  +6.6865052     1485.935     4541.217     5812.445     91.58612     183.2454     366.8562      2.832     8.86     1178.593     64.70941     177.8705        41     1.946     1.713  86.32   0
       406    421.3257     37.3737 307.7621148  +6.6814282     2242.494     7313.436     9885.586     91.58612     183.5376     367.0753      3.093     7.89     1187.754     64.70941     243.5664        57     2.092     1.862  56.62   0
       407     21.6867     39.3796 307.9282218  +6.6672225     2353.623     3851.691     4761.009     91.73231     183.3185     366.9657      1.769     5.04      1210.09     64.70941      349.908        16     1.609     0.713  36.21   3
       408     23.1887     36.1950 307.9277058  +6.6685856     3380.894     7985.755     9550.089     91.58612     183.3185     367.0022      2.521     7.69     1209.823     64.70941     373.6877        50     2.376     1.394  42.48   3
       409    317.2460     34.2578 307.8054996  +6.6792336     4306.363     8149.428     11598.12     92.02399     183.6106     367.2213      2.577     7.20     1199.117     64.70941     466.5032        38     2.353     1.097  27.86   3
       410    319.4869     31.4959 307.8046617  +6.6804470     4543.752     10143.49     13804.03     92.02399      184.048     367.1483      2.672     8.98     1198.957     64.70941     460.1045        43     2.518     1.134  32.62   3
       411     92.0174     33.1051 307.8991920  +6.6721673      941.485     3078.039     4314.031     91.87826     183.3916     366.9292      2.902    10.66     1207.197     64.70941     141.6947        25     2.025     1.562  72.46   0
       412    385.6071     28.5270 307.7772681  +6.6838814     826.4609     2045.407      3245.98     91.58612     183.0991     367.0022      3.066     7.19     1192.118     64.70941     123.4958        12     1.695     0.853  47.35   2
       413    590.5598   1021.6563 307.6584007  +6.2813322     777.7531     1197.371     1346.956     92.02399     175.1702     311.7678      1.670     4.67     1238.858     64.70941     125.6981         7     0.909     0.681  80.69  16
       414    631.9098   1020.0499 307.6412736  +6.2833720     774.8903     1614.048     1644.961     92.02399     183.3916     335.5319      1.971     6.85     1238.685     64.70941     118.3702        11     1.351     0.973  56.51  16
       415    475.2474   1017.1996 307.7064648  +6.2793247     1343.903     2814.637     2842.962     91.14615     183.2454     363.9225      2.288     6.90     1239.114     64.70941     184.7572        24     1.585     1.262  26.49  16
       416    244.3608     24.8055 307.8361282  +6.6806914     2181.846     4067.967     5085.493     90.99902     183.3185     366.7831      2.221     7.06     1202.803     64.70941     306.5839        25     1.992     0.993  13.20   3
       417    909.4987   1009.4210 307.5262886  +6.2969873      34974.7     64481.63     69647.52     91.87827     183.3916     366.8562      1.980     4.38     1238.375     64.70941     3827.432        74     1.858     1.393  38.82   0
       418    809.4713     25.8058 307.6011002  +6.6991376     829.9572     1815.961     2132.113      91.4397     183.1722     367.0022      2.653     4.80     1175.226     64.70941     125.3071         6     0.921     0.709  -3.56   0
       419    521.0864     24.3631 307.7210726  +6.6901224     691.9683     1541.369     2204.443     92.02398     183.5376     367.1118      2.220     5.85     1180.304     64.70941      119.069         8     1.389     0.694 -79.80   0
       420    217.4184   1007.6993 307.8139150  +6.2746287     1089.885     2092.105     2354.136     92.02399     183.4646     366.8562      1.922     6.01     1238.686     64.70941     141.4888        12     1.369     0.742  52.63   0
       421    807.4490   1003.1743 307.5689039  +6.2961707     1801.544     3471.185     3100.008     91.58612     183.6836     367.0022      1.909     5.72     1237.296     64.70941     205.4504        25     1.537     1.153  45.67   0
       422    878.9839     23.9973 307.5722542  +6.7021951     676.0449     1227.755     1948.877     91.58612     183.1722     366.8927      1.859     3.68     1173.088     64.70941     96.96753         5     1.010     0.385  58.22   0
       423    755.7106   1001.0258 307.5904752  +6.2953355     4530.625     9272.433     10825.27     92.16947     183.3185     366.9292      2.210     5.30     1237.823     64.70941     475.1473        43     1.834     1.347  36.17   0
       424    225.6037   1000.8191 307.8107477  +6.2777386     970.0623     1856.577     1897.032     91.58612     183.0991     366.8927      1.975     7.05     1238.667     64.70941     120.1914        14     1.554     0.896  42.17   0
       425    542.8277   1000.5932 307.6789470  +6.2884240     549.4547     1089.183     1802.016      91.4397     183.4646     366.8927      2.228     4.27     1238.686     64.70941     95.64807         5     1.159     0.448  57.77   0
       426     50.1722    998.5923 307.8837134  +6.2727845      1820.69     4077.779     4664.634     91.58612     183.3916     366.8927      2.230     5.86     1236.621     64.70941     225.1108        31     1.608     1.378  30.87   0
       427    943.7794    996.1076 307.5124930  +6.3036140     5739.943     10259.94     10580.17     91.87826     183.3916     366.9292      1.898     4.35     1236.325     64.70941     639.4081        38     1.676     1.195  40.66   0
       428    917.5898    987.7581 307.5236574  +6.3061862      1646.23     3015.205     2933.344     91.29305     183.3916     366.8196      1.909     7.01     1236.087     64.70941     210.2349        22     1.728     1.037  32.60   0
