#   1 NUMBER                 Running object number                                     
#   2 X_IMAGE                Object position along x                                    [pixel]
#   3 Y_IMAGE                Object position along y                                    [pixel]
#   4 ALPHA_J2000            Right ascension of barycenter (J2000)                      [deg]
#   5 DELTA_J2000            Declination of barycenter (J2000)                          [deg]
#   6 FLUX_APER              Flux vector within fixed circular aperture(s)              [count]
#   9 FLUXERR_APER           RMS error vector for aperture flux(es)                     [count]
#  12 FLUX_RADIUS            Fraction-of-light radii                                    [pixel]
#  13 FWHM_IMAGE             FWHM assuming a gaussian core                              [pixel]
#  14 BACKGROUND             Background at centroid position                            [count]
#  15 THRESHOLD              Detection threshold above background                       [count]
#  16 FLUX_MAX               Peak flux above background                                 [count]
#  17 ISOAREA_IMAGE          Isophotal area above Analysis threshold                    [pixel**2]
#  18 A_IMAGE                Profile RMS along major axis                               [pixel]
#  19 B_IMAGE                Profile RMS along minor axis                               [pixel]
#  20 THETA_IMAGE            Position angle (CCW/x)                                     [deg]
#  21 FLAGS                  Extraction flags                                          
         1    194.4247     16.4722 307.8553525  +6.6676479     832.2077     1282.967     665.3605     77.91198     156.0727     312.2385      1.757     5.91     834.0491     55.04807     110.1292        12     1.460     0.674  66.97   0
         2    171.6538     13.7221 307.8649044  +6.6680138     10998.22     16602.34     17067.92     78.40824     156.1969     312.3317      1.628     4.07     833.9041     55.04807     1462.324        36     1.559     0.951  57.68   0
         3    917.3030     11.4880 307.5552228  +6.6940298     4286.082      6391.89     6518.325     78.28447     156.6309     312.3317      1.618     4.10     821.4744     55.04807     633.9625        26     1.484     0.870  61.14   0
         4    515.9352     11.9014 307.7219488  +6.6803757     3022.347     4460.014     4998.092     78.28447      156.259     312.3317      1.566     4.14     825.3108     55.04807      402.934        20     1.433     0.779  53.60   0
         5    718.0909     10.1214 307.6380283  +6.6879086     1982.396     2883.434      2994.05     78.03634      156.445     312.3627      1.517     4.53     824.3604     55.04807     294.9733        18     1.541     0.702  56.94  16
         6    454.1246     10.2216 307.7476826  +6.6789876     1885.407      2731.88     3058.857     77.91198     156.0727     312.2385      1.576     3.57     826.4203     55.04807     269.2526        16     1.293     0.736  55.38   0
         7    982.0215      7.7796 307.5284604  +6.6977293     2086.925      3448.52     3284.286     78.03634     156.1348     309.7441      1.702     3.98     818.4221     55.04807     338.3323        21     1.411     0.993  76.65  16
         8    701.5024      4.3230 307.6451146  +6.6897446     7580.565     11462.75     11309.42     77.91198     155.9484     277.8614      1.607     4.26      824.288     55.04807     1128.216        29     1.487     0.869  52.68  16
         9    621.7607      3.4609 307.6782706  +6.6874201     3999.034     5964.116      5787.67     78.28447     150.1188     266.9326      1.609     4.24     824.8748     55.04807     535.6527        23     1.411     0.910  54.73  24
        10    323.6061      3.1117 307.8021413  +6.6775227     1053.471     1579.821     1989.355     77.78741     146.4568     261.9085      1.645     4.40     833.6258     55.04807     168.9864        13     1.275     0.663  53.47  24
        11    422.4550      1.3651 307.7611371  +6.6815762     2788.369     3470.046     3411.141     68.36607     124.4817     235.4719      1.063     2.57     827.4722     55.04807     717.0479        14     1.216     0.609   3.69  24
        12    377.0750      1.7366 307.7799761  +6.6798933     636.5264     818.8108     804.1648     73.02951     130.1185     241.4496      1.342     3.56     831.0708     55.04807     131.4001         5     1.097     0.333  43.03  24
        13     23.3876      1.2358 307.9269150  +6.6681547     2412.414     2774.853     2912.147      66.4966     122.5187     233.1544      0.997     2.41     833.5223     55.04807      672.185         9     1.008     0.424   0.79  24
        14    535.4220    987.9549 307.6810166  +6.2781521     8779.681     13324.87     14761.38     77.91198     156.1969     312.1454      1.645     4.15     857.6003     55.04807     1130.297        35     1.569     0.958  54.88   3
        15    971.4744   1023.0096 307.4988353  +6.2783157     528.3245     772.8938     1447.705     74.99478     133.3573     245.3934      1.609     4.54     852.2933     55.04807     84.11011         7     0.987     0.594  30.35  24
        16    883.2838   1023.6507 307.5354219  +6.2750966     750.6635     856.1749     783.0752     68.50776     124.4038     235.2247      0.921     2.31     854.9935     55.04807       191.83         5     0.657     0.477   0.07  24
        17    709.9166   1020.6095 307.6074881  +6.2705365     7303.018     11617.69      12257.3     77.91198     155.7617     278.5933      1.698     4.09     857.0381     55.04807     927.3901        32     1.539     1.004  59.92  24
        18    576.5989   1023.0645 307.6627444  +6.2650445     59122.14     71756.38     74332.53     74.21492     132.3354     244.4035      1.259     3.19     858.0738     55.04807     9688.362        53     1.332     0.950  14.62  24
        19    424.6616   1020.7263 307.7258895  +6.2608984     4106.011     6373.561     7323.172     78.40824     155.5748     277.4423      1.721     4.18     858.6823     55.04807       563.99        28     1.553     0.882  61.39  24
        20    206.5351   1022.8757 307.8163551  +6.2526603     2093.397      2865.76     3125.634     76.40386     135.4496     247.5181      1.506     3.75     856.6453     55.04807     275.9932        15     1.116     0.843  36.36  24
        21    508.6437    996.9943 307.6918282  +6.2735203     1183.774     1772.485     1429.674     77.66266     155.8862       311.99      1.538     3.93     857.9614     55.04807     168.4794        15     1.278     0.743  51.16   0
        22    288.2513    994.5047 307.7833935  +6.2671264     15555.52     23583.85      24938.4      78.1605     156.1348      312.549      1.654     4.07     859.0861     55.04807     2016.524        46     1.574     1.046  56.94   2
        23    292.1615    991.2532 307.7818800  +6.2686002     1185.724     1908.268     2075.586     78.28447      156.259     312.3006      1.787     5.45     859.0088     55.04807     139.9292        11     1.203     0.697  74.87   3
        24    742.6745    995.2151 307.5947423  +6.2821182     8126.056     12626.32     13369.29     77.78742     155.9484     312.1764      1.656     3.98     855.3513     55.04807     1091.078        30     1.495     0.956  56.38   0
        25    804.0566    994.5861 307.5692834  +6.2844373     1095.126     1534.435     1388.946     77.66266     156.0727       311.99      1.627     5.62      854.423     55.04807     156.5554        13     1.314     0.745  40.81   0
        26    412.8286    994.7858 307.7316742  +6.2712073     1028.945     1680.758     2128.339     77.91198     156.0105     312.2075      1.720     5.60     858.2667     55.04807     148.5561        13     1.429     0.813  31.58   0
        27    259.4060    991.7258 307.7954602  +6.2673008     1088.318     1595.034     1447.236     77.91198     155.7617     312.2075      1.648     4.89     857.8643     55.04807     142.9141        13     1.218     0.850  40.83   0
        28    904.1592    988.7626 307.5279250  +6.2901971     8452.347     14042.59     14926.61     78.03634     156.1969     312.1764      1.773     4.20     853.8118     55.04807     1063.149        40     1.625     1.090  54.90   0
        29    877.7313    984.8467 307.5390268  +6.2909278     12329.39     20233.85     21752.04     78.28447     156.1348     312.2696      1.768     4.06     854.0238     55.04807     1542.525        51     1.671     1.223  51.70   0
        30    999.3933    984.3560 307.4885394  +6.2952058     4679.705      7802.71     8207.846     77.78742     155.9484       311.99      1.784     4.45     850.5793     55.04807      544.989        32     1.628     1.041  48.65   0
        31    590.5196    985.3723 307.6582325  +6.2810706     1600.098     2435.292     2833.057     78.16051     156.0105     312.3006      1.740     4.47     857.6961     55.04807     219.7136        16     1.333     0.781  48.81   0
        32    521.9269    983.8297 307.6867570  +6.2794010     4464.903     7025.812     7896.359      78.1605     156.1969     312.2696      1.735     4.18      857.666     55.04807     607.4709        27     1.571     0.957  47.20   0
        33    631.5451    983.1402 307.6412778  +6.2833706     1590.096     2090.257     2161.122     78.40824     156.1969     312.2696      1.516     3.60     857.5419     55.04807     222.5567        15     1.209     0.772  60.98   0
        34     56.3137    982.2445 307.8800780  +6.2643593     906.9657     1293.839     1291.179     78.28447     156.0727     312.3006      1.619     5.55     854.5604     55.04807     123.6357        11     1.273     0.681  64.52   0
        35    474.9328    980.1060 307.7063893  +6.2793571     2322.197     3414.394     3729.676      78.1605      156.383     312.3006      1.538     3.80     857.9327     55.04807     318.8411        18     1.290     0.807  46.93   0
        36    383.4199    978.6734 307.7444238  +6.2768676     494.0013     669.8921     684.6885     77.91198     156.1348     312.2385      1.376     3.50     858.3313     55.04807     73.46863         5     1.085     0.325  68.98   0
        37    909.4626    972.4503 307.5262698  +6.2971081     44249.43     69822.85      74487.2     78.28447     156.1348     312.3627      1.752     4.24     853.2266     55.04807     5552.776        76     1.741     1.202  56.87   0
        38    314.5168    973.9116 307.7731850  +6.2765117     597.0239      881.379     932.3647     78.03634      156.383     312.3317      1.409     3.68     858.5298     55.04807     130.9194         5     1.104     0.418  74.49   0
        39    216.6076    970.5754 307.8139380  +6.2745873     1786.915     2736.687     2435.379     77.78742     156.0727     312.1454      1.681     4.20     856.2516     55.04807     239.1986        19     1.421     0.897  55.41   0
        40    615.7435    968.8906 307.6483157  +6.2887215     930.3292     1321.295     1047.603      78.1605     156.0727     312.3938      1.504     4.96     857.4511     55.04807     133.2981        11     1.317     0.582  56.58   0
        41    104.5464    969.2945 307.8604954  +6.2713337     734.5435     914.1315     693.7994      78.1605     156.1348      312.549      1.373     5.25       855.03     55.04807     108.6545         8     0.998     0.779  73.11   0
        42    807.3575    966.0699 307.5688692  +6.2963187     2427.667     3476.887     3497.042      78.1605     156.1969     312.3627      1.539     3.95     853.7659     55.04807     305.1385        17     1.297     0.797  59.68   0
        43    755.6102    963.9941 307.5904199  +6.2954395     6813.765     10831.13     12013.92     77.78741     156.0105     312.1764      1.754     4.06     854.5822     55.04807     906.1912        34     1.586     0.996  51.38   0
        44    542.4725    963.4808 307.6789126  +6.2884913      1092.64     1485.084     1303.267     78.53181      156.445     312.3317      1.464     4.39     857.2996     55.04807      153.265        12     1.173     0.724  48.24   0
        45    224.9198    963.1373 307.8107386  +6.2779379     1461.538     2013.092     1636.258     78.40824      156.259     312.3006      1.483     5.35     856.2498     55.04807     213.2759        12     1.274     0.635  65.44   0
        46    189.3625    962.5280 307.8255184  +6.2769897     919.7995     1356.364     1354.707     78.16051     156.1969     312.3627      1.869     4.75     855.9115     55.04807     152.3539        10     1.345     0.587  62.52   0
        47     49.8333    960.9390 307.8834875  +6.2729342     2728.647      4129.93     3946.433     78.03634      156.259     312.2385      1.590     3.99     854.3721     55.04807     379.5848        21     1.398     0.863  60.32   0
        48    943.7976    959.2330 307.5124592  +6.3037142     6550.379     10700.69     11222.81      77.5377     156.0105     312.0832      1.747     4.25     852.0572     55.04807     765.7906        35     1.580     1.042  57.32   0
        49    626.3522    953.2250 307.6444381  +6.2955442     733.9329     1005.285     785.6967     77.91198     156.1969     312.2075      1.568     5.20     856.9755     55.04807     114.6929        10     1.139     0.670  48.45   0
        50    917.5569    950.8935 307.5236317  +6.3062774     2085.354     3310.633     2995.732     78.28447     156.1969     312.4248      1.667     4.64     852.4122     55.04807     291.2738        20     1.504     0.866  60.56   0
        51    638.2370    946.7524 307.6397220  +6.2986152     4739.033     6875.732         7281      78.1605     156.1969     312.2385      1.593     4.39     856.5768     55.04807     660.5931        23     1.463     0.822  54.74   0
        52    250.4516    946.8428 307.8006901  +6.2855247     4592.925     6765.903      6997.92     78.28447     156.1969     312.3317      1.620     4.15     856.7263     55.04807     599.4409        26     1.496     0.907  54.95   0
        53    777.0691    947.1746 307.5820761  +6.3031022     1183.326     1957.041     2456.221     77.91198     156.0727     312.2385      1.612     4.01     853.8381     55.04807     216.2697        12     1.411     0.595  57.14   0
        54    987.2637    946.2794 307.4948489  +6.3105168      633.498     920.0637     976.4145     78.53181      156.259     312.3006      1.490     5.66      850.726     55.04807     93.28143         6     1.200     0.751 -58.08   0
        55    460.4072    945.1346 307.7135953  +6.2933032     1211.923     1644.516     1060.048     77.78742     155.9484     312.1454      1.410     4.15     857.2893     55.04807     197.6558        11     1.182     0.649  52.09   0
        56     19.1800    944.1726 307.8967773  +6.2788186     2124.311     3267.978     3292.109     77.91198     156.0105     312.2075      1.595     3.95     854.1617     55.04807     296.9684        18     1.348     0.833  55.42   0
        57    870.1373    943.5000 307.5435645  +6.3077401     1036.373     1460.101     1345.629     78.03634     156.1969     312.3317      1.542     4.93     853.1288     55.04807     154.9303        11     1.234     0.807  51.32   0
        58    961.7941    941.4696 307.5055831  +6.3116493     507.1166     556.7932     784.6453     77.78742      155.824     312.1454      1.246     4.71     851.1933     55.04807     84.09955         6     0.938     0.671 -82.02   0
        59    286.2920    940.6774 307.7860208  +6.2892780     1020.451     1393.391      2189.94     78.03634      156.445     312.3317      1.736     5.68     857.4675     55.04807      159.076        11     1.066     0.852  85.49   0
        60    994.1116    939.3298 307.4922387  +6.3136147     886.8358     1452.085     1851.731     78.28447      156.445     312.3006      1.756     5.76     850.5293     55.04807     154.9896        11     1.247     0.816  66.64   0
        61    199.9503    954.7559 307.8213857  +6.2805550     637.7683     930.8392     682.8862     78.28447     156.0727     312.3317      1.727     5.31     855.9408     55.04807     86.88843         8     1.226     0.649  48.12   0
        62    562.8810    939.1625 307.6712583  +6.2992154     1824.273     2657.254     2671.413     78.28447      156.259     312.2385      1.560     4.97     857.0829     55.04807     249.2305        15     1.395     0.671  56.72   0
        63    602.1014    935.6713 307.6550946  +6.3019749      1384.14     2203.566     1851.487      78.1605      156.383     312.2696      1.681     4.71     857.0792     55.04807      211.833        14     1.319     0.840  62.11   0
        64     51.8621    935.8821 307.8834917  +6.2833451     759.8208     977.7286      1173.62     78.40823     156.1969     312.2696      1.630     5.67     854.2574     55.04807     103.4753        11     1.190     0.761  41.11   0
        65    281.8350    933.4564 307.7881142  +6.2921083     1507.545     2156.723     2543.443      78.1605     156.1969     312.3317      1.646     4.48     857.1553     55.04807     204.9507        15     1.301     0.755  48.10   0
        66    549.9288    931.3576 307.6768973  +6.3020015     564.7964     652.8041      282.804      78.1605     156.1969     312.3627      1.296     4.27     856.9946     55.04807     107.0895         5     1.096     0.474  60.81   0
        67    748.7314    929.5530 307.5944308  +6.3094249     856.0945      1163.08     1093.488     78.28447     156.1348     312.2696      1.558     4.90     854.1243     55.04807      152.425        11     1.121     0.896  27.05   0
        68    886.5330    926.1234 307.5373403  +6.3154623     7277.663     11062.18      11607.6     78.40823      156.259     312.2696      1.640     3.99     852.3246     55.04807     922.4813        35     1.609     0.967  55.30   0
        69    422.3076    923.1545 307.7301504  +6.3010932     2233.075     3385.144     3734.659     78.28447     156.1348     312.4248      1.631     4.25      856.928     55.04807     321.0181        20     1.389     0.882  53.20   0
        70    324.0064    921.4777 307.7710124  +6.2984741     10241.09     14938.75     15668.42     77.91198     155.6994     312.0832      1.563     3.73     857.1788     55.04807     1299.156        34     1.468     0.963  56.55   0
        71    591.4106    923.2873 307.6599487  +6.3067273     584.0818     891.7947     643.6116     77.91198     155.9484     312.1454      1.728     4.99     856.7994     55.04807     76.12036         6     0.970     0.727  18.27   0
        72    244.0173    920.4086 307.8042521  +6.2962187     7534.634     11270.77     11675.36     78.03634     155.9484     312.1454      1.614     3.96     856.2437     55.04807     983.0012        32     1.514     0.923  60.15   0
        73    572.0463    914.7339 307.6682746  +6.3096068     1205.034     1657.956     1356.916     78.28447     156.1348     312.3006      1.495     4.14     856.5919     55.04807     174.8424        13     1.340     0.669  48.52   0
        74    756.6792    914.6486 307.5916315  +6.3158438     773.4027     1086.349     917.2891     78.28447      156.259     312.2696      1.507     5.32     853.6563     55.04807     120.5087        10     1.273     0.628  68.49   0
        75    901.9878    911.3375 307.5314198  +6.3220835     1049.418     1793.477     1911.319     77.78741     156.0105     312.0521      1.751     4.60      851.694     55.04807     138.6868        11     1.152     0.677  52.52   0
        76    858.4228    909.7002 307.5495602  +6.3212991       758.95     1283.822     1101.653     78.53181     155.9484     312.0832      1.891     4.94      852.484     55.04807      123.261         9     1.137     0.607  53.67   0
        77    400.9644    908.7150 307.7394963  +6.3063347     678.6839     955.1215     855.3495     78.28447     156.1348     312.2696      1.541     4.92     856.8202     55.04807     98.47046         6     1.194     0.574  57.89   0
        78    765.9131    908.1536 307.5880160  +6.3188346     324.2083     430.3884     395.0716     78.28447     156.0727     312.3006      1.843     3.45     853.3493     55.04807     64.54962         5     1.575     0.218  27.20   0
        79    969.1984    906.2794 307.5036874  +6.3264230     884.0423     1620.074     2136.639     77.66266     155.6371     312.0832      2.204     6.56     850.2877     55.04807     117.1334        13     1.402     0.887  32.06   0
        80    738.3477    903.8870 307.5996025  +6.3196707     1782.162     3134.538     3248.355     78.28447     156.0727     312.4248      1.943     4.74     853.7949     55.04807     254.0892        22     1.696     0.921  64.93   0
        81    562.0421    904.4387 307.6727736  +6.3135201     711.9543     1091.251      965.827     78.03634     156.1969     312.1764      1.818     4.34     856.3228     55.04807     119.3276         7     1.239     0.432  54.62   0
        82    969.7850    900.0238 307.5036532  +6.3290248     1388.721     2350.672     3128.388     78.03634     156.0105     312.2385      1.826     5.09     850.1212     55.04807     197.3315        15     1.475     0.728  50.05   0
        83    602.5799    900.8397 307.6560663  +6.3163684     815.2879     984.2303     486.3079     77.91198     156.0105     312.0521      1.458     5.55      856.082     55.04807     156.4324        10     1.468     0.591  42.68   0
        84    523.7028    900.0984 307.6888351  +6.3140222      1287.79     1683.278     1976.265     78.28447     156.6309     312.1454      1.431     4.53     856.3874     55.04807     184.9017        15     1.372     0.832  52.89   0
        85    614.4819    900.7540 307.6511283  +6.3168037      617.882     982.2512     103.1386     78.28447     156.1969     312.3006      1.670     5.15     855.9487     55.04807     74.74762         8     1.140     0.657  53.43   0
        86    657.0520    897.5328 307.6335643  +6.3195637     2669.323     3956.505     4332.846      78.1605     156.1348     312.2385      1.604     3.65     854.9475     55.04807      356.091        20     1.354     0.838  64.23   0
        87   1007.6441    895.9960 307.4880710  +6.3319550     539.8911     589.9375     876.9271     77.66266      155.824       311.99      1.388     5.72     849.2628     55.04807     79.19183         7     1.449     0.636  43.54   0
        88    947.1037    895.2550 307.5132290  +6.3302335     775.6499     1176.097     1460.117      78.1605     156.1969     312.4869      1.716     5.19     850.4609     55.04807     125.3517         9     1.255     0.606  53.03   0
        89    197.2903    892.6284 307.8245855  +6.3061087     2327.865     3503.558     3799.722     78.40824     155.9484     312.1764      1.666     4.53     855.1332     55.04807     304.9645        19     1.430     0.815  58.49   0
        90     53.5757    893.5209 307.8842114  +6.3008876     3055.202     4737.236     4417.268     77.91198     156.0105     312.3006      1.669     4.04     853.6719     55.04807     386.7852        23     1.483     0.876  61.85   0
        91    935.4847    893.2178 307.5181207  +6.3306853     811.7407     1240.239     1146.295     77.91198     155.9484     312.2385      1.527     4.94     850.6636     55.04807     115.5501         8     1.088     0.635  53.93   0
        92    817.8058    893.6506 307.5669598  +6.3265620     787.1724     1173.185      1055.59     77.78742     156.0105     311.9278      1.502     5.13     852.4037     55.04807     108.2261         9     1.086     0.685  49.65   0
        93     71.2493    892.8965 307.8768963  +6.3017425     2012.439     3064.666     2768.808      78.1605     156.1348     312.4558      1.599     4.98     853.6641     55.04807     252.6779        17     1.440     0.778  56.16   0
        94    651.7422    886.7066 307.6361322  +6.3238540      7330.17     10889.32     11418.41      78.1605     156.1969     312.4558      1.629     4.18     854.8216     55.04807      963.884        32     1.505     0.981  56.78   0
        95    231.2093    888.9586 307.8106293  +6.3087678     907.5776     1545.403     1386.779     77.66266     156.0105     312.0521      1.690     5.87     855.8844     55.04807     138.9094        11     1.537     0.631  69.01   0
        96    336.0848    888.2780 307.7671170  +6.3125847     957.1223     1318.995     1405.553     78.28447      156.507     312.3938      1.502     5.18     856.7662     55.04807     122.5116        10     1.044     0.726  60.11   0
        97    789.3531    887.4408 307.5789799  +6.3281708     733.8265     934.8513     1706.041      78.1605     156.1969     312.1143      1.661     4.62     852.6154     55.04807     121.5056         8     1.132     0.536  41.02   0
        98     11.8050    885.0677 307.9018358  +6.3029649      1267.62     1846.154     1084.139     77.78741     155.8862     312.1143      1.633     6.06     853.5072     55.04807     190.8578        13     1.361     0.758  53.06   0
        99    889.4401    882.9851 307.5375788  +6.3333662     2782.382     4209.421     4381.922     77.91198     156.0105     312.0832      1.600     4.04     851.3895     55.04807     370.8187        19     1.357     0.808  54.80   0
       100    440.8168    883.7039 307.7237946  +6.3180002     460.9911     728.3586     882.4209      78.1605     156.0105     312.1454      1.742     5.34     856.3798     55.04807     96.97357         7     1.215     0.661  39.18   0
       101     24.7433    883.2316 307.8965272  +6.3041601     1077.174     1690.992     1497.172      78.1605     156.1969     312.2385      1.720     4.68     853.4824     55.04807     147.8528        14     1.327     0.738  36.56   0
       102    764.4774    883.5259 307.5894382  +6.3289521     531.4507      513.099     247.7646     78.53181      156.445     312.3317      1.250     3.70     852.9525     55.04807     106.6871         6     0.998     0.394  19.51   0
       103    334.7194    879.7415 307.7679714  +6.3160622      17329.6     25452.03      26803.7     78.28447      156.259     312.3006      1.578     3.98     856.6584     55.04807     2455.772        41     1.522     0.968  58.50   0
       104     69.2957    880.6648 307.8781204  +6.3067251     1328.613      2089.98     1819.805     78.28447      156.321     312.3317      1.682     5.26     853.4774     55.04807     205.6286        15     1.481     0.707  55.02   0
       105    385.7351    879.0715 307.7468163  +6.3180575     765.6812     1121.499     780.4375     78.28447      156.259     312.3627      1.654     4.68     856.4791     55.04807     125.9236        11     1.392     0.636  41.36   0
       106    205.5608    879.2006 307.8216053  +6.3119303     1390.844     2059.235     2069.716     77.41254     156.0105     312.0211      1.605     4.63     855.1942     55.04807     203.1509        14     1.296     0.702  59.07   0
       107    664.3937    871.4982 307.6313908  +6.3305566     681.3868      965.889      805.515     78.03634      155.824     312.0832      1.357     4.70     854.3233     55.04807     130.2622         8     1.049     0.714  37.03   0
       108    412.5965    870.7427 307.7359459  +6.3224000     1098.454     1487.203     1131.642     77.66266     156.0727     312.0211      1.417     4.44     856.2221     55.04807     155.8569        13     1.280     0.700  59.19   0
       109     97.9456    870.3591 307.8665757  +6.3119467     1738.821     2773.977     3366.078      78.1605     156.1969     312.3006      1.634     4.34      853.332     55.04807     263.2196        15     1.409     0.728  43.77   0
       110    492.9915    867.1240 307.7026932  +6.3265998     670.3198     825.4469     780.3888     77.91198     155.6994     312.0832      1.623     4.26      856.024     55.04807     101.0726         6     1.244     0.415  53.52   0
       111    665.9714    866.4045 307.6309069  +6.3327121     998.7576     1349.134     1856.673     77.78741     156.0105     312.1454      1.410     4.91     854.2109     55.04807     147.5285        10     1.090     0.627  61.51   0
       112    879.9312    864.6473 307.5421408  +6.3406168     2082.542     3088.556     2929.625     78.28447     156.1348     312.3006      1.577     4.86     851.1855     55.04807     251.0341        20     1.596     0.852  44.53   0
       113    850.6747    864.2380 307.5543005  +6.3398050     2161.415      3261.71     2755.087      78.1605      156.259     312.3627      1.587     3.93     851.5966     55.04807     318.6725        20     1.438     0.813  54.40   0
       114    814.0188    863.6371 307.5695383  +6.3388238     3168.289      4650.08     4788.833     77.91198     156.0105     312.0832      1.570     4.28     851.9923     55.04807     430.9937        23     1.466     0.828  50.58   0
       115     81.4593    863.7375 307.8736429  +6.3141228     2524.844     3676.254      4290.69     78.28447     156.1348     312.3317      1.529     4.24     853.2242     55.04807     381.3809        19     1.420     0.744  61.44   0
       116    549.8439    855.0034 307.6794993  +6.3335152     349777.7     521232.3       544183     77.66266      155.824     311.9589      1.569     4.10     855.2027     55.04807     50209.81       182     1.714     1.207  56.53   4
       117    329.3268    861.7744 307.7708153  +6.3232966     727.5554     1168.897     1866.545     77.91198     156.0727     312.2385      1.830     6.11     856.3714     55.04807     118.2444        10     1.654     0.635  56.50   0
       118    394.0905    857.5871 307.7440711  +6.3272069     8044.754     11998.19     12676.38     78.03634     155.9484     312.1454      1.616     4.31     855.9796     55.04807     1054.493        32     1.513     0.942  53.80   0
       119    637.6089    857.9567 307.6429651  +6.3352463     1224.789     1813.842     2067.095     77.78741     156.0105     312.0521      1.557     5.27     854.3777     55.04807     176.3645        12     1.350     0.591  52.93   0
       120    450.4297    858.9811 307.7206360  +6.3285285     519.0148     898.7517     1675.643     77.91198     156.0105     312.2075      1.947     3.77     855.9018     55.04807     82.52277         6     1.229     0.332  39.33   0
       121    337.2955    855.9854 307.7677023  +6.3259547      13387.8     20076.95     21198.89     78.03634     155.9484     312.1143      1.586     4.04      856.166     55.04807      1790.69        39     1.505     0.993  57.84   0
       122    655.7256    852.2737 307.6356349  +6.3382007     3676.146     5349.372     5428.505     78.53181      156.445     312.3938      1.582     4.01     854.0297     55.04807     501.2285        21     1.425     0.810  53.90   0
       123    888.1347    851.1323 307.5391879  +6.3464705     5506.995     8235.841     8998.369     78.28447     156.1969     312.3317      1.611     3.84     850.7288     55.04807     821.8546        30     1.469     1.026  51.26   0
       124    727.4911    849.1295 307.6059471  +6.3419086      929.752     1085.818     1646.242      78.1605      156.383     312.3006      1.350     3.45     852.7518     55.04807     148.8595         9     0.905     0.698  57.91   0
       125   1021.5990    845.4203 307.4839700  +6.3532987      4871.65     7546.038     7494.475     77.91198     149.4066     265.8405      1.691     3.67     847.2573     55.04807     600.4459        32     1.579     0.998  58.01  24
       126    630.5504    846.3867 307.6462841  +6.3397849     3428.714     5189.102     5492.167     77.66266     156.1348     312.0211      1.643     4.51     854.2148     55.04807     533.8929        21     1.467     0.773  57.95   0
       127    819.0630    845.5865 307.5680494  +6.3464438     1667.907      2665.81      2987.84     77.78741     156.0105     312.1454      1.662     4.94     851.4315     55.04807     213.7806        18     1.451     0.812  46.94   0
       128    620.7709    845.1285 307.6503862  +6.3399756     1019.966     1601.617     1915.778      78.1605     156.1969     312.2696      1.585     5.52     854.3207     55.04807     151.1866        12     1.511     0.569  62.69   0
       129    946.3845    844.6503 307.5152221  +6.3510979     839.9644     1160.645     841.0145     77.66266      156.259     312.0521      1.505     3.33     849.3136     55.04807     131.9914         7     1.039     0.538  47.61   0
       130    623.4442    840.7612 307.6494231  +6.3418681     2211.292     3403.662     3870.194     78.03634     156.1969     312.2075      1.638     4.07     854.2142     55.04807     327.3192        19     1.468     0.804  42.77   1
       131    907.0308    839.1724 307.5317437  +6.3520405     3259.443     5061.766     5142.104     77.78742     155.9484     312.1143      1.627     4.02     850.0768     55.04807     438.9482        23     1.376     0.926  53.79   0
       132    316.8163    839.6325 307.7767548  +6.3320143     1139.704     1711.008     1775.567     77.91198     155.9484     312.1764      1.667     5.20     855.8654     55.04807     143.2402        10     1.154     0.663  53.30   0
       133    365.1402    834.8246 307.7568559  +6.3356272     2706.094     4021.361     4754.603     77.91198     156.1969     312.1764      1.561     4.01     855.2306     55.04807     402.8606        19     1.379     0.766  53.59   0
       134    845.6696    830.2579 307.5575174  +6.3536633     498.6964     667.1918     1004.137     78.40824     156.1969     312.2696      1.155     3.47     850.8475     55.04807     97.45776         5     1.128     0.309  36.49   0
       135    787.0488    828.9903 307.5818970  +6.3522203     379.0793     581.1667     923.4608     77.78742     156.0105       311.99      1.786     5.20      851.272     55.04807     75.42712         5     1.406     0.543  75.90   0
       136    947.7237    828.8079 307.5151966  +6.3576821     3180.438     3237.679     2802.614     77.91198     155.6994     312.0832      0.636     0.96     848.8286     55.04807     1743.997         5     0.483     0.411 -46.04   0
       137    501.4601    824.6957 307.7006047  +6.3443977     3220.692     4403.149     4404.959      78.1605     156.1969     312.3938      1.581     4.82     854.6636     55.04807     441.2075        19     1.370     0.815  61.23   0
       138    845.8639    823.5901 307.5576602  +6.3564221     1061.476     1353.556     1520.865     77.78742     156.0105     312.1143      1.400     4.94     850.7059     55.04807     168.1205        10     1.157     0.596  50.26   0
       139    548.2791    820.8782 307.6812962  +6.3475483     6322.589     9534.928     10264.13     78.53181      156.445     312.4248      1.620     4.30     854.5072     55.04807     858.8185        31     1.528     0.937  57.96   0
       140    566.4678    822.2692 307.6736983  +6.3475858     943.8171     1079.454     848.6138     78.28447      156.321     312.2696      1.318     4.63     854.3781     55.04807     174.7612         9     1.274     0.508  63.56   0
       141    259.7426    821.4110 307.8010622  +6.3376111     754.3513     1034.796     681.1177     77.66266     156.1969     312.0211      1.476     4.41      855.767     55.04807     129.5999         7     1.057     0.523  56.27   0
       142    107.7526    819.1168 307.8642350  +6.3334283     1479.651     2158.534     2218.376     78.28447     156.1969     312.3006      1.563     4.83     852.7448     55.04807     215.5907        18     1.423     0.980  67.10   0
       143    555.0311    820.1652 307.6785170  +6.3480697     1295.732     2022.786     2076.576     77.91198     155.9484     312.0832      1.647     4.14     854.4281     55.04807      194.912        16     1.394     0.746  57.93   0
       144    466.3553    819.9519 307.7153380  +6.3451744     1732.761      2538.64     2520.829     78.28447     156.1348     312.2696      1.525     3.74     854.5061     55.04807     293.3918        16     1.285     0.801  50.56   0
       145    883.7156    818.7701 307.5421070  +6.3596807     1431.178     2198.905     2499.575     78.28447     156.0105     312.1764      1.671     4.18     850.1156     55.04807     207.3929        15     1.336     0.758  50.38   0
       146    684.1890    817.8332 307.6249747  +6.3533728      870.805     1159.075     1075.209     77.78741     155.8862     312.1454      1.415     4.19     852.8508     55.04807     135.0945        10     1.055     0.679  48.25   0
       147    518.9518    814.6547 307.6936808  +6.3491307     20767.71     30420.41     31812.26     78.28447     156.1969     312.3938      1.575     4.19     854.3739     55.04807     2854.551        45     1.527     0.990  56.91   0
       148    932.5759    813.0646 307.5220128  +6.3636731     3926.446     5939.508     6327.339     77.91198     156.1969     312.2075      1.648     4.47     848.8629     55.04807     521.4045        26     1.627     0.837  47.26   0
       149    165.3593    814.4276 307.8404792  +6.3373089      523.036     320.2076     364.7138     77.91198     156.0105     312.1454      1.255     3.43     853.4286     55.04807     108.4354         5     1.085     0.313  69.49   0
       150     29.2753    804.9407 307.8972916  +6.3366279     1546.134     2195.015     2222.021     78.40824     156.1969     312.2696      1.503     3.93     851.9081     55.04807     223.3759        14     1.218     0.747  53.45   0
       151    311.5807    803.3839 307.7801498  +6.3467998     3546.958      5166.02     5378.098     78.03634     155.9484     312.2075      1.596     3.93     855.1236     55.04807     495.1866        21     1.399     0.814  61.95   0
       152    777.1274    799.2556 307.5870134  +6.3641611     57909.54     85192.88     88654.98      78.1605     156.0727     312.2696      1.574     4.08     850.6012     55.04807     8002.713        68     1.576     1.040  54.94   0
       153     11.4875    801.4564 307.9047935  +6.3374647     2270.081     3310.559     3703.522     78.28447     156.0727     312.4248      1.610     3.90     851.6732     55.04807      315.703        17     1.296     0.777  64.52   0
       154    715.7164    800.7267 307.6124600  +6.3614926     534.7361     782.4404     1206.868     78.40824      156.507     312.3317      1.793     4.16     851.8638     55.04807     110.8279         5     1.263     0.390  51.56   0
       155    420.3048    797.9040 307.7351979  +6.3527247     909.2491     1178.899     1191.209     78.28447     156.8165     312.1454      1.515     4.95     853.7356     55.04807     147.1724        11     1.402     0.724  50.74   0
       156    233.9470    775.6779 307.8133132  +6.3556177     755159.6      1670911      1840814     78.40824     156.1969     312.3006      2.246    12.53     854.4552     55.04807     63325.61       627     2.862     2.012  77.46   4
       157    902.4152    794.4821 307.5351572  +6.3703329     8824.345     13269.12      13942.3     77.91198     155.9484     312.1764      1.634     4.14     849.1241     55.04807     1217.046        32     1.513     0.939  53.55   0
       158    705.3814    793.8691 307.6169809  +6.3639762     22282.87     33808.21     36068.34     77.91198     156.0727     312.2385      1.618     4.30     851.8314     55.04807     3193.924        45     1.667     0.952  55.87   3
       159    699.0853    790.3315 307.6197136  +6.3652250      93097.3     135667.3     141204.4     78.40824      156.445     312.3317      1.584     4.20     851.7932     55.04807      12501.9        80     1.626     1.035  58.30   3
       160    359.8318    816.0452 307.7596921  +6.3431998     703.4495     908.9897     912.4845     78.03634      156.259     312.1454      1.312     4.00     854.5062     55.04807     124.0853         6     0.950     0.483  55.76   0
       161    343.9370    791.2081 307.7671275  +6.3529160     21642.22     32159.69     33616.29     77.66266     155.9484     312.1143      1.585     4.08     853.8958     55.04807     2943.829        48     1.554     1.011  58.38   0
       162    393.0580    791.4003 307.7467284  +6.3544916     1485.019     2204.859     1643.043      77.5377      155.824       311.99      1.498     4.11       853.58     55.04807     200.4893        14     1.327     0.672  56.34   0
       163    202.9895    792.9571 307.8255821  +6.3474411     501.1923      652.751     841.5397     77.78742     156.0105     312.0211      1.370     3.80     854.3729     55.04807      77.1178         5     1.036     0.400  58.78   0
       164    405.8017    788.9747 307.7415195  +6.3559220     23465.61      34830.4     36395.05     77.91198     155.8862     312.0832      1.580     3.95     853.4919     55.04807     3306.999        49     1.529     1.020  55.77   0
       165    632.5349    790.5944 307.6473344  +6.3628809      887.335     1192.981     1097.455     77.78742     155.9484     312.0832      1.585     5.32     852.7542     55.04807     123.2316        10     1.264     0.632  49.33   0
       166    942.8751    788.0191 307.5185756  +6.3743564     2105.899     3292.451     3105.838     77.91198     156.0105     312.2385      1.598     4.39     847.9047     55.04807     271.9178        19     1.433     0.833  54.67   0
       167    899.3340    785.9453 307.5367225  +6.3737534     6839.794     10192.71      10890.2     78.28447     156.1348     312.2696      1.601     4.13     848.9794     55.04807     925.4902        31     1.523     0.898  51.77   0
       168    639.9115    784.9518 307.6444614  +6.3654579     6788.138     9803.465     10025.94     78.28447     156.0727     312.3938      1.529     4.04     852.3763     55.04807     955.5775        27     1.463     0.865  59.04   0
       169    872.1030    786.9146 307.5479958  +6.3724406     746.5866     1026.491     873.3542     78.28447     156.5689     312.3627      1.383     3.98      849.641     55.04807     118.8475         8     0.872     0.623  52.66   0
       170    129.4118    785.3412 307.8563840  +6.3481008      468.063      469.284     552.3926     77.66266     156.1348     312.0211      1.475     6.26     852.2603     55.04807     78.76508         7     1.451     0.758  67.99   0
       171    428.6858    783.0000 307.7322202  +6.3591588     1705.665     2465.394     1907.953      77.5377     155.6994     311.9589      1.497     4.41     853.2761     55.04807     252.4578        16     1.420     0.743  54.14   0
       172    153.8476    782.0275 307.8463517  +6.3502936     695.7166     1165.352     901.4369     77.91198      156.259     312.2385      1.464     4.44     852.4049     55.04807     102.5693         8     1.267     0.442  58.45   0
       173   1022.6109    777.6662 307.4858172  +6.3812999     885.2744     1219.621     1590.811      77.5377     138.5638     251.4438      1.435     4.53     845.3609     55.04807     149.6534         9     1.381     0.422  55.62  24
       174    867.7620    776.6644 307.5501416  +6.3765261     836.7994     1124.337     455.7168     78.28447     156.1348     312.3938      1.459     4.80     849.4786     55.04807     128.6178        10     1.160     0.731  82.26   0
       175    674.9011    775.0676 307.6302668  +6.3707133     2460.609     3655.202     3830.671     78.28447      156.321     312.3006      1.566     4.39     851.5782     55.04807     333.6452        19     1.473     0.744  55.21   0
       176    593.0901    776.8276 307.6641732  +6.3672377     957.9327     1369.972      1429.82     78.40823     155.9484     312.1764      1.516     5.36     852.4249     55.04807     151.0241        12     1.106     0.873  40.79   0
       177    408.7617    771.6777 307.7408730  +6.3631613     56810.87     83752.09     87428.21      78.1605      156.259     312.3006      1.611     3.97     852.9824     55.04807     7626.975        70     1.579     1.085  56.25   0
       178    119.0009    775.4221 307.8610409  +6.3518434     1189.281     1905.273     2275.826     77.91198     155.8862     312.0211      1.824     5.07     851.8227     55.04807     158.6458        14     1.404     0.724  63.57   0
       179    144.1161    775.9005 307.8505984  +6.3524940     866.6006     1350.858     1321.112     78.28447     156.6927     312.3938      1.653     5.99      852.077     55.04807      115.181        10     1.152     0.876  47.55   0
       180    951.6771    773.4225 307.5154100  +6.3806764     668.8655     925.0659     677.4666     77.91198     156.0105     312.2385      1.620     5.24     847.2715     55.04807     79.47186        10     1.274     0.609  53.78   0
       181     60.8050    772.8836 307.8852859  +6.3509251     505.9203     617.5409     843.8527     77.78741      155.824     312.0211      1.733     4.38     851.4069     55.04807     89.13855         5     1.382     0.396 -89.26   0
       182    526.5228    770.6933 307.6920160  +6.3675312     7634.639     11145.39     11505.25     78.03634      156.445     312.3317      1.604     4.18     852.6614     55.04807      1069.23        29     1.470     0.881  57.51   0
       183    443.2773    769.3012 307.7266235  +6.3653044     4689.681     6872.334      7998.28     77.91198      156.445     312.3317      1.592     4.19     852.8289     55.04807       615.98        23     1.410     0.841  59.02   1
       184    771.6850    767.3828 307.5903422  +6.3771348     12361.78     18040.89     18857.48     77.91198     155.9484     312.2385      1.595     4.06     849.8803     55.04807     1700.193        38     1.530     0.953  49.59   0
       185    439.9368    762.8321 307.7282281  +6.3678622     2440.887     3708.534     3903.636     78.03634      156.259     312.2696      1.615     4.59     852.6469     55.04807     335.7831        22     1.450     0.869  62.84   1
       186      1.4741    763.4193 307.9102361  +6.3528260     925.9626     1423.089      1211.33     69.63091     126.1838     237.1952      1.533     4.93     850.9621     55.04807      156.153         9     1.222     0.563  73.96  24
       187    793.5259    761.6161 307.5814677  +6.3802479       1182.9      1889.89     1785.022     77.78742     155.9484     312.1764      1.578     4.39     849.3461     55.04807     201.1519        12     1.266     0.695  39.55   0
       188    129.5091    759.2602 307.8572242  +6.3588691     12104.62     18430.85     19833.85      78.1605      156.259     312.3627      1.650     4.12      851.353     55.04807     1610.894        39     1.523     1.014  57.22   0
       189    961.2877    760.8865 307.5118396  +6.3861728     570.6229     707.1165     1048.097     78.03634      156.445     312.3938      1.616     3.38     846.7516     55.04807     99.56238         5     0.954     0.346  46.44   0
       190    137.7029    759.5488 307.8538128  +6.3590267     3015.475     4332.742     4707.698      78.1605     156.1348     312.5179      1.619     3.70     851.4344     55.04807     460.2822        19     1.392     0.753  54.25   0
       191    121.9266    756.8523 307.8604533  +6.3596069     2984.931     4995.395     5007.442     78.28447      156.259     312.3317      1.808     4.92      851.241     55.04807     408.2426        26     1.692     0.908  49.85   3
       192    121.5645    750.0229 307.8608342  +6.3624136     1994.689     3068.531     2803.534     77.78741     155.9484     312.0832      1.627     3.94     851.0046     55.04807     299.7657        20     1.368     0.868  56.41   3
       193    917.2581    755.9108 307.5302870  +6.3867517     6736.551     9958.525     10940.85      78.1605     156.1348     312.4248      1.574     4.02      847.731     55.04807     942.4521        31     1.509     0.926  53.50   0
       194    966.5115    756.0118 307.5098340  +6.3883600     1489.408     2062.279     2081.961     78.03634     155.8862     312.1454      1.506     4.24     846.4899     55.04807     199.2794        14     1.313     0.684  49.59   0
       195    672.7830    753.7087 307.6318634  +6.3794584     1798.054     2599.572     3472.607     78.03634     155.9484     312.2075      1.625     4.53     850.7397     55.04807     248.3991        17     1.340     0.807  58.05   0
       196    559.5438    752.7725 307.6789093  +6.3760390     2395.555     3489.312     3675.744     77.91198      156.259     312.1764      1.543     4.11     851.5034     55.04807      383.071        18     1.392     0.761  62.05   0
       197    407.5067    752.0712 307.7420542  +6.3712118     1154.294     1798.331     1593.385      78.1605      156.259     312.3317      1.722     4.24     852.3961     55.04807     159.6125        13     1.287     0.707  61.12   0
       198    691.0345    750.8692 307.6243811  +6.3812436     548.8964     654.8029     457.1421      78.1605     156.1969     312.3938      1.273     4.71     850.4697     55.04807     89.42847         7     1.328     0.474  61.23   0
       199    940.9474    747.4182 307.5207358  +6.3910509     3209.039     4973.329     5202.546     77.78741      156.259     312.0832      1.651     3.97     846.9034     55.04807     450.2472        24     1.527     0.910  56.43   0
       200    911.4412    747.9429 307.5329690  +6.3898457     3140.114     4822.662     5261.662     78.28447     156.1969     312.3317      1.650     4.06      847.661     55.04807     454.0857        22     1.517     0.772  50.36   0
       201    971.6600    747.0444 307.5079966  +6.3922340     1914.633     2803.827     2810.689      78.1605     156.1348     312.4248      1.570     4.22     846.1798     55.04807     249.4161        18     1.333     0.831  50.18   0
       202    663.7963    747.0917 307.6358168  +6.3818879     1481.318     2026.055     2016.199     77.91198     155.8862     312.0832      1.474     4.66     850.4718     55.04807     233.5338        12     1.282     0.603  55.92   0
       203    810.7400    745.2321 307.5748702  +6.3875883     1113.978     1561.005     1807.568     78.03634      156.259     312.2696      1.448     4.14     848.7934     55.04807     169.8337        13     1.216     0.811  61.77   0
       204    886.6841    743.3098 307.5434033  +6.3909284     921.5338     1260.479     1740.488     78.03634      156.445     312.4248      1.508     5.25     848.1287     55.04807     125.7565        11     1.227     0.635  50.24   0
       205    236.3102    742.1724 307.8134622  +6.3695271       1869.5     3002.577     3457.235     78.40824     155.9484     312.1764      1.678     4.26     853.0417     55.04807     252.4838        17     1.318     0.857  62.63   0
       206    941.0643    741.3917 307.5208891  +6.3935425     4241.679     4403.088     4706.796     77.78741     155.9484     312.1764      0.666     2.76      846.748     55.04807     1744.133         8     0.598     0.376 -75.77   0
       207    673.7079    739.6083 307.6319529  +6.3853098     673.2344     776.0414     977.9695     77.91198     155.8862     312.1143      1.287     4.24     850.1572     55.04807     123.2896         7     1.012     0.505  63.00   0
       208    256.8999    737.6690 307.8050660  +6.3720805     639.1802     1104.909     1418.722     78.28447      156.321     312.2696      1.685     4.78     852.8762     55.04807     115.5887         8     1.318     0.491  57.04   0
       209    929.2468    737.7085 307.5259191  +6.3946669     1165.373     1441.527      1565.44     78.28447     156.1348     312.4248      1.481     5.01     846.9321     55.04807     151.4359        12     1.217     0.752  53.81   0
       210    151.8259    736.8708 307.8487153  +6.3688640     730.3963     1041.274     707.4733     77.91198     156.0727     312.2385      1.638     5.18     850.6059     55.04807     110.8934        10     1.392     0.546  71.96   0
       211    956.0425    735.3816 307.5148715  +6.3965250     2502.565     3871.819     4429.658     77.78741     156.0105     312.0832      1.609     4.33     846.2853     55.04807     345.0895        22     1.485     0.871  53.77   0
       212    903.1409    736.4490 307.5368004  +6.3943119     1257.406     1941.144     2128.278     78.28447     156.1969     312.3627      1.778     6.42     847.5413     55.04807     162.2076        15     1.461     0.793  61.26   0
       213    675.3571    734.1625 307.6314511  +6.3876131      903.927     1269.164      953.259     78.03634     156.1969     312.1764      1.553     5.46     849.9472     55.04807      124.431        10     1.194     0.705  56.48   0
       214    997.6619    728.6902 307.4978152  +6.4006809     1856.486     2718.753     2779.801     78.28447      156.321     312.3627      1.501     4.27     845.3234     55.04807     295.4359        18     1.392     0.777  56.80   0
       215    466.1843    729.4291 307.7184551  +6.3825333     600.5281     981.9437     869.6313     77.91198     155.9484     312.2385      1.584     4.12     851.4863     55.04807     114.4537         6     1.053     0.459  58.72   0
       216    396.0949    729.5453 307.7475506  +6.3801253     670.7833     891.6592     835.7784      78.1605     156.1969     312.5179      1.485     4.00     851.8154     55.04807     113.1677         5     1.027     0.445  59.81   0
       217    623.8505    728.0005 307.6530430  +6.3884259     611.6636      996.063     1094.835      77.5377      155.824     311.8656      1.703     4.49     849.8888     55.04807     105.4265         8     1.379     0.415  59.10   0
       218    798.8370    727.1294 307.5804194  +6.3946613     1049.108     1681.906     1799.655      78.1605      156.259     312.3627      1.789     4.82     848.5786     55.04807     146.4485        12     1.402     0.634  53.74   0
       219    885.0818    724.5381 307.5446977  +6.3986232     1429.505     2106.204     2025.976     78.40823     156.1969     312.2696      1.620     4.51     847.7321     55.04807     216.2408        13     1.347     0.687  55.73   0
       220    859.6308    719.7329 307.5554260  +6.3997534     1019.796     1572.335     1931.279     78.03634     156.1969     312.2696      1.753     5.04     848.1295     55.04807     154.2229        12     1.364     0.609  38.77   0
       221    842.2145    716.0283 307.5627814  +6.4006985     1581.845     2151.491      2107.64     77.91198     156.0105     312.2075      1.494     4.69     848.1708     55.04807     228.3819        15     1.362     0.679  61.47   0
       222    105.0212    713.6829 307.8689294  +6.3768543     888.4899     1834.441     2252.006     78.03634     155.8862     312.2075      2.309     8.22     850.2256     55.04807     129.5836        19     2.059     0.917  77.71   0
       223     41.2895    714.6184 307.8953565  +6.3743146     2580.695     3915.462     4120.316     78.03634     155.9484     312.2075      1.634     4.26     850.2786     55.04807     332.1765        22     1.389     0.894  59.18   0
       224    559.0505    709.9202 307.6805549  +6.3937104     640.1972     844.1644     507.4317     78.28447      156.259     312.3006      1.499     3.95     850.1216     55.04807      112.432         6     0.998     0.448  52.80   0
       225    653.8692    703.2817 307.6414099  +6.3996378     6716.354     9800.568     10262.89     78.53181      156.445     312.3317      1.556     4.31     849.2471     55.04807     934.9602        27     1.478     0.829  52.95   0
       226    511.4571    702.7587 307.7005560  +6.3950656      814.421     1302.356     928.5028      78.1605     156.1969     312.3317      1.591     5.08     850.2993     55.04807     118.3828        11     1.298     0.768  71.66   0
       227    600.7225    702.5330 307.6635014  +6.3981608      1472.59     2265.925     2234.036     78.40824      156.259     312.2696      1.664     3.91     849.6448     55.04807     243.3285        12     1.299     0.604  47.93   0
       228    522.2114    702.9417 307.6960848  +6.3953518     653.2712     730.2935     154.0401     77.66266     156.1348     312.0211      1.305     3.84       850.23     55.04807     113.7605         6     0.908     0.467  56.47   0
       229    990.9413    698.6921 307.5016099  +6.4128384     2572.945     4252.295     4763.624      78.1605     156.1348     312.4248      1.736     4.23      845.108     55.04807     393.8513        25     1.610     0.875  54.06   0
       230    116.8416    698.9781 307.8645187  +6.3833230     3884.045     5814.344     6056.455     77.91198     156.0105     312.0832      1.566     4.12     849.9053     55.04807     536.9872        22     1.426     0.852  54.74   0
       231    627.7491    699.0460 307.6523972  +6.4005085      2279.22     3302.138     3669.695     78.40824     156.0727     312.3627      1.505     4.31     849.3701     55.04807     316.2975        15     1.274     0.774  53.35   0
       232    303.5194    699.2139 307.7870076  +6.3895253     749.4988     1303.422      1155.85     77.91198     155.9484     312.1143      1.681     4.23     851.1409     55.04807     111.8361         9     1.088     0.624  58.96   0
       233    239.0083    698.4307 307.8138174  +6.3876729     695.2982     932.7663     838.3045     77.78741     156.0105     312.0832      1.511     4.71     850.4829     55.04807     98.47083         8     1.017     0.619  42.95   0
       234    770.7283    695.3983 307.5931546  +6.4068159     21201.57     30767.67     31945.37     77.78742     155.7617     312.1454      1.573     4.28     848.5322     55.04807       2984.2        42     1.513     0.937  54.02   0
       235    900.7197    695.1020 307.5391912  +6.4112978     3728.718     5734.854     6104.447      78.1605      156.507     312.3627      1.571     4.06     846.6461     55.04807      558.048        23     1.454     0.825  50.72   0
       236    498.1435    695.1219 307.7063406  +6.3977698     973.3364      1062.94     1214.352     78.28447     156.1969     312.2696      1.423     4.32     850.1181     55.04807     149.8182         9     0.965     0.648  63.80   0
       237    469.7360    695.4662 307.7181235  +6.3966716     1415.717     1756.128     1545.927     78.28447     156.1969     312.3006      1.384     4.12      850.264     55.04807     247.4288        13     1.261     0.649  43.18   0
       238    315.4454    695.0517 307.7821964  +6.3916453     643.1112     797.2405     794.2145     78.40823     156.1348     312.3006      1.313     4.75      851.027     55.04807     92.74872         8     1.071     0.597  68.00   0
       239    541.4964    693.7217 307.6883879  +6.3998063     542.4841     843.0774     365.6235     78.03634      156.445     312.3627      1.720     4.83     849.8959     55.04807     87.95795         5     1.355     0.488  42.50   0
       240    244.2666    688.8889 307.8119561  +6.3917887     6288.003     9665.006     9969.015     78.40824      156.383     312.2696      1.644     4.18     850.0099     55.04807     822.9367        31     1.501     0.991  56.18   0
       241    651.2225    688.1389 307.6430176  +6.4057995     7495.906     10890.21     11682.83     77.91198     156.1348     312.2075      1.535     4.11     848.9297     55.04807     1028.936        27     1.443     0.856  55.17   0
       242    633.4604    689.1287 307.6503591  +6.4047940     897.7383      1285.55     1334.615     78.40824     156.1969     312.3627      1.472     4.79     849.1414     55.04807     174.7147         9     1.263     0.514  57.55   0
       243    346.2164    687.7871 307.7696657  +6.3956810     604.3493     772.5304     602.1956     78.03634     155.8862     312.2385      1.495     3.27     850.9759     55.04807     112.0602         5     0.915     0.347  48.04   0
       244    911.2299    681.0447 307.5352983  +6.4174526     1202.675     1950.129     2222.953     77.91198     156.1969     312.1764      1.649     5.00     846.1053     55.04807     149.9007        14     1.402     0.708  49.27   0
       245    722.9563    676.7009 307.6136174  +6.4129301     3881.031     5854.715     6204.674     78.28447     156.0727     312.5179      1.596     4.25      848.331     55.04807     523.5293        25     1.429     0.927  58.91   0
       246    678.1069    676.8440 307.6322344  +6.4113648      1116.25     1581.456     1692.483     78.28447     156.1348     312.4248      1.613     5.48     848.3857     55.04807     180.6608        11     1.293     0.655  33.55   0
       247    989.2872    673.1620 307.5031515  +6.4233212     9222.652     13869.09      14189.9     78.28447     156.1348     312.3006      1.583     4.05     844.8212     55.04807     1289.567        33     1.501     0.938  58.58   0
       248    927.6769    673.6370 307.5287174  +6.4210614     2624.215     3899.989     4073.503      78.1605      156.259     312.3006      1.606     4.06     845.5857     55.04807     378.3222        19     1.360     0.804  57.33   0
       249    730.5646    674.0332 307.6105480  +6.4142867      632.488     704.7738      789.275     77.91198     155.9484     312.0521      1.390     4.59     848.2502     55.04807     105.0145         7     1.107     0.541  62.25   0
       250      8.5336    672.8162 307.9103683  +6.3904611     1961.109      3119.73     4228.793     77.78742     156.0727     312.2075      1.940     4.16     849.7945     55.04807     270.7274        23     1.451     1.043  42.50  16
       251    977.1535    673.5721 307.5081759  +6.4227457     535.3263     800.0209     448.8633     77.91198      156.259     312.2075      1.529     3.94     844.9797     55.04807     108.6832         5     0.911     0.489  -5.79   0
       252    542.2780    671.1871 307.6888212  +6.4091341       609.29     982.3892     983.0833     77.91198      155.824     312.1143      1.802     4.99     849.3121     55.04807     100.0613         8     1.459     0.482  55.39   0
       253    425.1816    671.4147 307.7374317  +6.4050992     604.8607     1065.411     783.7652     78.03634     155.8862     312.2075      1.528     5.10     849.7651     55.04807     102.8647         7     1.336     0.550  58.85   0
       254     66.6231    667.8932 307.8864178  +6.3944567     26793.63     39834.47     41748.73     78.28447     156.0105     312.1454      1.602     3.95     849.6682     55.04807     3625.752        48     1.545     1.014  57.67   0
       255    527.9630    669.0419 307.6948370  +6.4095380     2203.365     3361.783     3408.007     78.03634     156.1969     312.1764      1.556     4.12     849.2405     55.04807     313.9515        17     1.364     0.785  50.12   0
       256    496.6950    666.4348 307.7079072  +6.4095621     1403.484      2025.53     1941.764     78.40824     156.0727     312.3938      1.580     5.05     849.1684     55.04807     192.7324        16     1.322     0.848  54.16   0
       257    917.6992    665.3364 307.5331385  +6.4241534     1134.271     1331.964     1073.422      78.1605      156.259     312.3317      1.395     5.15     845.6003     55.04807     160.4227        11     1.209     0.621  53.57   0
       258    536.9440    662.5887 307.6913251  +6.4125038     1133.952     1607.167     1741.415     77.66266     156.1348       311.99      1.554     4.80     848.9906     55.04807     196.6191        10     1.116     0.584  63.43   0
       259    712.6700    660.3129 307.6184386  +6.4193492     3611.997     5487.373     5711.385     78.40824      156.445     312.3317      1.609     3.99     847.7396     55.04807     512.4127        23     1.441     0.844  54.83   0
       260    734.6796    658.4603 307.6093621  +6.4208529     4385.077     6136.604     6296.499     78.40824     156.1969     312.2696      1.518     3.98     847.5379     55.04807     664.6464        25     1.387     0.908  56.38   0
       261    566.0627    656.3330 307.6794452  +6.4160653     3318.205     4846.867     4956.771     78.28447     156.1969     312.3006      1.581     4.26     848.6249     55.04807     476.8062        22     1.384     0.859  57.75   0
       262    402.2361    656.7560 307.7474522  +6.4103769      1371.97     2038.394     2102.267     78.03634     156.1348     312.1764      1.621     4.44     849.3908     55.04807     186.4675        14     1.347     0.668  53.51   0
       263    310.3446    655.3626 307.7856520  +6.4078555     1485.357     2288.444     2574.603     78.28447      156.259     312.3317      1.584     4.24     849.2283     55.04807     213.4136        16     1.342     0.832  58.72   0
       264    226.5151    655.7220 307.8204450  +6.4048797     1888.812     2876.308     3203.908     78.28447      156.507     312.3938      1.680     4.00     848.5586     55.04807     278.6033        18     1.312     0.848  55.16   0
       265   1007.5070    654.6427 307.4962062  +6.4315757     5305.552     7681.965     8005.343     78.28447     156.1969     312.4248      1.594     4.31      844.274     55.04807     763.4272        24     1.453     0.814  55.07   0
       266    972.8985    653.5544 307.5106130  +6.4308660     8617.469     12565.44     12950.43     78.28447     156.0727     312.5179      1.572     4.02     844.6471     55.04807     1153.955        28     1.468     0.868  53.71   0
       267    527.3517    655.0352 307.6955619  +6.4152989     453.0107     799.5827     1069.294     78.03634     156.1969     312.2385      1.345     3.38     848.7034     55.04807     108.4865         5     0.794     0.416  69.65   0
       268   1022.3209    652.4913 307.4901271  +6.4329597     884.4147     1085.325     976.9558     78.03634     142.3607     256.0297      1.433     5.19      844.066     55.04807     117.0505        10     1.156     0.658  48.47  24
       269    692.8007    652.1102 307.6269641  +6.4220678       963.42     1362.497     1878.202      77.5377     155.6994     312.0211      1.768     5.23     847.5796     55.04807     151.1222        11     1.407     0.550  69.28   0
       270     84.3271    649.9804 307.8796728  +6.4024485     1061.456       1481.2     1769.469     77.91198     156.1348     312.2696      1.577     4.45     849.2117     55.04807     139.7781        11     1.192     0.654  55.91   0
       271    418.1719    647.8107 307.7411369  +6.4146060     3046.614     4540.464     5016.301     77.91198     156.0105     312.1764      1.601     4.10     848.9695     55.04807     416.6583        22     1.479     0.788  58.81   0
       272    131.4125    646.8286 307.8602303  +6.4053400     24986.08     37532.81     38858.91     77.78742     156.0105     312.2075      1.607     3.97     848.7945     55.04807     3507.988        50     1.556     1.026  55.82   0
       273    799.5490    647.4208 307.5827976  +6.4275868     1248.808     1878.319     1757.094     77.78742      156.259     312.1764      1.665     3.67     847.0175     55.04807     219.3755        12     1.339     0.585  56.72   0
       274    350.7166    642.3059 307.7693298  +6.4146056      826.722     1304.443     1336.821     78.03634     156.5689     312.4248      1.748     4.98     848.7324     55.04807     109.9747         8     0.940     0.793 -83.31   0
       275    967.8193    636.5169 307.5132926  +6.4377286      7100.55     11001.13     11486.39     77.91198     155.8862     312.2696      1.662     4.12      844.371     55.04807     995.7424        32     1.687     0.867  50.49   0
       276     12.3357    635.3384 307.9100568  +6.4060585     1250.313     1789.409     1878.413     78.28447     156.1969     312.3317      1.482     3.93     848.8442     55.04807     167.9075        11     1.094     0.671  57.13   0
       277   1022.8329    631.5413 307.4906157  +6.4416246     93597.67     124304.2     127176.6     76.53068     135.8784     248.1441      1.465     4.49     843.7146     55.04807        12883        54     1.487     0.916  69.22  24
       278    561.3889    631.7135 307.6822137  +6.4260703      50072.3     73777.02     77074.41     77.91198     155.9484     312.1454      1.610     4.12     847.6459     55.04807     6998.671        62     1.554     1.049  55.20   0
       279    204.4004    633.3469 307.8303818  +6.4133689     685.0228     1111.145     1368.098      77.5377      155.824     311.8656      1.674     5.96     848.3249     55.04807     87.05743        10     1.163     0.859  66.15   0
       280    520.4818    631.8788 307.6991934  +6.4246260     738.9782     919.8127     568.0654     78.40823      156.445     312.4869      1.492     5.17     847.8775     55.04807      100.027         9     1.280     0.591  60.68   0
       281    636.0355    647.4534 307.6506903  +6.4220829     580.3959     827.2275     672.4247      78.1605     156.1969     312.3317      1.446     3.79     847.9227     55.04807     101.6365         6     1.219     0.337  49.32   0
       282    491.7477    628.8589 307.7112257  +6.4249056     611.0053     1081.531     755.1624     78.28447     156.1969     312.3006      1.855     5.08      848.015     55.04807     125.4799         7     1.345     0.543  58.68   0
       283    168.9091    628.3885 307.8452848  +6.4142175     2696.343     4228.426     4191.829     78.03634     155.8862     312.1143      1.668     4.37     848.3214     55.04807     365.7016        23     1.522     0.891  58.69   0
       284    972.4155    627.9402 307.5116714  +6.4414228     556.4366     777.3216     648.4507     77.78741     156.1348     312.0521      1.707     5.67     844.1553     55.04807     83.58459         8     1.459     0.622  32.50   0
       285     61.3664    622.2266 307.8901434  +6.4131280     1468.448      2199.62     2497.271     77.78742     155.9484     312.0832      1.576     4.46     848.5076     55.04807     200.7668        17     1.476     0.714  54.42   0
       286    458.6767    615.5082 307.7254065  +6.4293032     65325.05     96133.75     99956.06     78.03634      156.445     312.3006      1.619     4.12     847.7527     55.04807     8858.507        68     1.575     1.075  54.30   0
       287      2.2748    616.9664 307.9148551  +6.4133014     1797.417     2579.439     2414.549     77.28717     137.3689     249.8964      1.553     3.97     848.3966     55.04807     274.5295        16     1.226     0.857  63.03  24
       288    644.6967    612.7571 307.6482598  +6.4366955     881.7125     1201.516     1251.719     78.28447     156.1348     312.4558      1.523     5.65     846.7581     55.04807     130.6709        12     1.320     0.681  70.38   0
       289    133.0676    610.5147 307.8607694  +6.4203846     1588.459      2123.66     1230.677     78.53181      156.445     312.3317      1.462     4.43     848.2008     55.04807      223.653        15     1.369     0.705  51.56   0
       290    412.1038    608.2769 307.7449878  +6.4307197     978.9457     1398.594     1117.847     77.91198      156.383     312.3627      1.569     5.26     847.4302     55.04807     151.1426        10     1.321     0.592  71.42   0
       291    927.5715    607.2157 307.5309866  +6.4484750     701.3976     1139.954      986.765     77.91198     155.9484     312.2075      1.703     4.89     844.1609     55.04807     118.7217         8     1.034     0.656  54.73   0
       292    604.4215    607.5267 307.6651588  +6.4375008     978.3248     1527.242     1403.467     77.91198     156.0105     312.2385      1.709     5.49     846.6475     55.04807     129.6313        10     1.217     0.698  49.35   0
       293    313.7279    606.9250 307.7858801  +6.4279626     598.0444     879.3117     1027.537     78.53181      156.445     312.3006      1.674     4.87     846.7885     55.04807     113.9365         7     1.441     0.466  49.36   0
       294      5.3309    606.1633 307.9139515  +6.4178637     650.3614     919.5896     1359.579      78.1605      156.259     289.5842      1.761     4.64     848.1156     55.04807     119.6588         6     1.204     0.507  59.49  16
       295    304.1808    604.8278 307.7899148  +6.4285064     2245.848     3428.653     4075.451     77.91198     156.0105     312.2385      1.700     4.37     846.7446     55.04807     285.3428        22     1.359     1.017  64.20   0
       296    456.3113    603.4855 307.7267934  +6.4341861     914.3416     1420.004     2075.895     78.03634      156.445     312.4248      1.913     5.05     847.3171     55.04807     140.4814        10     1.170     0.617  48.67   0
       297     11.5305    603.6694 307.9114619  +6.4191027     578.7373     766.1384     1034.307     78.28447      156.321     312.2696      1.588     4.84     848.0668     55.04807     78.46783         6     0.951     0.698  22.43   0
       298    730.6528    598.9824 307.6130308  +6.4452685     5506.691     7998.459     7929.707     77.78741      156.259     312.0521      1.533     4.02     845.3294     55.04807     786.8248        28     1.560     0.810  57.11   0
       299    784.3165    594.3228 307.5909041  +6.4489931     14515.17     21042.67     22184.96     78.40824      156.507     312.3938      1.566     4.13     845.0627     55.04807      2115.02        37     1.507     0.911  55.04   0
       300   1001.5558    594.9006 307.5006775  +6.4560366     1153.034      1486.67     1343.407     78.28447     156.0727     312.5179      1.402     4.48     842.7629     55.04807      178.797        12     1.271     0.630  57.46   0
       301    526.4819    594.2739 307.6979670  +6.4403499     1230.865      2009.65     1901.019     78.53181      156.507     312.3627      1.776     4.77     846.5201     55.04807     175.4758        11     1.316     0.591  56.12   0
       302   1023.4926    592.9999 307.4916319  +6.4575556     1679.511     2065.046     1883.843     69.49151     126.1838     237.4404      1.111     3.44     842.2978     55.04807     314.0518         9     1.053     0.493  73.47  24
       303     29.0013    593.2702 307.9045597  +6.4239857     759.0224     1263.102     1722.301     77.78741     155.7617     312.1454      1.699     3.90     847.8361     55.04807     132.7145        10     1.108     0.703  51.71   0
       304    608.0220    592.2660 307.6641768  +6.4439209     2900.626     4179.354     3971.954     77.91198     156.1969     312.2385      1.528     4.24     846.2429     55.04807     406.6812        19     1.393     0.762  53.90   0
       305    931.4464    592.2200 307.5298800  +6.4547948     520.2219     589.3157     1036.597     77.91198     156.1969     312.1143      1.703     5.17     843.8464     55.04807     87.60608         5     1.084     0.696   5.66   0
       306    925.3661    588.5436 307.5325280  +6.4561085     1328.589     1794.219     1454.073      78.1605     156.1969     312.3006      1.478     4.86     843.8854     55.04807     215.4722        10     1.238     0.540  56.15   0
       307    366.9125    586.1113 307.7644986  +6.4383463     926.7538     1375.923     1211.116     78.03634     156.6927     312.3938      1.584     5.67     846.0229     55.04807     127.5712        11     1.269     0.713  40.65   0
       308    220.6340    585.7911 307.8252463  +6.4335457     1276.869     1844.663     1845.791     77.78742     156.0105     312.1454      1.495     4.80     847.3089     55.04807     186.5277        13     1.231     0.745  54.41   0
       309    184.1180    586.5419 307.8403827  +6.4320033     640.5566      1266.79      1863.39     78.40823     156.1969     312.3627      2.421     5.34     847.7357     55.04807     119.8412         8     1.312     0.613  57.82   0
       310    860.3452    577.6218 307.5598939  +6.4584372     2981.682     4377.671     5240.752     77.78742     156.1969     312.1143      1.613     4.36     844.4715     55.04807      457.123        18     1.397     0.736  51.14   0
       311    155.5708    577.2115 307.8525507  +6.4348906     756.4763     1073.805     1088.728     77.78742     156.0105     312.1454      1.750     5.76     847.8952     55.04807     106.4842        10     1.375     0.728  76.52   0
       312    819.0481    575.1261 307.5771261  +6.4580823      2531.45     3696.084     3947.194      78.1605      156.259     312.3317      1.525     3.87     844.5972     55.04807     367.2839        19     1.429     0.716  58.95   0
       313    799.6518    566.2241 307.5854790  +6.4611061     164668.6     242195.9     253328.1     77.78742     156.1969     312.2075      1.591     4.14     844.5432     55.04807     23780.81       119     1.658     1.113  56.54   0
       314    789.9788    570.9558 307.5893369  +6.4588284     2544.695     3914.613      4873.81     77.78742     156.0727     312.1143      1.574     4.44     844.7111     55.04807     365.5685        19     1.473     0.745  56.07   0
       315    247.1051    569.8940 307.8147915  +6.4410005     7942.721     11873.38        12648     78.28447     156.8165     312.2385      1.585     3.96      846.236     55.04807     1072.725        29     1.500     0.902  58.17   0
       316    732.4566    571.1129 307.6132175  +6.4568328     720.2666      1123.73     1171.368     78.28447     156.1969     312.4248      1.425     3.42     845.1727     55.04807     101.2715         5     0.803     0.422  67.15   1
       317    606.8638    569.4039 307.6654262  +6.4533188     509.5916     623.3142     641.2706      77.5377     155.9484     312.0832      1.347     4.64     845.6643     55.04807     90.62244         6     1.039     0.589  69.33   0
       318    181.2701    564.4371 307.8423113  +6.4410310     60426.99     91189.18     96532.79      78.1605      156.259     312.3627      1.665     4.08     847.3869     55.04807     7907.884        83     1.678     1.170  55.28   0
       319    729.6393    566.7372 307.6145342  +6.4585444     632.2509     1195.345     1831.847     78.28447     156.1348     312.3627      2.961     5.44     845.1539     55.04807     129.5074         9     1.520     0.549  58.98   0
       320    105.3305    560.6589 307.8739699  +6.4400258     6290.605     9952.434     10281.78     78.40824     156.1969     312.3006      1.726     4.32     847.7583     55.04807     835.5259        35     1.546     1.025  57.64   0
       321    970.7357    558.1158 307.5147075  +6.4701883     1315.809     2032.682     1762.191     78.40824      156.321     312.3627      1.458     4.93      841.842     55.04807     204.3993        12     1.290     0.595  60.77   0
       322    991.2462    556.8605 307.5062324  +6.4713935     703.7122     1139.869     963.2753      78.1605     156.1348     312.3627      1.566     4.07     841.1063     55.04807       118.76         7     1.202     0.558  59.16   0
       323    219.9727    556.0222 307.8265254  +6.4458107     786.8851     1169.797     1641.847     77.78742     156.0105     312.2385      1.492     2.84     846.3553     55.04807     158.0905         7     0.895     0.479  48.35   0
       324    836.2387    553.5140 307.5707126  +6.4675798     4784.101     6859.679     6733.838     78.28447     156.1969     312.3006      1.588     4.54     844.0573     55.04807      670.635        26     1.475     0.843  52.59   0
       325    354.6707    551.5656 307.7707458  +6.4521929     17770.62     26508.42     27780.33      78.1605     156.1348     312.3317      1.636     3.85     844.5536     55.04807     2357.467        43     1.547     1.013  55.16   0
       326    444.9974    551.5267 307.7332405  +6.4552519     706.8796     1097.057     1325.108     77.78741     155.7617     312.1454      1.878     4.54       845.51     55.04807     118.9873         6     1.232     0.475  48.13   0
       327    156.5304    550.5758 307.8530516  +6.4459170     2104.839     2945.797     2737.253     77.91198     156.0727     312.2385      1.541     3.90     847.6728     55.04807     312.9288        17     1.369     0.775  57.54   0
       328    901.4482    549.4731 307.5437693  +6.4714343      516.829     797.0841      654.249     78.28447      156.259     312.3317      1.565     4.23     843.3787     55.04807     102.2614         6     1.384     0.369  49.39   0
       329    521.0612    546.5839 307.7018223  +6.4598524     6620.351     9901.774     10026.04     77.78741     156.1348     312.1143      1.590     4.21     845.1946     55.04807     862.4177        29     1.529     0.907  59.26   0
       330    231.7490    547.9427 307.8219082  +6.4495430     864.6595     1050.021     1100.957     78.28447     156.1969     312.3006      1.262     4.36     845.7934     55.04807      145.583         8     1.271     0.426  57.49   0
       331    790.1868    546.7635 307.5900623  +6.4688213     5901.772     8709.251     9243.698     77.78742     156.0105     312.0211      1.562     4.02     844.3652     55.04807     858.9343        26     1.449     0.841  53.37   0
       332    161.9536    547.6442 307.8508987  +6.4473102     688.9243     905.4345     1543.637     78.28447     156.1969     312.2385      1.440     5.30     847.6208     55.04807     96.33875         8     1.153     0.688  52.83   0
       333     93.7872    547.4529 307.8792089  +6.4450866     948.9597     1417.969     1334.532     77.66266     156.1348     312.0211      1.499     3.46     847.6025     55.04807     156.2612        11     1.040     0.727  50.06   0
       334    379.2451    542.9398 307.7608324  +6.4565814     1441.479     2205.365     2134.592      78.1605     156.1348     312.3938      1.579     4.19     844.5944     55.04807     209.6951        13     1.159     0.824  60.21   0
       335    565.8906    539.5232 307.6834447  +6.4642748     2414.101      4016.73     4085.333      78.1605      156.445     312.3317      1.760     4.12     844.8692     55.04807     296.1528        26     1.358     1.196  66.43   0
       336    263.2619    536.0659 307.8092239  +6.4555084     88079.57     134613.8     141124.5     78.28447     156.1969     312.3006      1.634     4.11     844.6138     55.04807     11587.38        92     1.679     1.137  56.71   0
       337    168.0400    539.6118 307.8486428  +6.4508311     6869.719     10389.12     10572.59     77.66266     156.0105     312.0521      1.593     3.98     847.1314     55.04807     901.3448        29     1.456     0.948  54.76   0
       338     39.7646    538.3130 307.9019486  +6.4470331     5056.846     7654.124     7774.534     78.28447     156.0727     312.3006      1.656     4.11     846.8187     55.04807     662.5993        25     1.502     0.906  57.92   0
       339    806.6352    538.9073 307.5834956  +6.4726160     1544.786     2239.767     2485.581     78.40824     156.0727     312.3627      1.597     4.48     843.9282     55.04807     223.9938        14     1.303     0.686  53.13   0
       340    552.6083    533.3480 307.6891678  +6.4663770     839.9734     1169.688     1191.362     77.78742     156.0727     312.0211      1.484     4.79     844.5873     55.04807      151.124        10     1.334     0.529  56.45   0
       341    786.4604    528.5841 307.5922197  +6.4762002     16869.09     24515.92     25324.55     77.78742     156.1348     312.0521      1.604     4.48     843.8203     55.04807     2502.175        41     1.533     0.931  54.73   0
       342    246.9652    531.0684 307.8161594  +6.4570214     1403.239     2108.516     2428.319      78.1605      156.259     312.3938      1.590     3.98     844.8131     55.04807     213.7825        12     1.244     0.640  46.60   0
       343    962.7775    529.7886 307.5189611  +6.4816146     1688.278     2686.908     2630.735     77.91198     156.0105     312.2075      1.574     4.32     841.1168     55.04807     256.0085        16     1.463     0.741  50.44   0
       344    490.0341    526.9279 307.7153675  +6.4669215     41333.06     66644.79     71080.34      78.1605     156.1348     312.3006      1.710     4.04      844.462     55.04807      5490.88        72     1.702     1.225  47.04   0
       345    640.4249    525.4745 307.6529666  +6.4725795     1159.474     1765.165     2194.579     77.91198     156.0105     312.2385      1.775     5.74     844.1727     55.04807     147.5153        14     1.203     0.795  45.68   0
       346    202.4270    523.4525 307.8349099  +6.4586618     1870.255      2959.39     3648.576     77.91198      156.321     312.2385      1.932     3.84     845.4492     55.04807     260.8257        16     1.263     0.760  62.72   0
       347     88.5554    523.1295 307.8822031  +6.4549493     548.9861     945.2876     988.1149     78.28447     156.1969     312.3006      1.742     6.27     847.0142     55.04807     83.03503         8     1.662     0.664  68.25   0
       348     38.1340    523.5084 307.9031261  +6.4530886     1279.058     1936.495     2148.666     78.28447      156.383     312.3006      1.578     4.87     846.6119     55.04807     182.0709        12     1.226     0.649  66.17   0
       349    649.8644    522.0246 307.6491627  +6.4743207     2915.378     4251.685     5025.042     77.91198     156.1969     312.2696      1.485     3.93     844.0229     55.04807     459.3984        20     1.486     0.733  56.55   0
       350    660.1445    521.9893 307.6448950  +6.4746807     1534.272     2242.253      2533.65     77.66266     156.1348       311.99      1.546     4.46     843.9619     55.04807     215.1708        14     1.303     0.714  57.31   0
       351    712.1408    521.3195 307.6233256  +6.4767039     1451.594     2292.562     2851.276     78.40824     156.1969     312.3006      1.803     5.01     843.9265     55.04807      216.123        13     1.288     0.725  48.05   0
       352    387.4348    517.3297 307.7582945  +6.4674282     1642.721     2682.281     2778.372      78.1605     156.1348     312.3317      1.757     4.93     843.7686     55.04807     245.0734        15     1.438     0.698  59.23   0
       353     68.5168    518.9210 307.8906657  +6.4560091      910.256     1538.146     1562.847     78.40823      156.445     312.4248      1.945     5.85     846.7744     55.04807     173.5941        10     1.832     0.526  24.03   0
       354    319.1572    515.9080 307.7866941  +6.4657138     3942.235     5925.327     6060.632     78.28447     156.1969     312.3938      1.594     4.23     843.4393     55.04807      545.428        25     1.455     0.907  57.98   0
       355    134.3839    514.3925 307.8634692  +6.4601039     26308.01     39689.19     41257.79     77.91198     155.9484     312.1454      1.635     4.12     846.1872     55.04807     3577.348        49     1.593     1.018  57.63   0
       356    499.1466    515.1584 307.7119797  +6.4720863     2153.399     3153.629     3437.649     78.28447      156.259     312.3317      1.570     4.14     843.9326     55.04807     290.5667        18     1.339     0.844  52.86   0
       357    862.3652    514.5878 307.5611687  +6.4845237     1532.136     2018.384     2291.307     77.78742     156.0105     312.1454      1.539     4.50     842.5508     55.04807     211.1073        13     1.193     0.718  50.42   0
       358     99.5414    512.6208 307.8779965  +6.4596580     2858.629     4373.403     4598.705     77.91198     156.0727     312.1143      1.686     3.97     846.7769     55.04807     393.1835        22     1.417     0.878  59.27   0
       359    336.3982    510.9088 307.7797035  +6.4683585     1130.108     1713.754     1764.476      77.5377     155.8862     312.0521      1.511     4.57     843.2989     55.04807     189.6069        14     1.359     0.694  56.01   0
       360    959.8696    509.1521 307.5208600  +6.4900354     5236.817     7868.681     8282.638     78.28447     156.1348     312.3317      1.561     4.35     840.4342     55.04807      775.394        26     1.478     0.817  53.97   0
       361    533.1930    501.5035 307.6983013  +6.4788682      1427.37     2218.091     2445.934     78.03634      155.824     312.0832      1.787     4.89     843.3459     55.04807     212.8774        18     1.544     0.798  57.65   0
       362      1.1374    499.7187 307.9192922  +6.4616567     2225.767     2781.549     3142.529     65.76344     121.1658     231.6523      0.976     2.27     846.1588     55.04807      767.238         9     1.080     0.343  88.10  24
       363    431.3789    495.5895 307.7407791  +6.4778820     43614.89     65285.11     67825.41     77.91198     155.9484     312.1454      1.634     4.12     843.1195     55.04807     5941.897        61     1.599     1.062  56.21   0
       364    639.3724    495.2650 307.6544189  +6.4850136     12451.93     18268.36     19090.72     77.91198     156.1969     312.2075      1.593     4.09     843.2862     55.04807     1784.741        35     1.518     0.926  52.44   0
       365    279.3385    495.9170 307.8039026  +6.4726225     1054.327     1320.219     1887.296     78.40824     156.1969     312.2696      1.490     5.35     843.0422     55.04807     124.4059        11     1.209     0.668  57.61   0
       366    196.5077    493.1402 307.8383910  +6.4709736     19399.03     30167.33        32003      78.1605     156.1348     312.4248      1.674     4.29     844.0675     55.04807     2400.171        54     1.690     1.091  55.36   0
       367    162.2231    494.1182 307.8525942  +6.4694124     1600.261     2570.282     2387.235     78.03634     155.8862     312.2075      1.667     4.56     844.4476     55.04807      223.194        20     1.495     0.857  70.28   0
       368   1005.5858    494.9235 307.5023516  +6.4974398     607.8195     880.5242     1046.905     77.91198     155.9484     312.1143      1.453     5.16     838.6727     55.04807     107.0684         7     1.114     0.675  55.86   0
       369    973.2613    493.6734 307.5158173  +6.4968732      1193.65      1583.91     2346.661     78.40824     156.1969     312.3317      1.548     5.32     839.5233     55.04807     165.5969        11     1.237     0.647  55.04   0
       370    813.6018    493.2898 307.5821331  +6.4916794     907.4817     1433.092     1607.655      77.5377      155.824     312.0521      1.777     5.78     842.3356     55.04807     126.4454        10     1.351     0.697  46.61   0
       371    561.2073    492.1347 307.6869833  +6.4836777     2862.363     4236.208     4115.965     77.78741     155.9484     312.1454      1.567     3.86     843.0105     55.04807     412.9763        18     1.404     0.753  54.17   0
       372    901.8272    492.7682 307.5455127  +6.4948533     736.4057     1045.371     951.8973     77.78741     155.9484     312.1143      1.477     3.87     841.1011     55.04807     157.6059         7     1.160     0.600  56.87   0
       373    935.0271    489.3227 307.5318409  +6.4973882     4880.662     7076.767     7191.917      78.1605     156.1348     312.2696      1.547     4.12     840.3079     55.04807     729.1976        27     1.503     0.834  52.46   0
       374    608.1785    487.6550 307.6676284  +6.4871063     6471.945     9750.787     10284.07     77.78742     156.1969     312.1143      1.603     4.44     843.1038     55.04807     890.3997        29     1.476     0.922  57.30   0
       375     95.6703    487.9889 307.8804361  +6.4696941     1159.611     1522.108     1280.447     77.78741     155.9484     312.1143      1.394     4.47     846.2156     55.04807     187.4603        11     1.173     0.658  54.92   0
       376    207.4197    486.1771 307.8340949  +6.4742160     418.8039     718.8351     1021.091     78.03634     156.0727     312.2385      1.853     3.43     843.6559     55.04807      69.4765         5     0.774     0.439  69.26   0
       377    957.6621    481.6495 307.5226981  +6.5013138     3516.531     5116.665     5286.479     78.28447     156.1348     312.3627      1.554     3.86     839.4618     55.04807      545.132        22     1.452     0.768  57.14   0
       378    520.4185    478.8863 307.7043670  +6.4877739     7526.229     11146.44     12206.53     77.91198     155.9484     312.1764      1.590     3.97     842.3807     55.04807     1067.337        28     1.456     0.880  54.94   0
       379    395.9267    480.3385 307.7560145  +6.4829829     711.3223     976.1366     1395.186     78.40824     156.1969     312.3317      1.605     4.59     842.4019     55.04807     100.1898         8     1.218     0.491  66.29   0
       380    366.3596    479.0266 307.7683366  +6.4825281     2716.203      3982.69      4140.85     77.91198     156.0105     312.1454      1.546     3.96      842.353     55.04807      365.797        19     1.341     0.835  58.13   0
       381    876.8243    474.8606 307.5564963  +6.5014069     3224.399     4779.563      5488.59     77.91198     156.1348     312.2075      1.595     4.25      840.875     55.04807     466.8447        22     1.413     0.859  44.20   0
       382    529.6606    475.5321 307.7006419  +6.4894694     623.6898     967.9573     1543.045     78.40824     156.1348     312.3006      1.598     4.12     842.2191     55.04807     90.84265         6     1.072     0.452  53.79   0
       383    225.0215    473.5385 307.8272124  +6.4800267     688.0453     887.2066       499.61     77.91198     156.1969     312.2075      1.425     4.40     843.0929     55.04807     93.83014         8     0.880     0.694  53.55   0
       384    923.6988    468.4977 307.5372433  +6.5056046     1386.332     1790.724     1579.787     78.28447     156.5689     312.1454      1.477     5.09     839.8724     55.04807       210.97        16     1.453     0.788  57.34   0
       385    884.3270    469.1098 307.5535733  +6.5040322     2281.128     3174.727     3462.671     78.28447      156.445     312.3317      1.522     3.76     840.5642     55.04807     342.6732        16     1.334     0.685  51.68   0
       386    103.5002    468.2184 307.8778529  +6.4781189     696.8274     1006.266       663.52     78.28447     156.0727     312.0832      1.652     5.51     845.0722     55.04807     92.22186         8     1.129     0.759  26.68   0
       387    708.2473    465.1729 307.6268282  +6.4997487     3146.775     4728.661     5300.313     77.91198      156.259     312.2385      1.636     4.04      841.856     55.04807     425.8078        20     1.387     0.825  53.50   0
       388     70.2021    464.2564 307.8918134  +6.4786289     1819.204      2948.05     3509.469     77.66266     155.8862     312.0211      1.796     4.57     845.2033     55.04807     242.2562        21     1.482     0.854  58.59   0
       389    379.5613    463.6936 307.7633712  +6.4893018     3491.254     6108.738      6466.13     78.40824     156.1348     312.3938      1.871     7.90     841.5568     55.04807     544.1359        29     1.897     0.919  45.80   0
       390    419.3028    463.0909 307.7468884  +6.4908895     1054.434     1470.866     1521.026     78.28447     156.6927     312.3006      1.633     4.55     841.4434     55.04807     168.8715        13     1.372     0.657  50.94   0
       391    606.8862    459.9080 307.6690979  +6.4985159     10067.18      14826.1     15381.12     78.03634     156.6309     312.3938      1.540     3.98     841.9551     55.04807      1363.73        35     1.533     0.927  54.48   0
       392    769.5897    456.4888 307.6016454  +6.5053929     17056.66     24598.31     26082.92     77.91198     155.8862     312.0832      1.582     4.08     841.1154     55.04807     2470.357        43     1.512     0.958  55.72   2
       393    773.4214    451.5682 307.6002193  +6.5075526      1475.09     2096.014      2640.28     77.78742     156.0105     312.1143      1.623     4.33     840.9394     55.04807     217.6329        15     1.327     0.790  45.13   2
       394    289.4035    456.7036 307.8010456  +6.4891476     2809.992     4356.458     4255.463     78.03634     155.8862       311.99      1.708     4.27     841.7386     55.04807     376.2043        23     1.491     0.860  53.95   0
       395    372.3156    453.3634 307.7667282  +6.4933216     1600.875     2389.681     2759.313     78.28447     156.1969     312.2696      1.736     4.99     840.9955     55.04807     237.2302        19     1.645     0.768  58.75   0
       396    798.7401    453.7908 307.5896302  +6.5074848     1358.973     1871.012     1990.017     77.66266     156.0727     312.0211      1.456     3.92     840.8715     55.04807     209.4838        12     1.167     0.685  51.38   0
       397    899.7104    454.3996 307.5476780  +6.5106199     550.6513     559.9767     653.0686      77.5377     155.6994       311.99      1.249     4.09     839.8748     55.04807     82.98749         6     0.915     0.522  41.09   0
       398    954.7963    451.5084 307.5248981  +6.5136593     2287.691     3242.286     3321.002     77.91198     155.8862     312.0832      1.599     4.38     838.6244     55.04807     312.0121        18     1.404     0.766  49.74   0
       399    360.7697    449.0882 307.7716668  +6.4946971     805.1701     1122.349     1405.196     78.40823     156.0105     312.2385      1.596     5.18     840.8192     55.04807     107.7377        10     1.278     0.594  51.90   0
       400    106.9378    448.2303 307.8771008  +6.4864852      4536.61     7040.493     7719.284     78.03634     156.1969     312.2696      1.661     4.15     843.9195     55.04807     626.6832        26     1.488     0.922  61.88   0
       401     30.1145    449.7395 307.9089502  +6.4832654     490.6653     726.0447     1217.236     78.40824      156.321     312.3938      1.748     5.47     844.9183     55.04807     106.4645         6     1.443     0.585  49.06   0
       402   1008.8769    446.2633 307.5026144  +6.5176357     4324.021     7110.126     7626.843     78.53181     156.1969     312.2696      1.736     4.59     836.6975     55.04807     590.7596        32     1.696     0.972  49.15   0
       403    745.0217    447.3064 307.6121564  +6.5083584     2296.247     3458.763      3612.93     78.28447     156.0105     312.1143      1.599     4.47     840.9399     55.04807     319.3566        19     1.340     0.903  50.83   0
       404    264.7780    445.3965 307.8116530  +6.4929840     1359.733      2011.65     2532.543     77.91198     155.8862     312.0832      1.646     5.31     841.6393     55.04807     200.8555        14     1.336     0.743  49.68   0
       405    343.0640    443.1319 307.7792201  +6.4965588     3246.372     4948.364     5037.117     78.28447     156.1969     312.3627      1.612     4.18      840.662     55.04807      386.849        24     1.434     0.925  54.46   0
       406    698.8322    440.9250 307.6315525  +6.5094413     1586.729     2289.448     2345.645      78.1605      156.259     312.2696      1.502     4.65     841.0171     55.04807     238.4659        15     1.388     0.700  45.70   0
       407    973.0663    440.1545 307.5176911  +6.5189579     546.3807     746.2125     589.8308     78.28447     156.1348     312.3317      1.370     4.24     837.6536     55.04807     102.9458         6     1.088     0.471  28.56   0
       408    230.7287    439.0493 307.8260064  +6.4944550     799.0938     1279.751     760.6046     78.28447     156.1969     312.3317      1.713     5.28     841.7986     55.04807     109.2139        10     1.343     0.587  56.30   0
       409    540.2357    433.3730 307.6976688  +6.5072270     845.5938     1390.756     1428.647     77.78742     155.8862     312.0832      1.904     4.87     839.9127     55.04807     111.1295         9     1.329     0.506  49.94   0
       410    462.4458    431.8161 307.7300257  +6.5052515     1352.795     2114.689      1992.94     77.78742     156.0727     312.0832      1.654     4.28     839.7027     55.04807      204.587        14     1.281     0.728  49.40   0
       411    825.2396    431.0981 307.5793866  +6.5177408     1687.897     2219.398     1954.553     78.28447     156.0727     312.5179      1.405     4.03     839.7161     55.04807     239.1888        16     1.291     0.757  58.50   0
       412    810.7570    430.0652 307.5854358  +6.5176813     2096.022     3024.934     2989.974     78.28447     156.1348     312.3006      1.563     4.36     839.7227     55.04807     279.6323        17     1.431     0.714  52.03   0
       413    708.0508    428.1361 307.6281537  +6.5150297     15312.14     22472.87     23190.08     78.28447     156.1348     312.3317      1.550     4.02     840.4843     55.04807     2192.261        40     1.502     0.964  52.93   0
       414    601.5454    419.3221 307.6726805  +6.5150888      13429.7     26296.94     31217.72     78.40824     156.1969     312.3006      2.232     7.31     840.1113     55.04807     2101.911        62     2.471     1.054  38.69   0
       415    629.2440    424.2598 307.6610116  +6.5139818     2466.111     3800.558      3758.96      78.1605     156.1969     312.4248      1.622     4.49     840.4391     55.04807     346.5665        21     1.480     0.869  55.74   0
       416    933.3403    418.1429 307.5349269  +6.5267128      3975.43     5484.164     5235.673     78.40824     156.1348     312.3317      1.502     3.93     838.4855     55.04807     570.8265        19     1.361     0.756  56.11   0
       417    372.4727    413.9745 307.7679904  +6.5095850     28689.92     43998.39     46197.73     77.91198     156.0727     312.2075      1.640     4.06     838.9845     55.04807     3927.745        54     1.595     1.065  55.45   0
       418    888.0446    412.6852 307.5539213  +6.5274474     1219.531       2484.2     2727.424     78.28447     156.1348     312.3006      2.386     8.50     838.7429     55.04807     234.3322        24     2.817     0.717  51.62   0
       419    118.4252    413.3606 307.8735088  +6.5012658     2281.866     3559.209     3408.857     77.91198     156.0105     312.0832      1.636     4.41     842.1713     55.04807     320.0594        20     1.457     0.850  49.98   0
       420    902.0990    408.5359 307.5482236  +6.5296312     5404.771     7750.363     8032.442     78.28447      156.259     312.3317      1.548     4.30     838.4116     55.04807     808.1876        25     1.461     0.802  58.05   0
       421    584.0756    410.0831 307.6802462  +6.5183149     562.9328      880.817     1281.176     78.40824      156.507     312.3938      1.564     3.91     839.3452     55.04807     103.1953         5     1.002     0.437  45.22   0
       422     51.8770    408.6676 307.9013020  +6.5009536     1483.945     2363.771      2905.92     78.40824      156.259     312.2696      1.749     4.25     843.0782     55.04807     212.1569        16     1.414     0.745  61.60   0
       423    229.9903    404.5148 307.8274785  +6.5086843     13945.99      21154.7     22284.09     77.91198     155.8862     312.1454      1.649     4.12     840.6884     55.04807     1896.423        40     1.579     0.971  57.73   0
       424    957.9430    406.1189 307.5251122  +6.5325004     681.0176     927.7119     682.2954     78.40824     156.1969     312.3006      1.320     4.06     836.8962     55.04807     131.1425         6     1.033     0.457  51.76   0
       425    724.5677    398.3658 307.6222942  +6.5278727     812.1842     1328.221     1550.396     77.91198     155.9484     312.0521      1.704     5.21     839.1843     55.04807     124.4531        11     1.257     0.610  46.39   0
       426     65.2723    398.0459 307.8960985  +6.5057906     747.8684     1376.189     1593.856      78.1605      156.259     312.3006      1.823     5.92     842.6033     55.04807     121.5985        11     1.530     0.644  45.26   0
       427    692.9808    397.3503 307.6354464  +6.5272310     748.1918     876.1321      1024.23     77.78741      156.259     312.1454      1.393     4.27     839.0602     55.04807     106.4877         7     1.187     0.438  56.31   0
       428    953.4382    396.7503 307.5272970  +6.5362165     1044.975     1654.277     1515.874     78.03634     156.1969     312.2075      1.626     4.97     836.5963     55.04807     175.4525        10     1.234     0.573  40.13   0
       429    342.8053    394.3129 307.7809733  +6.5167005     1269.243     1933.521     1857.641     77.78742     155.8862     312.0521      1.668     4.38     838.4614     55.04807     212.6445        14     1.403     0.657  69.33   0
       430    176.6549    395.6741 307.8499255  +6.5105328     468.3855     735.8501     662.3645      78.1605     156.1348     312.2696      1.262     3.62     841.3645     55.04807     81.51135         5     0.770     0.490 -25.29   2
       431    175.2910    393.0502 307.8505805  +6.5115698     593.6346      761.866     977.6109     78.28447     156.0105     312.4869      1.367     3.46      841.335     55.04807     99.67419         5     0.790     0.660 -66.22   3
       432    130.2609    393.1693 307.8692760  +6.5099997     5099.478      7854.08     8233.674     78.03634     156.1969     312.2696      1.659     4.46     841.7776     55.04807     669.3325        28     1.478     0.922  59.40   0
       433    235.0455    392.0547 307.8257997  +6.5139979     1358.929      2067.46     2076.002     78.28447     156.1969     312.3006      1.636     4.34     840.2468     55.04807     199.4532        15     1.308     0.752  58.22   0
       434    427.4554    391.3700 307.7459186  +6.5207677     592.3085     1124.679     938.9278      78.1605      156.259     312.2696      1.772     4.95     837.6469     55.04807     101.5692         7     1.522     0.455  58.40   0
       435    152.3328    388.9308 307.8602534  +6.5124947     2433.704     4111.442     4362.363     78.28447      156.259     312.3006      1.807     4.32     841.5738     55.04807     312.8606        26     1.595     0.997  73.71   0
       436    816.3078    389.4897 307.5844921  +6.5346159     849.5186     1196.936     1409.997     78.28447     156.6927     312.3627      1.419     4.70     838.2932     55.04807     125.1589         9     1.213     0.517  51.79   0
       437    547.8273    387.7753 307.6960503  +6.5263035     896.0365     1594.924     1421.659     77.78741     156.0105     312.1764      1.783     6.18     837.6879     55.04807     122.6445        13     1.692     0.635  49.00   0
       438    962.0648    386.6335 307.5240532  +6.5406815     570.6752     983.9731     1021.753      78.1605     156.1969     312.2696      1.338     3.46     835.8188     55.04807     109.6752         5     0.990     0.350  44.38   0
       439    375.6734    383.7661 307.7676793  +6.5221616     2177.243     3218.228     2964.833      78.1605     156.1348     312.3006      1.612     4.15     837.6265     55.04807      318.558        19     1.360     0.857  63.90   0
       440    263.5736    384.0388 307.8142232  +6.5182691      858.504     1178.241     419.4622     77.91198     156.0105     312.1454      1.405     4.63     839.6488     55.04807     151.9647         8     1.086     0.560  38.10   0
       441    964.1277    382.3799 307.5233390  +6.5425064     987.3265     1414.926     1401.145     77.91198     156.0727     312.2696      1.416     3.99     835.5221     55.04807     169.9307         8     1.092     0.630  44.34   0
       442    310.2044    381.8077 307.7949335  +6.5207629     701.5616     1008.706     693.2996     77.66266     155.8862     312.1454      1.625     4.25     838.7571     55.04807     99.46503         7     0.879     0.585  54.83   0
       443    583.0015    379.4854 307.6817213  +6.5309084     586.1883     757.0679     961.9993      77.5377     155.7617     312.0211      1.532     4.08     837.6617     55.04807      90.4068         5     1.085     0.439  62.59   0
       444     26.1809    377.7127 307.9130192  +6.5128613     2942.531     5442.359     6480.846     78.03634     155.9484     312.1764      2.053     5.13     842.7527     55.04807     407.1105        32     1.729     1.344 -80.06   0
       445    429.5833    377.2596 307.7455103  +6.5266636     7430.102     11457.03     11964.57     77.78742     156.1348     312.0521      1.677     4.01     836.9978     55.04807      921.656        34     1.568     0.951  54.19   0
       446    770.2332    374.7711 307.6041214  +6.5391451        13273     19329.05      20147.8     77.78742     155.9484     312.0832      1.572     4.16     838.0751     55.04807     1963.314        36     1.508     0.912  54.96   0
       447    762.2533    376.2840 307.6073847  +6.5382527     2012.235     2827.068     2799.084     78.28447     156.1969     312.4558      1.543     5.29     838.1497     55.04807     264.8192        16     1.320     0.748  50.39   0
       448    333.6575    372.8728 307.7854951  +6.5252417     1088.757     1644.068     1456.115     78.40824     156.1969     312.2696      1.608     5.25     837.8009     55.04807     167.5106        10     1.175     0.702  53.84   0
       449   1014.2039    370.0070 307.5029558  +6.5492908     3676.402     5873.328     6045.788     77.66266     155.8862     312.1764      1.667     4.12     833.9324     55.04807      542.215        24     1.537     0.838  53.47  16
       450    944.9558    366.6524 307.5318284  +6.5483559     556.5052     654.8228     1122.906     78.28447     156.1969     312.3006      1.580     5.05     835.1557     55.04807     91.38843         7     1.499     0.482  66.30   0
       451    895.1217    364.7430 307.5525896  +6.5474739      590.705     707.3505     568.5407     78.28447     156.1969     312.2696      1.405     4.77     836.3897     55.04807     107.2234         8     1.294     0.525  64.59   0
       452    178.5695    365.5191 307.8501487  +6.5230440     827.0996     1413.498     1437.415     78.16051     156.0727     312.2696      1.721     4.91     840.6462     55.04807     145.9331         9     1.212     0.564  47.54   0
       453    477.7986    361.0603 307.7260322  +6.5349737     3084.911      4534.18     4423.175     77.66266     156.0105     312.0211      1.565     3.87     836.2559     55.04807     416.7455        24     1.442     0.903  57.21   0
       454    450.1019    361.6128 307.7375160  +6.5338131     2212.521     3278.252     3173.811     78.03634     155.9484     312.0832      1.590     4.36     836.3022     55.04807     322.6444        19     1.434     0.748  60.78   0
       455    906.4772    361.1622 307.5479935  +6.5493326     865.8434     1302.093     1363.929      78.1605      156.259     312.3006      1.735     4.92     835.8364     55.04807     131.4953        11     1.202     0.740  53.14   0
       456    835.6289    357.7053 307.5775342  +6.5483838     33709.64     51309.62      53771.6     78.40824     155.9484     312.2075      1.655     4.09     837.2435     55.04807     4719.248        57     1.647     1.034  61.64   0
       457    980.6918    357.5928 307.5172900  +6.5532927       606.96     832.1811     415.1521     77.91198     155.8862     312.1143      1.492     3.68     834.1049     55.04807     109.1559         5     1.335     0.292  60.55   0
       458    420.9302    355.8471 307.7498252  +6.5352104     456.1776     696.7484     695.6979     78.28447     156.1348     312.3006      1.783     3.54      836.024     55.04807     96.47937         5     1.491     0.242  66.94   0
       459     53.8015    354.0992 307.9023477  +6.5235417     713.2915     1087.399     722.6763     77.78741     155.9484     312.0211      1.634     5.04     841.8315     55.04807     96.73242         9     1.282     0.560  62.36   0
       460    328.1441    353.3458 307.7884432  +6.5331157     802.9017     1262.661     1129.714     78.40824      156.259     312.3006      1.629     4.22     837.1396     55.04807     128.8614        10     1.261     0.667  64.85   0
       461    607.2861    350.0040 307.6726273  +6.5438939     2720.674     4340.085     4074.941     77.78741      155.824     312.0211      1.696     3.97      836.319     55.04807     394.0701        21     1.457     0.821  56.67   0
       462     15.8516    350.4260 307.9182315  +6.5237745     1034.935     1408.785     756.7958     77.91198      156.321     312.2075      1.520     5.17      842.109     55.04807     129.9136        10     1.320     0.572  64.75   0
       463    692.0646    343.6444 307.6376313  +6.5493682      82452.3     120954.6     126527.5     78.28447     156.1348     312.3006      1.589     3.98     836.3901     55.04807     11168.12        88     1.630     1.097  55.16   0
       464    850.4375    345.1191 307.5718061  +6.5540757     1239.728     1676.838     2202.073     78.28447      156.259     312.2385      1.641     3.36     836.6694     55.04807     198.1663        11     1.062     0.703  40.61   0
       465     71.4583    343.2441 307.8953822  +6.5286190      1365.07      2177.32       2397.4      78.1605     156.1348     312.3627      1.516     4.87      841.454     55.04807     207.2095        16     1.537     0.679  62.50   0
       466    554.6807    340.4124 307.6947976  +6.5460838     2672.337     3980.037     3868.951     77.91198     155.8862     312.1454      1.592     4.12     835.3717     55.04807     378.4249        20     1.448     0.777  54.53   0
       467    933.4540    340.7700 307.5374729  +6.5586541     749.0442     1059.585     1101.486     78.03634      156.259     312.2075      1.452     4.35     834.3301     55.04807     133.2375         7     1.219     0.442  47.34   0
       468     91.8063    339.0850 307.8870727  +6.5310235     5991.576     9273.186       9480.8     77.78741     155.8862     312.0832      1.618     4.07     841.1902     55.04807     817.8825        31     1.497     0.986  58.27   0
       469    752.9217    338.9443 307.6125140  +6.5533521     523.8947     823.6851     1180.573     78.40824     156.1969     312.3006      1.631     3.58     836.6783     55.04807     103.6011         5     0.987     0.375  32.20   0
       470    537.7982    336.5374 307.7019394  +6.5471152     7213.797     11015.91     11105.75     77.66266     156.0105     312.0521      1.646     3.89     835.1347     55.04807     982.0685        30     1.525     0.934  53.90   0
       471    266.8073    333.9810 307.8145692  +6.5390398     2649.507      4061.12      3756.56     77.91198     155.8862     312.1454      1.581     4.12     837.6838     55.04807     349.4856        24     1.518     0.904  57.00   0
       472    400.7090    331.6648 307.7590378  +6.5445106     26394.22      40536.2      41866.7      78.1605      156.383     312.3317      1.658     3.99     835.1086     55.04807     3350.468        51     1.573     1.078  56.29   0
       473    579.6074    332.1879 307.6847218  +6.5503170     570.9438     936.9539     890.7025     77.91198     156.0105     312.2075      1.480     3.73     835.1793     55.04807     106.2574         6     0.905     0.549   1.09   2
       474    508.3683    330.6518 307.7143601  +6.5485542     1338.287     2194.899      2448.25      78.1605      156.259     312.2385      1.875     4.31     834.8228     55.04807     201.5315        15     1.282     0.845  58.64   0
       475    667.5449    330.1626 307.6482679  +6.5541093     710.4489     789.9509     632.7481     78.28447      156.259     312.3317      1.407     4.26      835.612     55.04807     116.8909         5     0.965     0.536  40.89   0
       476    380.6187    329.7736 307.7674452  +6.5446142     1298.163     1933.687     2337.484     77.91198     156.0105     312.2075      1.648     4.66     835.3361     55.04807     170.5848        12     1.189     0.695  44.41   2
       477    378.2234    324.7800 307.7686083  +6.5465946     618.0078     1180.072     1688.696     78.03634     156.0105     312.2385      2.536     5.43     835.1991     55.04807     103.0544        10     1.752     0.475  53.24   3
       478    479.7475    326.9275 307.7263720  +6.5491280     1059.585     1365.325     1436.987      78.1605     156.1969     312.3317      1.520     4.32     834.6142     55.04807     154.1245        12     1.183     0.798  72.98   0
       479    795.5385    323.8025 307.5953225  +6.5610327     853.4853     1490.892     1495.115     77.66266     156.0727     312.0211      1.846     4.42      836.054     55.04807     147.4728        11     1.375     0.587  59.02   0
       480    489.7968    322.0409 307.7223630  +6.5514833      8595.68     13328.69     13651.96      77.5377     155.9484     312.0521      1.621     3.98     834.3731     55.04807     1179.466        34     1.508     0.964  56.15   0
       481    914.6108    320.9303 307.5459642  +6.5662118     990.3093     1268.217     1241.942     77.78741     156.0105     312.1454      1.572     6.23     834.4426     55.04807     131.9341        15     1.479     0.737  48.28   0
       482    758.9624    320.8835 307.6106116  +6.5610099       3123.2      4470.27     4447.057     78.28447     156.1348     312.2385      1.495     4.04      835.899     55.04807     456.3387        20     1.457     0.748  53.29   0
       483    706.5225    320.3679 307.6324086  +6.5594617     685.8079     1082.338     1146.782     78.16051     156.1969     312.2696      1.646     4.44     835.5632     55.04807     120.8819         7     1.345     0.416  47.07   0
       484    316.5694    318.8381 307.7944138  +6.5469686     1050.691      1659.72     1665.395     77.91198     155.9484     312.1454      1.602     6.03     836.0548     55.04807     115.3457        14     1.383     0.740  55.32   0
       485    875.4781    316.7497 307.5623576  +6.5666255     486.2913      690.523     828.5884     78.28447      156.259     312.3006      1.701     3.46     835.2101     55.04807     106.3351         5     1.137     0.304  68.79   0
       486    151.8030    312.2476 307.8630636  +6.5441279     1140.188     1783.691     1873.212     77.66266     155.9484     311.8967      1.649     5.44     839.8074     55.04807     148.7897        12     1.283     0.650  56.81   0
       487    251.4132    312.1797 307.8216980  +6.5475189     653.9821     1014.691     1217.882     78.03634     155.8862     312.2075      1.703     3.47     837.0255     55.04807     97.71222         5     0.842     0.414  68.66   0
       488    235.4716    306.8258 307.8284993  +6.5491908     2104.015     3327.177     3890.019     77.91198     156.0727     312.2385      1.792     4.62     837.1783     55.04807     273.5383        18     1.488     0.756  64.07   0
       489    379.6595    306.2467 307.7686365  +6.5542928     7588.182     11715.57     12142.81     78.28447     156.1969     312.4248      1.677     4.06     834.4536     55.04807     945.8749        35     1.551     1.003  55.09   0
       490    733.2244    306.0544 307.6217994  +6.5662666     1065.695     1429.864     1375.353     77.91198      156.259     312.1143      1.399     4.15      835.192     55.04807      179.716        10     1.244     0.550  49.85   0
       491    747.5577    302.2152 307.6159752  +6.5683326     56427.64     81885.22      85203.8     77.78742     155.9484     312.0832      1.565     3.99     835.0615     55.04807     7843.477        65     1.556     1.033  52.68   0
       492    419.2273    301.5812 307.7523606  +6.5575518      2445.46     3563.585     3265.168     77.91198     156.0105     312.2075      1.615     4.46     833.4106     55.04807     304.0044        19     1.428     0.779  55.24   0
       493    982.2606    299.2245 307.5185940  +6.5774381     1694.865     2462.142     2825.597     77.91198     156.1348     312.2075      1.509     5.48     831.8481     55.04807     226.8801        16     1.382     0.748  53.23   0
       494    923.2996    298.4120 307.5431103  +6.5757979     2386.716     3431.577     3755.445     78.03634     155.9484     312.0832      1.600     4.47     833.8765     55.04807     367.0399        21     1.465     0.822  55.67   0
       495    565.4783    299.0802 307.6917037  +6.5635074     1286.244     2007.453     1654.275     78.53181      156.445     312.4558      1.587     4.87     833.4038     55.04807      178.903        14     1.364     0.653  55.31   0
       496    456.1581    298.0221 307.7371425  +6.5602647     988.3549     1699.239     2145.548     77.91198     156.0105     312.0832      1.938     5.88     833.2046     55.04807     162.1609        11     1.272     0.766  64.48   0
       497    405.6446    297.1632 307.7581506  +6.5589177     1990.872     3078.399     3556.623     78.03634     156.1969     312.1764      1.732     4.27     833.4506     55.04807     296.0284        20     1.479     0.842  47.36   0
       498    285.9675    296.6966 307.8078698  +6.5550755     636.2578     1019.324     812.8048     78.40823     156.0727     312.3938      1.700     4.00     835.5027     55.04807     116.0154         6     1.102     0.464  69.06   0
       499    826.9916    291.6788 307.5833370  +6.5753477     1151.234     1723.032     1878.391     77.91198     155.6994     312.1454      1.543     4.97     834.5715     55.04807     199.7192        12     1.478     0.572  51.25   0
       500    958.6602    289.6740 307.5287163  +6.5805897     529.4973     910.5522     1251.373     78.40824     156.1969     312.3317      1.970     4.33     832.4532     55.04807     92.24982         6     1.025     0.521  54.55   0
       501    436.3932    288.8188 307.7456612  +6.5633978     1120.796     1763.627     2025.407     77.91198     155.8862     312.1454      1.606     4.68     832.7735     55.04807     172.0315        12     1.381     0.634  74.09   0
       502    182.2430    288.4303 307.8512263  +6.5549866      2313.97     3599.861     4269.475     77.91198     156.1348     312.1454      1.719     4.11     838.2571     55.04807     316.6946        23     1.483     0.898  56.47   0
       503    746.0056    286.7673 307.6171387  +6.5746569     6187.555     9238.663     9520.292     77.66266     156.0105     312.1143      1.599     4.15      834.437     55.04807     849.4832        30     1.522     0.891  56.89   0
       504    335.9052    286.0284 307.7874899  +6.5611631      711.475     1345.421     1055.611     78.40824     155.9484     312.2075      1.938     7.38     834.6285     55.04807     97.59546        12     1.577     0.967  12.46   0
       505    217.6415    286.4438 307.8365922  +6.5570017     774.1002     935.5739     995.8785     78.03634     156.1969     312.1764      1.625     5.47     836.9151     55.04807     106.8861        11     1.212     0.699  37.46   0
       506     78.3390    285.9299 307.8944623  +6.5525080     1089.044     1870.313     1739.323     78.40824     156.1969     312.3317      1.851     4.38     840.3131     55.04807      204.888        13     1.340     0.733  60.71   0
       507    762.5270    284.7793 307.6103434  +6.5760322     2655.041     4083.439     4328.002     77.91198     156.0727     312.2385      1.627     4.08     834.4064     55.04807     423.0262        20     1.447     0.810  54.86   0
       508     65.7130    279.9631 307.8999076  +6.5545439     1062.675     1959.961     1753.636     78.28447     156.0727     312.3006      1.842     5.21     840.2738     55.04807     181.8923        14     1.474     0.659  52.13   0
       509    351.8079    279.2893 307.7811124  +6.5644808     1815.697     3562.133     3573.203     77.78742     155.8862     312.0211      2.030     5.91     834.3041     55.04807     205.3496        26     1.707     1.030  15.85   0
       510   1000.6369    275.6457 307.5117513  +6.5877863     6274.241     9243.347     9919.021     78.03634     156.1969     312.2075      1.581     3.90     830.2833     55.04807     1009.219        30     1.578     0.851  55.60   0
       511    478.6227    275.3325 307.7285765  +6.5703865     2196.618     3436.778     3501.449     77.91198     156.1348     312.2696      1.712     3.89     832.3945     55.04807     291.4691        21     1.381     0.889  65.78   0
       512    241.2045    270.9740 307.8273284  +6.5641822     5735.265     9272.853     10183.19     77.78742     156.0105     312.1454      1.725     4.49     836.0767     55.04807     791.2252        31     1.535     0.977  58.38   0
       513    249.3547    271.6135 307.8239219  +6.5641933     684.2648     1026.585     1728.756     77.66266     156.0105     312.0521      1.830     4.13     835.8946     55.04807     102.5511         6     1.133     0.430  56.89   0
       514    908.3320    269.4044 307.5502996  +6.5872697     605.7912     818.1174     679.5806     77.78742     155.8862     312.0832      1.593     4.37     833.0703     55.04807     115.8226         7     0.950     0.571  58.06   0
       515    760.7646    264.5548 307.6117545  +6.5843210     784.1475     1190.972     1240.846     78.03634     156.1348     312.2075      1.619     5.61     833.8558     55.04807     117.8261        11     1.337     0.663  56.65   0
       516    218.2687    263.5979 307.8371030  +6.5664525     612.9633     1120.606     1081.377     77.66266     155.7617     312.1143      1.939     5.21     836.6263     55.04807     109.6683         7     1.175     0.654  54.12   0
       517    962.2596    260.9078 307.5281854  +6.5925841     1041.559      1786.78     2129.133      78.1605     156.1348     312.4558      1.965     4.54     831.2691     55.04807     184.9481        12     1.411     0.741  68.60   0
       518    375.3361    261.5320 307.7719393  +6.5726034     1658.087     2627.269     3119.487     78.28447     156.1969     312.3627      1.772     5.71     833.3299     55.04807     219.3365        16     1.457     0.695  60.62   0
       519    297.5724    257.7507 307.8043640  +6.5715421     1222.449     1847.401     1461.738     77.91198      156.259     312.2385      1.609     4.31     834.6822     55.04807     165.7698        13     1.217     0.759  63.46   0
       520    144.9544    257.4919 307.8677577  +6.5664969     1820.491     2577.364     2674.874     78.28447     156.1348     312.4248      1.626     4.33     838.8689     55.04807     230.3898        19     1.372     0.869  53.39   0
       521    554.8880    253.2900 307.6976429  +6.5820516     2281.266     3490.568       3355.9     78.03634     156.6927     312.3938      1.647     4.24     831.8671     55.04807     304.8506        21     1.430     0.898  64.78   0
       522    898.3573    252.4705 307.5550106  +6.5939251     1660.948      2672.74     2432.663     78.16051     156.1969     312.3627      1.794     5.08     832.5292     55.04807     246.4736        17     1.543     0.773  31.80   0
       523    718.4630    250.8885 307.6297835  +6.5885415     5131.354     7673.482     7811.561      78.1605      156.383     312.3317      1.609     3.94     833.2416     55.04807     715.9009        28     1.461     0.935  58.48   0
       524    956.5478    250.6133 307.5309029  +6.5966420     869.6946     1184.475     958.7004     77.66266     156.1348     312.0521      1.202     4.70     831.0778     55.04807     136.6058         9     1.238     0.561  59.68   0
       525    659.2935    250.7585 307.6543638  +6.5866072     2319.123     3373.474     3618.609     78.40824     156.1348     312.3938      1.545     4.13     832.5953     55.04807     373.1501        20     1.544     0.775  52.49   0
       526    374.4131    245.5049 307.7728629  +6.5791876     707.6036     1050.855     1194.021     78.03634     155.9484     312.1454      1.522     5.26     832.9767     55.04807     117.6479         7     0.903     0.866 -59.02   0
       527    914.6639    243.2838 307.5485455  +6.5982638     1222.592     1854.532     2098.599     78.40824      156.321     312.3317      1.697     5.71     831.9363     55.04807     190.9816        14     1.515     0.685  60.66   0
       528    217.9695    236.0443 307.8381575  +6.5778152     2247.029     3338.262     3119.338     77.91198     156.1969     312.1764      1.569     4.17     836.2588     55.04807     298.4334        19     1.408     0.777  49.40   0
       529    860.6071    235.0984 307.5712732  +6.5998299     1753.354     2643.714     2828.526     78.03634      155.824     312.1143      1.497     4.19     832.4219     55.04807     271.6371        14     1.332     0.617  52.98   0
       530    751.2029    234.5742 307.6167328  +6.5963750      1665.97     2409.835     2814.114     77.78742     155.8862     312.1143      1.627     4.25     833.0316     55.04807     257.6136        16     1.408     0.763  48.24   0
       531    239.6109    229.9648 307.8293745  +6.5810550     541.5738     1024.355     1183.115     77.78741     156.0105     312.0832      1.366     3.74     835.6293     55.04807     104.2554         5     1.238     0.325  40.55   0
       532    451.8755    226.0044 307.7413469  +6.5898464     22502.14     35171.77     36587.86     77.91198     155.6994     312.2075      1.635     4.00     831.4585     55.04807     3057.446        47     1.595     1.043  57.22   0
       533    313.0188    227.7371 307.7989611  +6.5844513     762.6058     1260.355     1020.414     77.91198     156.1969     312.1764      1.737     4.35     833.9866     55.04807     109.1487         8     1.034     0.647  35.68   0
       534    777.9291    225.1819 307.6059473  +6.6011490     13640.57     20646.75     22085.31     77.78741     156.0727     312.2385      1.606     4.13       832.76     55.04807     1851.052        49     1.575     1.158  42.10   0
       535    457.5867    220.6108 307.7391565  +6.5922650     1385.658     2032.378     1744.127     78.03634     155.9484     312.2696      1.540     4.40     831.2859     55.04807     186.5609        12     1.173     0.698  57.68   0
       536    140.0561    219.3423 307.8710810  +6.5820776     2353.127     3497.769     3534.832     78.40823      156.259     312.3317      1.643     4.55     838.2904     55.04807     290.8202        21     1.396     0.871  53.72   0
       537    115.0148    218.7041 307.8815028  +6.5814948     1075.536     1522.159     1522.334     78.03634     155.9484     312.0832      1.495     5.48      838.646     55.04807     133.5093        12     1.288     0.658  70.38   0
       538    716.3496    221.0323 307.6316643  +6.6007941     812.3482     1130.346      1131.31      78.1605      156.259     312.2385      1.675     5.70     832.3298     55.04807     116.1482        10     1.317     0.694  63.06   0
       539    914.1995    215.5979 307.5496668  +6.6096761     1680.874     2371.724     2641.119     77.66266     155.7617       311.99      1.497     4.57     830.7564     55.04807     235.2355        16     1.329     0.744  52.89   0
       540    166.9104    217.6539 307.8599847  +6.5836816     665.3959     900.3103     600.5604     78.28447     156.0105     312.4248      1.428     3.38     837.7499     55.04807     97.76636         5     0.776     0.427  18.97   0
       541    538.5761    211.8733 307.7058118  +6.5985979     2165.277       3421.3     3490.223     77.91198     156.0105     312.2385      1.664     4.47     830.8457     55.04807     283.0569        20     1.487     0.811  60.72   0
       542    575.9265    211.8195 307.6902999  +6.5998767     4903.213     7286.357      7556.14     77.91198     156.1348     312.2385      1.552     3.72      830.938     55.04807      728.563        25     1.392     0.886  53.73   0
       543    296.4434    212.4353 307.8063617  +6.5902081     1009.845       1557.2     1219.083     78.03634     156.1969     312.1454      1.577     5.44      834.431     55.04807     133.7446        11     1.112     0.751  48.36   0
       544    380.4492    210.8593 307.7715238  +6.5936912     1459.584     2387.344     2467.795     78.28447     156.1969     312.3627      1.716     4.06     832.1824     55.04807     195.9412        16     1.327     0.750  62.73   0
       545    936.8922    209.0307 307.5404610  +6.6131474     2893.737     4176.592     3682.534     78.40824     156.0105     312.2696      1.469     4.25     829.8743     55.04807     417.0147        20     1.373     0.785  53.22   0
       546    883.0079    208.3860 307.5628647  +6.6116072     11877.01     17278.48     17860.95     77.91198     155.9484     312.1454      1.558     4.14     830.9692     55.04807     1660.741        34     1.501     0.889  54.77   0
       547    202.1373    208.4388 307.8456652  +6.5886749     798.2457     1081.449     828.1565     78.28447     156.1969     312.3627      1.475     4.70     836.3411     55.04807     144.6581         9     1.221     0.596  72.37   0
       548    558.0132    208.3291 307.6978578  +6.6007149     811.2006     1244.065     809.1307     77.78741     155.9484     312.1764      1.497     4.79     830.8084     55.04807     135.3583        12     1.346     0.726  56.25   0
       549    310.6935    208.6965 307.8005692  +6.5922319     958.9824     1486.073     1238.802     78.28447     156.7546     312.2075      1.721     5.58     833.9503     55.04807     121.5032        11     1.172     0.749  48.75   0
       550      9.1354    204.8934 307.9259437  +6.5836150     25320.05     39596.18     42206.81      78.1605      156.383     312.3317      1.659     4.10     839.7422     55.04807     3405.229        55     1.663     1.068  58.19  16
       551    969.6053    206.2577 307.5269658  +6.6153882     10257.66     14902.46     15603.99     77.78742     156.0727     312.0211      1.548     4.06     828.8401     55.04807     1438.747        30     1.464     0.867  55.43   0
       552    681.0309    206.1773 307.6468336  +6.6057392     2859.773     4344.229     4845.058     77.78742     156.0105     312.1143      1.646     4.15      831.556     55.04807     418.3016        20     1.461     0.796  57.45   0
       553    255.5483    205.8667 307.8235686  +6.5915395     1098.967     1625.743     1682.048      78.1605     156.1348     312.3006      1.696     4.03     835.1512     55.04807     179.5674        12     1.210     0.693  57.89   0
       554    489.5995    201.1050 307.7265169  +6.6013941      1967.48     3039.889     3316.044     77.78741      155.824     311.8967      1.665     4.31     830.6526     55.04807     285.7545        17     1.415     0.762  64.88   0
       555    821.4654    197.7674 307.5887840  +6.6139259     2212.374     3163.714     3097.752      78.1605      156.259     312.2696      1.546     3.94     831.4984     55.04807     302.6156        18     1.383     0.788  54.34   0
       556    873.6289    196.6818 307.5671531  +6.6161238     2150.399     3110.357     2974.887      78.1605     156.0105     312.2385      1.481     3.91     830.6777     55.04807     335.2505        17     1.376     0.723  54.95   0
       557    733.1745    194.3541 307.6255722  +6.6123710     41655.53     61232.65     63831.43     77.91198      156.259     312.1764      1.575     4.21     831.5903     55.04807     5946.173        56     1.571     0.991  55.57   0
       558    501.5168    197.0123 307.7217048  +6.6034847     2617.936     3668.939     3688.892     77.91198     155.9484     312.1454      1.530     4.01     830.5825     55.04807     329.6504        18     1.337     0.819  51.66   0
       559    336.2493    193.6749 307.7904614  +6.5992940     5839.019     12122.48     13414.19     78.28447      156.259     312.3317      2.181     6.30     833.0357     55.04807     610.9434        44     2.001     1.199  84.76   0
       560    966.9871    193.1303 307.5284933  +6.6207190     2998.169     4513.333     5072.195     77.78742     155.9484     312.1764      1.609     4.30     828.3273     55.04807     479.6603        23     1.536     0.823  58.03   0
       561   1005.3652    191.9198 307.5125923  +6.6225042     1779.087     2579.925     2475.205      78.1605      156.259     312.3317      1.513     3.93     827.4096     55.04807     285.8976        18     1.406     0.856  59.53   0
       562    901.0550    191.5088 307.5559345  +6.6191787     7759.715     11360.23     12125.07      78.1605     156.0727     312.4248      1.566     4.36       829.82     55.04807     1098.852        27     1.467     0.844  56.86   0
       563    444.4866    190.4530 307.7456135  +6.6042717     5167.879     7973.245     8529.427     78.28447     156.0727     312.4558      1.706     4.02     830.8343     55.04807     683.5519        30     1.578     0.934  53.52   0
       564    219.3016    187.4569 307.8392447  +6.5979146     822.2866     1290.921     1075.941     78.03634     156.1969     312.4869      1.856     5.81     835.5123     55.04807     110.2007        13     1.237     0.769  50.98   0
       565    101.8984    181.7957 307.8881979  +6.5962853     4641.471      7330.75     7277.898     78.03634     155.8862       311.99      1.626     4.21     838.4612     55.04807     628.6802        27     1.497     0.920  55.64   0
       566    247.5818    179.5801 307.8277647  +6.6021204     6647.731     10667.36     11113.26     78.03634     156.1348     312.2385      1.729     4.19     835.0684     55.04807     848.8039        33     1.622     0.957  56.50   0
       567    921.2769    181.1278 307.5478828  +6.6241415     872.7449     1208.884     1728.818     78.53181      156.445     312.3006      1.727     4.63     828.7562     55.04807     148.3207         9     1.296     0.497  55.63   0
       568    272.2556    178.4725 307.8175539  +6.6034102     34194.96     53062.73      55474.8      78.1605     156.0727     312.2696      1.697     4.08     834.8321     55.04807     4546.922        60     1.641     1.096  57.22   0
       569    598.4927    179.9557 307.6819987  +6.6137879     618.8179     1147.894     1421.083     78.28447     156.1348     312.4248      2.176     5.45     830.2522     55.04807      106.288         7     1.402     0.597  25.03   0
       570    701.2726    177.7754 307.6393803  +6.6181425     957.9681     1401.429     1368.759     77.91198     156.0727     312.2385      1.626     4.07     830.9998     55.04807     159.7695         9     1.121     0.592  52.21   0
       571    396.3176    173.9870 307.7661757  +6.6094452      50030.9     77859.11     81225.55     77.91198     155.9484     312.1454      1.650     4.14     831.2401     55.04807     6485.722        61     1.624     1.079  56.75   0
       572    152.2470    175.1995 307.8675092  +6.6007093     4168.361     6505.839     6911.854      77.5377     155.8862     311.8656      1.655     4.21     836.6801     55.04807     554.6451        25     1.423     0.915  59.22   0
       573    413.6316    174.5194 307.7589662  +6.6098089     1416.397     2283.565      2233.72     78.16051     156.1969     312.2696      1.808     4.58     830.8466     55.04807     192.7956        14     1.371     0.659  56.30   0
       574    567.0131    173.1262 307.6953042  +6.6155480     555.7123     642.4329     508.8697     77.78742     155.8862     312.1143      1.367     4.40     830.1309     55.04807     109.5618         6     1.267     0.434  53.15   0
       575    307.8097    171.9244 307.8030074  +6.6073125     2104.928     3716.971     4548.452     77.91198     155.7617     312.1143      2.110     4.53     833.9468     55.04807     287.4359        20     1.414     0.911  52.68   2
       576    735.6066    170.2124 307.6253729  +6.6224176     34207.88     50448.06      52183.1     77.91198     156.0105     312.2075      1.572     4.08     830.7245     55.04807     4732.862        51     1.572     0.968  55.66   0
       577    683.3720    171.8538 307.6470148  +6.6199853     948.0427     1199.586     1350.406     78.03634      156.259     312.2075      1.442     4.83     830.8651     55.04807     134.6241         9     1.312     0.504  70.15   0
       578    783.7355    170.7904 307.6053618  +6.6237949     1040.819     1642.393     1949.259     77.78742     156.0105     312.1454      1.575     4.04     830.7597     55.04807     204.9489        12     1.273     0.628  61.84   0
       579     23.3074    171.5727 307.9211851  +6.5978473     575.6476     929.7686     996.7776     78.40824     155.9484     312.1764      1.943     4.34     839.6312     55.04807     98.40857         5     0.897     0.597  52.36   0
       580     52.4334    167.4022 307.9092291  +6.6005537     9277.382     14301.96     14836.64      77.5377     156.0105     312.0832      1.680     4.13     839.1918     55.04807     1210.244        37     1.581     1.000  59.69   0
       581    300.3441    171.6999 307.8061158  +6.6071533     18331.62      28555.6     30001.76     78.03634     156.1969      312.549      1.676     4.25     834.2556     55.04807     2456.184        44     1.589     1.039  55.91   2
       582     86.4028    165.3861 307.8951886  +6.6025345     1502.003     2043.391     1779.879     77.91198     155.8862     312.1454      1.542     4.07     838.6569     55.04807     207.4641        13     1.248     0.694  58.69   0
       583    993.8091    164.4846 307.5183117  +6.6334416     1146.762     1637.669     1708.838     77.91198     155.8862     312.1454      1.580     4.69     826.5782     55.04807     181.7358        12     1.318     0.623  60.92   0
       584    720.2150    158.7750 307.6321506  +6.6266215     628.5229      846.712     821.8458     78.03634     156.0105     312.2385      1.524     4.79     830.3625     55.04807     94.97632         7     1.358     0.479  64.94   0
       585    995.0937    151.0100 307.5182296  +6.6390465     2439.748     3750.604     4275.571     77.91198      155.824     312.1143      1.805     4.01     826.1572     55.04807     371.9875        21     1.476     0.780  56.80   2
       586    569.4504    154.5856 307.6949156  +6.6232828     882.2311     1229.377      967.575     77.66266     156.1969     312.0521      1.589     5.57     829.6738     55.04807     145.2482         9     1.274     0.687  48.58   0
       587    578.2194    148.6879 307.6914717  +6.6260121     1088.505      1500.86     1107.985     78.03634     155.9484     312.2075      1.493     5.08     829.4308     55.04807     154.8628        14     1.359     0.735  62.00   0
       588     16.5358    143.2062 307.9249572  +6.6093262     4495.221     7027.868     7706.984     77.66266     155.9484     312.0832      1.710     4.35     839.7304     55.04807     568.5456        28     1.634     1.002  69.73   2
       589    586.4141    146.5670 307.6881392  +6.6271632     2057.044     2956.519     2934.842     77.91198     155.9484     312.2075      1.594     4.16     829.3301     55.04807     271.6464        17     1.340     0.792  58.34   0
       590    330.4185    146.8927 307.7944611  +6.6184069     1113.866     1786.534     1758.545      78.1605     155.9484     312.1764      1.781     4.87     833.1647     55.04807     178.9454        11     1.296     0.696  56.65   0
       591    271.1982    144.7690 307.8191305  +6.6172857     30348.86     47828.98     50553.54     77.66266     156.0105     312.1143      1.674     4.04     834.7899     55.04807     4085.441        59     1.647     1.093  55.52   0
       592    702.8245    141.4362 307.6399569  +6.6331942     8520.772     12364.12     13305.43     77.91198     156.0105     312.0521      1.581     4.02     829.5025     55.04807     1175.895        29     1.499     0.848  55.77   0
       593    180.3138    142.4113 307.8569595  +6.6151906     982.9969     1374.322     1231.627     77.91198     155.9484     312.1454      1.507     4.72      835.314     55.04807     173.5596        11     1.424     0.567  63.83   0
       594    994.8549    141.6780 307.5186416  +6.6428905     455.7531     528.4738     797.4432     78.40824     156.1969     312.3317      1.207     4.35     825.8965     55.04807     97.19849         5     1.163     0.463  56.55   0
       595    257.0760    139.8068 307.8251638  +6.6188572     977.5413     1338.774     1576.992     77.91198     155.6994     312.1764      1.491     4.71      834.869     55.04807     162.0341        11     1.265     0.650  62.53   0
       596    113.5877    138.4185 307.8848091  +6.6145841     4834.491     7217.529     7403.717     78.03634     155.8862     312.2075      1.611     4.00     836.9401     55.04807     591.7053        23     1.468     0.842  56.08   0
       597    574.7665    136.1062 307.6933293  +6.6310892     596.3712     1071.845     1357.341     78.40823     156.0727     312.3938      1.998     5.48     828.9781     55.04807     124.1992         8     1.713     0.494  35.96   0
       598    452.5275    135.8740 307.7441124  +6.6270703     1387.233     1916.944     1698.435     78.53181      156.321     312.3627      1.598     4.29     829.7397     55.04807      179.926        15     1.251     0.789  62.67   0
       599    641.2393    135.2197 307.6657475  +6.6336904     774.7436     1201.062     1165.433     77.91198     156.0105     312.0521      1.696     4.68     829.0616     55.04807     123.9146         9     1.159     0.537  45.70   0
       600    384.1569    134.4665 307.7725590  +6.6253476     4016.322     6756.978     6848.331     78.28447     156.1348     312.3317      1.766     4.55     831.4368     55.04807     572.9168        30     1.649     0.978  58.01   0
       601    348.7992    133.3839 307.7872820  +6.6246025     3352.683     5096.665       5170.4     77.91198     155.7617     312.0211      1.646     4.16     832.6638     55.04807     416.8755        23     1.449     0.881  56.06   0
       602    103.1052    133.2409 307.8893381  +6.6163668     1789.658     2629.186     2515.454     78.28447     156.1348     312.4248      1.644     3.95     837.1213     55.04807     284.8257        17     1.421     0.717  54.95   0
       603    560.7409    133.7439 307.6992348  +6.6315924     740.6202     1298.201     1542.364     78.40824     156.1969     312.3317      1.860     5.74     828.9693     55.04807     93.41229        10     1.156     0.943 -34.45   0
       604    931.1628    132.4236 307.5454094  +6.6445764     480.5013      718.972     324.3442     77.91198     155.9484     312.0832      1.620     4.25     826.7655     55.04807     88.65692         5     1.121     0.460  58.12   0
       605    738.9766    131.4475 307.6252754  +6.6385314      652.499     945.8643     1000.584     77.91198     156.1969     312.1764      1.430     4.64     828.8132     55.04807      84.8866         8     1.199     0.510  65.20   0
       606    664.8304    131.3882 307.6560769  +6.6360649     804.8704     1416.046     1404.332     77.78742     155.9484     312.2075      1.849     5.59     829.0625     55.04807     117.6061        10     1.436     0.613  46.85   0
       607    995.5366    127.6534 307.5188283  +6.6487022     1388.846     2170.175     2139.644     78.28447     156.1348     312.2696      1.572     4.27     825.4724     55.04807     223.8423        12     1.368     0.586  50.99   0
       608    721.3768    127.7221 307.6327114  +6.6394781     580.6471     794.6359     457.3433     77.91198     156.0105     312.2385      1.387     5.20     828.7403     55.04807     96.64594         8     1.354     0.564  40.63   0
       609    200.5880    122.1823 307.8492217  +6.6242247     5762.217     8849.336     8726.939     78.03634     155.8862     312.2075      1.637     4.04     835.0204     55.04807     714.6577        29     1.456     0.954  57.35   0
       610    662.4234    121.1777 307.6574200  +6.6401985     6511.938     9584.945     10154.84     77.91198     156.0105     312.2696      1.586     4.17     828.5446     55.04807      881.717        28     1.480     0.863  52.81   0
       611     83.2383    122.0693 307.8979675  +6.6203062     2206.587     3265.345      3672.92      78.1605     156.1969     312.4248      1.551     3.95     837.3696     55.04807     296.8173        19     1.400     0.847  52.97   0
       612    810.5242    120.7027 307.5959158  +6.6453684     1023.887     1431.664     1188.439     77.91198      156.445     312.3317      1.670     4.75     827.8685     55.04807      171.619        11     1.396     0.572  55.28   0
       613    614.5306    118.3732 307.6774085  +6.6397460     9981.353     14964.95     16040.06     77.91198     156.0727     312.2385      1.646     3.86     828.1779     55.04807     1394.753        38     1.567     0.976  57.56   2
       614    618.0776    109.9348 307.6762189  +6.6433483     55295.68     82358.76     85723.09     78.40824     156.1969     312.2696      1.580     3.94     827.8734     55.04807      7949.64        67     1.608     1.038  56.17   2
       615    248.8921    118.5323 307.8292812  +6.6273621      686.959     892.9933     647.8427      78.1605      156.321     312.3317      1.414     4.97     834.9142     55.04807     94.91827         8     1.270     0.551  75.04   0
       616    552.6764    117.8824 307.7031185  +6.6378680     646.6879      765.188     935.3924     78.40824      156.445     312.4248      1.274     4.82     828.4575     55.04807     118.9517         7     0.942     0.700  77.53   0
       617     13.3646    117.1493 307.9271560  +6.6199736     1031.841     1759.346     2378.867      78.1605     156.1348     312.2385      1.848     5.66     839.8676     55.04807     135.8076        14     1.196     0.940 -87.12   0
       618    341.6650    114.0970 307.7908958  +6.6323226     3650.822      6429.09     7258.013     78.28447      156.259     312.3317      1.914     4.22     833.1458     55.04807     461.7776        33     1.415     1.317  87.15   0
       619    523.4844    113.4881 307.7153923  +6.6386994     1713.724     2563.392     2273.411     78.03634      156.383     312.3627      1.602     4.33     828.4598     55.04807     263.9087        15     1.326     0.710  61.75   0
       620    987.8190    112.3332 307.5225477  +6.6547674     574.9825     970.7234     666.8719     77.91198     156.1969     312.2075      1.580     5.05     825.1688     55.04807     131.3494         7     1.340     0.538  71.92   0
       621    297.2804    103.6288 307.8096852  +6.6351463      3533.82     5440.434     5998.761      78.1605     156.0727     312.2385      1.684     4.12     834.4749     55.04807     463.8055        24     1.501     0.873  57.92   0
       622    697.2393     98.1414 307.6437320  +6.6508769     886.6284     1306.729     1152.004     78.28447      156.259     312.3938      1.569     4.82     827.2913     55.04807     136.2537         8     1.433     0.459  56.19   0
       623    668.3993     97.1301 307.6557462  +6.6503252     1448.086     2188.519     2143.843     77.78742     155.7617     312.1143      1.547     4.41     827.3559     55.04807     223.7523        14     1.363     0.693  61.69   0
       624      2.5277     86.5120 307.9326939  +6.6322522       4156.6     10290.44     17282.54     78.40824     140.6475     253.6324      4.569    10.68     839.6767     55.04807      642.436       113     4.658     1.659 -88.61  24
       625    682.4698     93.9046 307.6500097  +6.6521295      3384.33     5077.595     4883.913      78.1605      156.259     312.3317      1.595     4.39     827.2194     55.04807     446.6837        20     1.376     0.841  57.15   0
       626    424.2573     84.9034 307.7575728  +6.6471563     4054.943     6273.826     6225.901      78.1605     156.1348     312.4869      1.626     4.33     829.5453     55.04807     552.5878        27     1.508     0.911  54.15   0
       627    878.7319     81.2592 307.5689057  +6.6639375     2244.042     3360.646     3595.924     78.40824     156.1348     312.3006      1.567     4.15     825.4572     55.04807     369.9465        19     1.453     0.749  52.91   0
       628    896.8017     80.3596 307.5614294  +6.6649147     4088.778      5925.14     6097.059      77.5377     155.9484     312.0832      1.484     4.19     825.2944     55.04807     589.5311        21     1.431     0.750  55.58   0
       629    576.8661     80.4146 307.6943312  +6.6541470     737.5938     927.4742     858.2705     77.78742     156.0727     312.2385      1.493     5.52     827.1033     55.04807      116.389        10     1.338     0.643  54.07   0
       630    588.8580     78.8134 307.6894036  +6.6552113     1766.327     2737.536     2455.417     77.66266     156.1348     312.0211      1.585     4.35     827.0099     55.04807     266.8566        15     1.442     0.693  53.08   0
       631    234.6645     78.1133 307.8365556  +6.6435646     849.8274     1308.006     2274.817     78.28447      156.383     312.3006      1.574     4.79     834.8184     55.04807     104.7513         9     1.215     0.535  72.80   0
       632    387.4735     76.7938 307.7731257  +6.6492639     1911.647     2961.596     3370.539     77.91198     155.7617     312.2075      1.746     4.11     831.2114     55.04807     267.3435        19     1.370     0.876  54.01   0
       633    135.5373     73.6542 307.8778812  +6.6420570     3314.297     4885.724     4789.811     78.28447     156.1348     312.2696      1.607     3.83     834.6113     55.04807     449.8492        21     1.385     0.848  61.54   0
       634     17.4506     71.4670 307.9270046  +6.6389668     12990.21     19814.91     21432.11     78.16051     156.0727     312.2385      1.703     4.15     838.0403     55.04807     1733.047        44     1.651     1.020  57.58   0
       635    283.9438     72.1010 307.8162889  +6.6477094     1300.663     2184.058     2799.075     78.03634     156.1969     312.5179      2.004     5.89     834.5944     55.04807     166.3996        13     1.268     0.771  50.39   0
       636    544.4137     71.0388 307.7081275  +6.6569250     755.7966     1261.126     1439.602     77.91198     156.0105     312.0521      1.785     5.12     827.0157     55.04807     116.5204         9     1.295     0.573  58.72   0
       637    938.4047     70.4424 307.5444793  +6.6704028     626.7164     797.5259     712.6762     77.66266     155.8862     312.0211      1.345     4.62      824.264     55.04807     102.7398         6     1.070     0.567  62.68   0
       638    752.6085     70.6208 307.6216561  +6.6640962     824.9304     1397.116     2782.805     77.91198     155.9484     312.0832      4.445     5.45     825.9495     55.04807      111.748        11     1.265     0.744  42.63   0
       639    146.4964     69.4365 307.8734716  +6.6441681     625.9854     818.4573     137.2491     78.28447     156.0727     312.4558      1.486     5.02     834.4053     55.04807     102.4363         5     1.097     0.651  67.07   0
       640    885.9073     67.1068 307.5663997  +6.6700197     586.8137     647.8708     665.7597     78.28447     156.6927     312.2696      1.386     4.84     824.7238     55.04807     114.8206         6     1.216     0.545  59.40   0
       641    819.1725     66.0519 307.5941579  +6.6682165      6577.99     9578.438     10092.17     77.91198      156.321     312.2385      1.529     3.91     824.9194     55.04807     1022.711        27     1.452     0.861  54.86   0
       642    764.2208     66.3711 307.6169750  +6.6662402     3401.965     5131.282     5933.453     77.78742     156.0105     312.2075      1.683     4.04     825.5784     55.04807     513.7976        23     1.486     0.814  59.42   0
       643    909.8212     66.4963 307.5564859  +6.6710735     399.5098     612.0542     381.4119      78.1605     156.0105     312.1143      1.452     5.87     824.4759     55.04807     72.43341         6     1.146     0.845  35.63   0
       644     89.0732     66.8607 307.8974107  +6.6432904     581.2477     978.7706     1268.889     78.40824     156.1969     312.3317      1.608     4.62     835.2532     55.04807     102.5359         7     1.089     0.556  54.50   0
       645     42.3328     64.1581 307.9169167  +6.6428252     1025.618     1481.906     1053.686     78.28447     156.1348     312.3627      1.407     4.95      836.746     55.04807     142.8898        12     1.462     0.571  57.95   0
       646    409.4648     67.1057 307.7643174  +6.6540039     1201.767     1744.891     1481.207      78.1605      156.259     312.3317      1.601     4.76     829.7792     55.04807     167.1672        14     1.242     0.795  60.84   0
       647    526.5939     64.4051 307.7157532  +6.6590633     1249.072     1810.884      2070.74     77.66266     155.9484     312.1143      1.599     5.34     826.9025     55.04807     146.5668        15     1.181     0.993  51.80   0
       648     57.7561     63.2715 307.9105403  +6.6437128     3278.744     4818.626     5163.957      78.1605     156.1969     312.3317      1.597     4.41     836.1578     55.04807     434.7327        21     1.465     0.781  56.91   0
       649    646.5682     63.6234 307.6659415  +6.6634217     642.9142     970.1203     1224.107     77.66266     156.0727     312.0832      1.444     3.68     826.4158     55.04807     97.04181         6     0.991     0.393  70.66   0
       650    419.2733     62.8999 307.7603847  +6.6560704     1110.313     1565.689       1577.1     78.03634      156.321     312.2696      1.559     4.76     829.1426     55.04807     160.8058        12     1.391     0.619  49.73   0
       651    581.6498     60.0074 307.6930307  +6.6627311     1438.513     2125.717     2019.172     77.78741     155.9484     311.9589      1.543     4.68     826.5286     55.04807     211.8468        13     1.362     0.606  54.86   0
       652      1.3478     59.3782 307.9341023  +6.6434114     1369.877      1720.73     2021.679     67.65316     124.1697     235.0598      1.116     3.14     837.7801     55.04807     297.8173         8     1.017     0.573  80.59  24
       653    758.8613     53.9902 307.6196173  +6.6711706     2014.833     3183.897     3653.127     77.66266     156.0727     312.0521      1.607     4.33     825.2045     55.04807     303.1407        20     1.461     0.812  57.01   0
       654    399.6111     53.8812 307.7688563  +6.6591302     1076.827     1513.094     1417.481     77.91198     155.9484     312.1454      1.553     4.97     830.0761     55.04807     142.5751        14     1.394     0.681  58.36   0
       655     72.4348     54.2238 307.9047492  +6.6479436     1006.638     1562.485     1564.695     77.78742     156.0105     312.0832      1.582     5.41     835.3274     55.04807     147.5931        12     1.334     0.691  55.93   0
       656     96.7810     52.7659 307.8946857  +6.6493685     926.7451     1501.601     1409.714     77.78742     156.0105     312.1143      1.649     5.71     834.5591     55.04807     114.7784        11     1.370     0.671  61.17   0
       657     85.4976     47.5565 307.8995487  +6.6511371      9673.64     14623.44     14959.42     78.28447     156.1348     312.5179      1.669     4.05     834.7352     55.04807     1324.236        36     1.573     0.976  58.07   0
       658    414.6077     47.4716 307.7628428  +6.6622812     2591.129     3891.935     4149.621     77.78742     155.7617     312.2075      1.645     4.16     828.9466     55.04807     354.7861        20     1.466     0.787  52.62   0
       659    235.5648     47.0211 307.8372315  +6.6564282     683.7526     967.9785     1010.811     77.78741     156.0105     312.0521      1.319     3.76     834.5317     55.04807     111.2536         6     0.819     0.495  88.02   0
       660    628.2731     39.7054 307.6743460  +6.6726789     19038.61     28375.84      29684.7      78.1605      156.259     312.3006      1.587     4.26     825.8228     55.04807     2757.965        39     1.545     0.937  56.58   0
       661    252.1609     41.3072 307.8305305  +6.6593469     1467.797     2418.418     3481.292     78.40824     156.1348     312.3627      1.884     5.53     834.4657     55.04807     168.5484        17     1.410     0.806  48.02   0
       662    657.9144     41.1559 307.6619837  +6.6730767     387.6843     735.7244     917.3244     78.28447     156.0727     312.2696      1.738     5.07     825.7089     55.04807     78.34668         6     1.383     0.526  22.94   0
       663    683.2725     39.6982 307.6514985  +6.6745307     449.1124     645.9558     1152.623     78.03634      156.321     312.2696      1.964     4.41     825.5435     55.04807     78.89703         5     1.122     0.494  57.75   0
       664    528.0391     35.7363 307.7161181  +6.6709452     5353.318     8112.921      8065.18     78.28447     156.1348     312.3317      1.623     4.14     826.0248     55.04807     722.8397        29     1.452     0.960  60.44   0
       665    246.3309     36.0505 307.8331298  +6.6613198     1989.577     3229.388     4057.716      78.1605     156.1348     312.3006      1.953     4.60     834.4288     55.04807     273.0531        19     1.437     0.862  48.13   1
       666    614.6306     30.1059 307.6803362  +6.6761824     3201.639      5317.92     6201.267     78.40824     155.9484     312.2696      1.886     5.70     825.6267     55.04807     459.9681        27     2.010     0.799  70.39   0
       667    433.5938     31.3126 307.7555006  +6.6695906     23334.73     35332.97     36887.48     77.78742     155.8862     312.0521      1.644     4.04     827.7896     55.04807     2994.229        50     1.594     1.025  56.88   0
       668    254.1669     31.6992 307.8300216  +6.6633803     9451.152     14758.39     15389.48     78.28447     156.0727     312.4558      1.658     4.10     834.3965     55.04807     1301.415        40     1.589     1.025  56.67   0
       669    313.8906     31.8054 307.8052090  +6.6653517     1128.245     1824.432     2416.782     77.91198     155.8862     312.0521      1.856     5.03     833.8885     55.04807     161.5041        11     1.258     0.667  59.23   0
       670     19.6944     31.2213 307.9274344  +6.6556536     2434.323     3737.813     3747.148      78.1605     156.0105     312.1454      1.654     4.36     835.4227     55.04807     321.3875        22     1.454     0.868  53.36   0
       671    911.4041     31.2686 307.5570099  +6.6856673     2026.446     3065.446     3122.793     77.66266      155.824     312.0832      1.571     5.05     822.6232     55.04807     292.1207        16     1.485     0.675  55.57   0
       672    518.8123     31.2271 307.7201029  +6.6724958     613.3636     771.4143      694.667     77.91198     156.0105     312.2385      1.307     4.36     825.9041     55.04807     95.60376         7     1.048     0.516  66.92   0
       673    499.5541     32.3837 307.7280640  +6.6713701     583.4013     948.4454      230.019     77.78742     156.0727     312.0832      1.657     4.19     826.0104     55.04807     89.21594         5     0.974     0.515  44.59   0
       674    546.4317     30.5145 307.7086534  +6.6737195     685.2135     943.8304     1023.757     78.28447     156.0105     312.2075      1.808     4.70     825.8015     55.04807     115.7002         7     1.274     0.492  87.03   0
       675    242.0638     28.2136 307.8351669  +6.6644104     3050.766     4477.298     4173.112     77.78741     156.0105     312.1454      1.547     4.19     834.3611     55.04807     397.9069        23     1.459     0.838  55.27   0
       676    295.1139     26.4030 307.8131911  +6.6669481      1082.42     1519.788       1484.8     77.66266      155.824     312.0211      1.676     4.75     834.2528     55.04807     161.9587        11     1.225     0.703  58.44   0
       677    932.1146     21.5128 307.5487332  +6.6903884     928.7491     1465.815     1574.632     78.03634      156.383     312.3627      1.598     4.95     821.7526     55.04807     135.9949         9     1.348     0.516  53.79   0
       678    683.4370     21.0291 307.6520578  +6.6822420      1818.15     2781.403      2939.11     77.91198     155.9484     312.1454      1.587     5.09     824.9554     55.04807     282.0427        15     1.402     0.675  59.98   0
       679     88.5190     21.5207 307.8991741  +6.6619853     681.8588     1069.059     955.6091     78.53181      156.445     312.4558      1.759     4.49     833.7709     55.04807     111.9024         8     1.315     0.435  36.77   0
       680    701.9563   1019.5318 307.6108285  +6.2707141     1327.255     2043.678     2388.584     78.28447     156.1348     291.0539      1.674     4.12     857.3561     55.04807     180.0006        17     1.289     0.904  59.21  16
       681    566.0213   1019.5403 307.6672535  +6.2661436     4118.404     6649.307     7410.579     77.91198     156.1348     290.7538      1.764     4.22     857.9576     55.04807     565.7264        29     1.553     1.007  59.48  16
       682    249.0846     15.3695 307.8326842  +6.6699487     792.3664     1120.767     1499.515     78.28447     156.0105     312.1764      1.588     4.75     834.2606     55.04807     118.1735         9     1.161     0.551  61.58   0
       683    741.9199   1015.5156 307.5943745  +6.2737134     1152.143     2018.248     2914.415      78.1605      156.507     312.3938      2.376     5.62     855.7181     55.04807      155.785        17     1.458     0.968  54.70  24
       684    949.5029   1010.0968 307.5083880  +6.2829099     6314.356     10591.44     11362.03     78.28447     156.6927     312.1454      1.840     4.24     853.1588     55.04807     737.7471        38     1.627     1.140  54.76   0
       685    891.2388   1010.1953 307.5325705  +6.2809172     464.0163     711.0675     184.4111     77.41254     155.9484     312.0521      1.451     5.50     854.5538     55.04807     85.11206         5     1.161     0.735  83.56   0
       686    709.3647   1008.2420 307.6081322  +6.2756229     2677.672     4094.407     4817.984     78.03634     156.1969     312.1454      1.756     4.32     856.7428     55.04807     337.5327        21     1.537     0.822  59.56   0
       687    703.8073   1010.6700 307.6103576  +6.2744341     975.4747     1492.193     1952.068     77.78742      155.824     312.2075      1.990     4.92     857.0199     55.04807     120.9539        12     1.147     0.820  42.38   0
       688    233.8467   1010.0676 307.8054509  +6.2588682     1297.193     2041.981     1731.595     78.28447     156.1348     312.3006      1.614     5.00     857.1124     55.04807     193.7949        17     1.500     0.773  42.71   0
       689    432.1452   1009.0070 307.7231776  +6.2659877     818.6246     1080.513     1092.718     77.78742     155.9484     312.0211      1.495     5.10      858.465     55.04807     117.6084        10     1.327     0.553  50.73   0
       690    724.8293   1007.3390 307.6017431  +6.2765148     1137.429     1657.822     1639.885     78.03634     156.1969     312.2696      1.605     5.66     856.1025     55.04807     159.9037        14     1.500     0.661  71.19   0
       691    355.9861   1005.5654 307.7549057  +6.2648435     1857.258     2903.783     3287.048     77.91198     155.9484     312.1764      1.620     4.23     859.3666     55.04807     263.1191        18     1.349     0.852  45.88   0
       692    538.1710    995.8166 307.6796112  +6.2749995     4414.655     6985.129       7845.2     77.91198     155.9484     312.2385      1.700     4.24     857.6547     55.04807     579.4711        27     1.489     0.918  60.20   3
