#   1 NUMBER                 Running object number                                     
#   2 X_IMAGE                Object position along x                                    [pixel]
#   3 Y_IMAGE                Object position along y                                    [pixel]
#   4 ALPHA_J2000            Right ascension of barycenter (J2000)                      [deg]
#   5 DELTA_J2000            Declination of barycenter (J2000)                          [deg]
#   6 FLUX_APER              Flux vector within fixed circular aperture(s)              [count]
#   9 FLUXERR_APER           RMS error vector for aperture flux(es)                     [count]
#  12 FLUX_RADIUS            Fraction-of-light radii                                    [pixel]
#  13 FWHM_IMAGE             FWHM assuming a gaussian core                              [pixel]
#  14 BACKGROUND             Background at centroid position                            [count]
#  15 THRESHOLD              Detection threshold above background                       [count]
#  16 FLUX_MAX               Peak flux above background                                 [count]
#  17 ISOAREA_IMAGE          Isophotal area above Analysis threshold                    [pixel**2]
#  18 A_IMAGE                Profile RMS along major axis                               [pixel]
#  19 B_IMAGE                Profile RMS along minor axis                               [pixel]
#  20 THETA_IMAGE            Position angle (CCW/x)                                     [deg]
#  21 FLAGS                  Extraction flags                                          
         1    300.7358     34.3690 307.8135801  +6.8708240     6714.045     34168.34     53655.86     95.67885     191.5861     382.8296      3.535    11.03     1312.017     67.49337      1076.58       118     2.679     2.529 -57.35   0
         2    626.5583     26.8743 307.6775344  +6.8846695      1594.81      4693.21     6757.595     95.83108     191.5861     382.9438      3.112    12.49     1280.544     67.49337     190.5817        46     2.481     1.751 -38.23   2
         3    343.6984     21.0855 307.7960579  +6.8777429     1046.301     2190.371     2813.156     95.98307     192.0421     382.9819      2.412     9.29     1304.664     67.49337      146.801        23     1.817     1.324 -72.20   3
         4    469.5409     16.9972 307.7435533  +6.8835873     1331.867     3244.799     4851.044     95.22068     191.2815      382.563      2.880    10.92     1290.605     67.49337     188.3878        27     3.101     1.072  57.46  19
         5    472.9969     14.6713 307.7421862  +6.8846643     1371.126     3304.242     5361.597     95.37365     191.0527     382.7154      3.264    13.02     1290.424     67.49337     173.2974        34     2.687     1.755  48.32  19
         6    585.6900     15.6949 307.6950085  +6.8879533      1333.76     2368.621     3465.809     95.98307      192.118     382.9438      2.436     6.50     1281.489     67.49337     166.5234        13     1.376     0.862  38.38   3
         7    589.3626     14.1344 307.6935248  +6.8887203     1512.489     3792.944     6939.789     95.83108     191.4339     382.9819      4.030    14.32     1281.272     67.49337     178.0681        47     3.111     1.834  48.00  18
         8    286.5475     13.6173 307.8202181  +6.8789478     1464.361     4621.136     7724.954     95.37365     191.5861      382.563      3.253    11.86     1314.673     67.49337      191.877        42     2.506     1.563 -37.15  18
         9    821.6351      2.2061 307.5967574  +6.9012971     3298.577     6610.177     7233.594      93.6773     167.1221     304.9147      2.105     7.07     1274.004     67.49337     357.5868        31     1.950     1.046  -1.84  24
        10    492.6794      1.8473 307.7343859  +6.8906231     6141.333     11046.21     12257.64     90.67252     161.5335     298.3909      1.976     7.36     1289.141     67.49337     719.1471        33     2.105     0.921  -0.43  24
        11    609.8493      1.7635 307.6853721  +6.8945172      1213.33     1822.927     2222.014     89.37713     159.7185     296.5779      1.589     5.95     1279.695     67.49337     168.5886        11     1.428     0.698 -51.35  27
        12    606.7314      2.0210 307.6866677  +6.8943079     1266.702     2271.318      2798.71     92.42403     164.4845     301.6946      2.142     5.33     1279.819     67.49337     153.8561        14     1.270     0.933  -0.74  27
        13      2.8620      1.3555 307.9393027  +6.8746389     1790.657     2684.693     2809.318     83.82231     139.9702     238.1282      1.452     4.78     1318.237     67.49337     371.4402        12     1.460     0.550  -2.45  24
        14    696.8022      1.1865 307.6490154  +6.8976170     764.7432     1069.307     1041.894     80.08707     148.8531     284.7932      1.279     4.07     1278.625     67.49337     169.9624         7     1.223     0.386  -2.46  24
        15    311.4218      1.1762 307.8102340  +6.8849208     1219.863     1754.006     1795.824     80.26889     148.7551     284.9979      1.409     4.51     1310.975     67.49337     284.4077         9     1.516     0.381  -0.23  24
        16    526.1804    988.6264 307.6870557  +6.4831290     1237.445     3341.204     3339.041     95.37365     191.2815     382.7915      2.390     9.95     1344.651     67.49337     156.8704        28     1.712     1.612  76.44   0
        17    751.4136   1023.0280 307.5917513  +6.4762903     6821.858     11343.22     12052.91     91.63203     163.1498     300.5327      1.782     5.77     1343.003     67.49337     836.3856        30     1.763     0.944  -1.63  24
        18    455.0465   1022.1617 307.7156569  +6.4669003     19026.28     42747.96     48105.78     95.83108     176.6213     316.4568      2.296     6.65     1346.246     67.49337     1851.044        67     2.223     1.417  -0.23  24
        19    937.7092    988.6202 307.5150367  +6.4966506     650.2365     1669.833     2339.634     95.83108     191.2053     382.7534      2.501     3.48     1339.848     67.49337     112.3667         5     0.752     0.465  13.53   0
        20    899.7996    985.2491 307.5309965  +6.4968035      2805.71     6596.505     7196.602     95.06747     191.0527     382.3724      2.294     5.41     1340.283     67.49337     328.7798        36     1.644     1.454 -63.39   0
        21    572.8964    983.7403 307.6676935  +6.4866898      2644.54     7968.799     8871.855     95.67885       191.51       383.02      2.589     6.92     1344.404     67.49337     312.8721        50     1.985     1.721 -39.44   0
        22     62.3610    984.5021 307.8810617  +6.4695304     673.1964       1019.2     1447.498     95.98307     191.3577     383.1722      1.622     3.42     1343.563     67.49337     98.46021         5     1.118     0.302 -69.69   0
        23    922.5131    977.1401 307.5217744  +6.5009061     2062.434     4544.964     4825.909     95.98307     191.6622      383.058      2.148     6.61     1339.339     67.49337     215.1121        33     1.779     1.406 -48.01   0
        24    485.3605    975.1926 307.7045714  +6.4873474     2972.715     9375.871     11798.64     95.22069     191.2053      382.563      2.820     7.41     1344.404     67.49337     341.8704        54     2.031     1.789 -38.99   0
        25    332.0343    974.7416 307.7686754  +6.4824802     1169.285     2726.717      3090.96     95.83108       191.51     382.8296      2.490     6.03     1345.399     67.49337     123.3898        16     1.216     1.081 -56.25   2
        26    328.6449    976.0126 307.7700491  +6.4818421       739.38     1350.979     2379.963     95.37365     191.2815     382.6011      1.873     3.70     1345.447     67.49337     111.7102         5     1.141     0.346 -71.34   3
        27    841.5470    970.5071 307.5558422  +6.5009971      1554.03      4072.74     4836.036     95.83109     191.4339     383.1722      2.682     7.64     1340.394     67.49337     209.6204        30     1.733     1.501 -37.66   0
        28    849.1693    965.3367 307.5528298  +6.5033881     1090.158      2973.21     3404.645     95.67885     191.5861     382.8677      2.593     8.42     1340.026     67.49337     154.4222        19     1.780     1.273 -51.51   0
        29    673.0917    961.0182 307.6265775  +6.4993937     1394.985     3865.845     4739.549     95.83108     191.2053     382.7534      2.659     8.55     1342.373     67.49337      155.489        29     1.727     1.580 -59.97   0
        30     36.4374    959.8998 307.8927310  +6.4788595     872.8936     2218.807     3043.051     95.98307     191.3577     383.1722      2.855     7.97     1342.683     67.49337     111.2145        12     1.576     1.127  59.42   2
        31    344.4630    959.2658 307.7640035  +6.4892982      1490.65     4607.972      5819.76     95.98307       191.51     382.9058      2.998     9.92     1345.055     67.49337      180.922        41     1.934     1.857  27.24   0
        32    571.6870    956.0486 307.6691328  +6.4981164     3968.212     12735.28     15621.19     95.98307     191.3577     382.9819      2.792     7.33     1343.227     67.49337     423.9412        64     2.139     1.893 -45.04   0
        33    734.4005    952.3174 307.6012428  +6.5050112     7489.288     20550.33     24512.27     95.06747     190.9001     382.5249      2.653     6.34     1341.455     67.49337      774.406        73     2.322     1.723 -42.80   0
        34    255.6156    952.7306 307.8013618  +6.4890723     719.9253     1570.053     2101.811     95.37365     191.3577     382.7915      2.351     3.61     1345.072     67.49337     136.7981         5     0.821     0.474 -77.34   3
        35    252.5592    952.1845 307.8026578  +6.4891975     864.6152     1915.124     1621.501     95.37365     191.2815     382.6392      2.336     6.59     1345.033     67.49337     133.7191         9     1.415     0.861 -61.36   3
        36    338.2524    948.6384 307.7669587  +6.4934938     883.4977     1855.754     3020.235     95.67885     191.5861     382.9058      2.442     5.37     1344.948     67.49337     123.4966        10     1.297     0.629  11.65   0
        37     72.1222    945.2056 307.8783138  +6.4861243     2019.527     5552.759     6840.132     95.52637     190.9001     382.6392      2.715     7.16     1343.027     67.49337     232.1091        45     1.892     1.720 -81.74   0
        38    919.3474    946.8289 307.5241162  +6.5133536     1041.868     2301.312     2670.847     95.67885     191.6622     382.7915      2.562     7.76     1337.806     67.49337      151.915        15     1.578     1.067 -85.23   0
        39    255.0381    955.8190 307.8014986  +6.4877744     808.9822     1641.093     2535.318     95.52637     191.2815     382.6011      2.400     4.95     1345.121     67.49337     114.8236         9     1.315     0.528 -47.42   2
        40    709.5244    943.1746 307.6119491  +6.5079797     980.0403     2550.385     2204.403     95.52637     191.2815     382.8677      2.523     8.73     1341.429     67.49337     166.2172        16     1.743     1.333 -40.24   0
        41    973.2380    941.8104 307.5017571  +6.5171981     2329.735     5575.129     6558.315     95.22069     191.2815      382.563      2.442     6.22     1337.346     67.49337     251.7644        37     1.714     1.455 -30.78   0
        42    308.8239    939.0950 307.7795823  +6.4964745     1373.665     3677.214     4728.277     96.13483     191.2053     382.7534      2.873    11.36     1344.897     67.49337     176.2991        32     2.140     1.680  89.74   2
        43    672.8262    924.2322 307.6279276  +6.5146172     6010.112     18505.49     22287.55     95.37365     191.2053     382.7154      2.719     6.88     1341.012     67.49337     668.6327        72     2.130     1.884 -45.78   0
        44    774.6431    923.9921 307.5853739  +6.5180618     886.4512     1858.225     2317.432     95.37365     191.2815      382.563      2.640     5.17     1339.437     67.49337     135.5924        10     1.236     0.610  46.55   2
        45    426.5549    926.6775 307.7307901  +6.5054986     643.8841     1431.473     1872.337     95.83108     191.5861     382.9058      2.473     4.53     1343.726     67.49337     86.05005         6     1.250     0.467   0.74   0
        46    593.7611    919.6467 307.6611329  +6.5139158     1118.312     2974.433     3789.624     95.83108       191.51     382.7154      2.834     8.91     1341.688     67.49337     155.7332        21     1.906     1.162 -13.36   0
        47    566.2538    915.4485 307.6727730  +6.5147490      6015.45     19763.79     28836.91     95.98307       191.51     382.9438      3.242     8.43      1341.71     67.49337     657.0319       105     2.727     2.192  34.85   0
        48    897.9711    913.8016 307.5341618  +6.5263286     2023.722     5066.209     5457.286     95.37365     191.2815     382.6392      2.369     7.03     1336.494     67.49337     247.4998        37     1.915     1.425 -45.40   0
        49    337.3447    910.4383 307.7686294  +6.5092813     9940.436     35183.07     44672.69     95.98307     191.5861     382.9438      2.957     7.86      1344.24     67.49337     1122.862        96     2.304     2.139 -62.87   0
        50    866.7634    904.2730 307.5475280  +6.5292506     2450.536     6060.291     6563.739     95.83108       191.51     382.9438      2.378     6.20     1336.769     67.49337     282.5619        43     1.926     1.503 -62.04   0
        51    852.9442    908.0887 307.5531767  +6.5272172      910.246     1907.463     3236.359     95.98307     191.3577     383.0961      3.252     5.99     1337.126     67.49337     121.6915        10     1.480     0.683  23.05   0
        52    195.0243    901.0966 307.8284360  +6.5084510     4831.001     16306.52     21128.27     96.13483     191.2053     382.7534      2.958     7.61     1343.099     67.49337     595.9727        73     2.210     2.033 -44.70   0
        53   1021.1664    902.2347 307.4830501  +6.5351559     2788.923     5953.015     6355.235     95.52637     187.4324     333.0208      2.113     4.90     1333.873     67.49337     331.9606        37     1.621     1.417 -39.35  24
        54    999.4305    890.9918 307.4925140  +6.5390994     4850.455     11283.48     11716.28     95.37365     191.2815     382.6392      2.282     5.27     1333.169     67.49337     557.5216        50     1.835     1.564 -47.31   0
        55     95.4115    889.8679 307.8704546  +6.5098077     1829.495     6261.534      8240.52     95.37365     191.2815     382.7534      3.040     9.15     1341.169     67.49337     246.8949        58     2.186     2.027 -50.30   0
        56    117.7478    885.5524 307.8612643  +6.5123332     1043.742     2963.196     3735.211     96.13483     191.3577     382.9438      2.868    10.75     1341.259     67.49337     139.0878        25     1.938     1.663 -42.16   0
        57     81.9623    909.0380 307.8754267  +6.5014253      864.928     2073.883     2866.444     95.67885     191.3577     382.7534      3.164     7.82     1341.925     67.49337     123.3977        11     1.670     1.024  78.06   2
        58    394.5062    873.7719 307.7459741  +6.5263489     2433.783     8630.473     11648.67     96.13483     191.2053     382.7915      3.010     8.40     1343.075     67.49337     260.2533        62     2.102     2.079  40.61   0
        59    734.7350    870.7206 307.6038499  +6.5388096     5223.587     15580.61     20448.76     96.28634     191.5861     382.8677      2.900     7.37     1337.628     67.49337     554.3591        73     2.291     1.838 -34.56   0
        60    978.4561    865.7590 307.5021296  +6.5488607     1946.745     4659.736     5482.107     95.83108     191.5861     382.9438      2.449     6.69     1331.557     67.49337     289.5396        29     1.676     1.364 -56.83   0
        61    442.5463    857.2844 307.7264489  +6.5347593     1143.325     3800.386     4880.582     95.98307       191.51     383.0961      3.002     9.74     1341.887     67.49337     147.0697        29     1.977     1.686  68.59   0
        62    800.2023    853.6288 307.5770567  +6.5480370        13872     40624.36     50907.31     95.37365     191.2053     382.6773      2.780     6.54     1334.657     67.49337     1518.053        90     2.295     1.904 -56.68   0
        63    415.2397    856.8415 307.7378788  +6.5340427      1016.54     2753.076     3276.287     95.67885     191.5861     382.7534      2.698     8.45     1342.272     67.49337     156.8813        18     1.981     1.006   6.29   0
        64    572.4509    845.9316 307.6725269  +6.5437381     903.1143      3041.78     4084.043     95.83108     191.3577     382.8296      2.937     9.82     1338.401     67.49337     142.9222        19     1.892     1.420  29.25   0
        65    656.7068    839.7675 307.6375118  +6.5490621     28087.71     92764.84     118067.6     96.13483     191.3577     382.9819      2.925     7.38     1336.596     67.49337     3019.011       123     2.359     2.133 -48.00   0
        66     38.0088    839.9814 307.8961405  +6.5285646     586.4944     1357.593      2078.67     95.67885      191.129     382.6773      2.361     4.79     1338.948     67.49337      94.3501         5     1.461     0.445 -72.27   0
        67    518.5676    836.3204 307.6953768  +6.5459441     1021.098     2868.246     3442.091     95.83108       191.51     382.8677      2.620     8.28     1338.644     67.49337      123.141        16     2.226     0.861  69.49   2
        68    522.0180    836.2988 307.6939350  +6.5460667     866.7649     1466.138      2827.66     95.98307     191.3577     382.6011      1.840     2.88     1338.566     67.49337     171.3135         6     0.812     0.643 -88.41   3
        69     56.7376    836.0892 307.8884436  +6.5307959     1896.089     7198.411     9152.072     95.98307     191.6622     382.9819      3.020     9.89     1338.914     67.49337     257.9756        58     2.243     1.988 -75.88   0
        70    500.9828    832.3048 307.7028635  +6.5470278     2329.425     6088.125      7356.91     95.83108     191.2815     382.7154      2.647     9.87     1338.755     67.49337     239.5778        43     2.312     1.571 -87.51   3
        71    504.7112    832.3401 307.7013037  +6.5471360     2367.581     4320.847     5395.532     95.83108     191.6622       383.02      2.142     6.05     1338.646     67.49337     286.2983        20     1.681     0.917 -86.82   3
        72    365.5001    828.0603 307.7596443  +6.5443201     7777.724     29858.98     39865.46     95.67885       191.51     383.0961      3.114     8.30     1341.697     67.49337     925.9221        90     2.328     2.207 -37.75   0
        73    232.2569    829.7611 307.8152869  +6.5392183      1116.44     2951.965     3154.892     95.98307     191.5861     382.9058      2.584     9.66     1341.199     67.49337     129.1587        24     2.183     1.193  43.71   0
        74    457.0089    817.8162 307.7217357  +6.5515786     2492.577     4502.956     5136.016     95.67885     191.2053     382.7534      1.921     7.63     1338.924     67.49337     290.1279        23     1.868     0.873 -85.95   3
        75    453.0327    816.8181 307.7234317  +6.5518608     2788.859     6179.115     9277.463     95.52637     191.2815     382.7534      2.762    11.23     1338.985     67.49337      303.347        41     2.796     1.257  88.06   3
        76    758.8074    819.8080 307.5955003  +6.5606822     462.9809     813.4413     783.9159     95.22068     191.2815     382.7534      1.583     3.69     1332.854     67.49337     79.79272         5     1.168     0.335 -79.25   0
        77    721.3481    817.9387 307.6112235  +6.5602256     869.8181     1940.559      2906.39     95.98307     191.4339     382.9058      1.724     3.44     1333.428     67.49337     137.4457         5     1.015     0.338 -47.73   3
        78    724.8342    816.0604 307.6098294  +6.5611179     1164.395      3197.18     4335.863     95.83108     191.5861     382.8296      2.873    10.19     1333.171     67.49337     142.2161        25     1.722     1.680   1.70   2
        79    344.4554    802.6683 307.7693001  +6.5541400     2077.982     8381.595     10631.14     95.98307     191.3577     382.8296      3.088     9.68     1340.958     67.49337     274.0157        65     2.224     2.134 -66.10   0
        80    200.6997    804.2542 307.8293424  +6.5487374     765.6823     2519.292     3021.708     95.67885       191.51     383.2482      2.986     8.93     1339.782     67.49337     111.0166        13     2.064     1.079 -41.23   0
        81    712.1512    798.2560 307.6157313  +6.5680736     18417.44     61346.68     78791.51     95.98307       191.51       383.02      2.929     7.44     1331.942     67.49337     1991.997       107     2.384     2.083 -49.40   0
        82    386.3740    797.3848 307.7519547  +6.5577103       880.85     1593.004     2193.689     95.67885     191.3577     382.8296      1.926     4.28     1339.807     67.49337     142.3804         5     1.081     0.484  89.60   0
        83    888.4905    793.3487 307.5421740  +6.5758951     949.5123     2464.327     3184.514     95.98307     191.2815      383.058      2.723     7.46     1328.844     67.49337     139.2484        15     1.757     0.887   2.02   0
        84    710.6777    782.7726 307.6168688  +6.5744365     1948.156     7061.166     9221.855     95.83108       191.51     382.8677      3.144     9.02     1331.263     67.49337     235.9104        54     2.149     1.882 -37.19   0
        85    149.6871    785.2985 307.8513095  +6.5549004     693.5479     1774.151     3168.294     95.98307     192.0421     382.9438      2.714     3.49     1338.356     67.49337     116.5328         5     0.796     0.442 -68.14   2
        86    726.5782    781.1521 307.6102758  +6.5756301      1042.87      2973.73     3840.258     95.52637       191.51     382.7534      2.913     9.74      1330.94     67.49337     150.9724        22     1.753     1.510  11.56   0
        87    318.1323    774.3843 307.7812609  +6.5649830      753.561     1878.864     3017.511     95.37365     191.3577     382.7915      2.968     4.66     1338.971     67.49337     107.5763         6     0.963     0.641 -69.03   0
        88    965.0336    771.3796 307.5109111  +6.5875018     2845.927     7839.791     9490.151     95.37365     191.2815     382.7154      2.656     6.91         1325     67.49337     337.1628        43     1.894     1.553 -57.80   0
        89    208.2146    766.9671 307.8274633  +6.5644249     1955.739     4076.441     6765.119     95.52637     191.2053     382.7915      2.981     6.01     1338.227     67.49337     242.2482        23     1.628     1.108  71.09   3
        90    203.4159    768.8254 307.8294064  +6.5634969     1479.005     2795.048     3922.137     95.67885     191.3577     382.8296      2.400     5.37     1338.283     67.49337     176.5388        14     1.350     0.840  13.91   3
        91    204.4240    765.1742 307.8291086  +6.5650421     1426.765      2269.12     4017.916     95.37365     191.2815     382.7915      2.619     5.11     1338.111     67.49337     175.1337        11     1.170     0.695 -80.84   3
        92    341.0068    756.3253 307.7723087  +6.5732154      639.316     1386.536     2317.473     95.52637     190.9764     382.7534      2.311     4.72      1337.56     67.49337     102.2092         6     1.204     0.525 -26.04   0
        93    685.6070    746.8760 307.6285595  +6.5884766     1367.325     2579.659     3962.116     95.52637     190.9001     382.7534      2.266     7.74     1329.768     67.49337     200.2363        18     2.504     0.670 -59.86   3
        94    681.4929    748.0000 307.6302417  +6.5878759     1523.689     3307.827     4521.013     95.37365     190.9001     382.4868      2.619     7.07     1329.857     67.49337     186.5879        14     1.529     1.039 -42.65   3
        95    683.0367    745.6320 307.6296760  +6.5889072     1600.266     3792.253     4962.659     95.52637     191.2053     382.6011      2.755     7.60     1329.737     67.49337     188.6095        18     1.667     0.976 -10.79   3
        96    517.5630    747.9460 307.6987791  +6.5825046     632.3798     1465.857     2391.684     95.83108       191.51     382.9438      2.562     6.43     1332.311     67.49337     122.7764         7     1.548     0.749 -33.90   0
        97    184.1813    732.4471 307.8386794  +6.5779243     879.3149     2186.617     2868.504     95.37365       191.51     382.6773      2.410     5.81     1336.482     67.49337     152.5668         8     1.619     0.586  61.59   0
        98    416.7477    722.3397 307.7417924  +6.5897858     5661.322     24374.49     35169.63     95.98307     191.4339     382.9058      3.332     9.23     1334.102     67.49337     763.6025       100     2.552     2.287 -46.08   0
        99    744.5128    721.1620 307.6047977  +6.6010600     3966.112     8196.685      10956.4     95.98307     191.4339     382.9058      2.367     6.81       1327.4     67.49337     396.7045        37     2.123     1.125 -78.16   3
       100    740.8035    720.7377 307.6063628  +6.6011138     4541.092     10739.63      14192.7     95.22069     191.2053      382.563      2.571     8.11     1327.448     67.49337     541.2356        43     2.400     1.178 -80.25   3
       101    107.6757    715.3510 307.8712427  +6.5824739     924.2013     1740.454     2891.315     95.83108     191.5861     382.9058      3.075     4.05     1334.522     67.49337      159.564         8     1.007     0.819  74.99   2
       102    539.8676    707.4216 307.6908216  +6.6000191     1316.877      4387.25     6172.606     95.52637     191.4339     382.8296      3.208    11.45     1330.658     67.49337     150.8857        35     2.225     1.639 -89.26   2
       103    847.3195    704.2841 307.5623822  +6.6114244      4217.97     13255.51     15874.78     95.83108     191.8902     382.9819      2.768     7.01     1324.507     67.49337     469.7502        66     2.097     1.932 -46.60   0
       104    506.3749    708.1078 307.7048014  +6.5986321     671.7991     1206.961     1966.919     96.13483     191.2053     382.7154      1.912     3.48     1330.988     67.49337     105.0729         5     0.825     0.425  70.87   0
       105    500.8455    707.0949 307.7071474  +6.5988694     649.8106      1771.21     2896.025     95.83108     191.4339      383.058      3.496     6.47     1331.002     67.49337     92.30237         7     1.278     0.920 -68.98   0
       106    900.0233    703.6613 307.5403674  +6.6134114     1043.997     2805.234     3544.414     95.52637     191.4339     382.7915      2.844     5.83     1323.187     67.49337     148.8219        13     1.726     0.554 -74.10   2
       107    644.8727    702.9289 307.6470712  +6.6053348     1093.995     3358.189     5706.929     96.28634     191.6622     382.8677      3.710    10.94     1327.311     67.49337     146.0571        26     2.331     1.430 -61.27   0
       108    934.1281    702.0874 307.5261608  +6.6151815     4008.335     11850.55     13803.19     96.13483     191.8142     382.9058      2.686     7.16      1322.19     67.49337     479.4032        57     2.038     1.780 -57.18   0
       109    697.6492    690.4871 307.6254245  +6.6122219     11585.02     43620.16      57918.5     95.98307     191.4339     382.9819      3.084     8.37     1325.289     67.49337     1311.927       110     2.416     2.237 -51.57   0
       110    784.5845    693.9803 307.5889588  +6.6136315     899.6764     2184.969      2562.44     95.67885     191.2053     382.7915      2.025     4.39     1324.647     67.49337     134.0527         6     1.210     0.454 -80.20   0
       111    302.9967    690.4058 307.7904291  +6.5992563     2273.219     5745.115     8185.622     95.22068      191.129     382.7154      2.899    10.72     1333.504     67.49337     246.4106        45     2.494     1.528  72.96   3
       112    298.8289    690.6105 307.7921647  +6.5990340     1962.094     4569.468     6435.329     95.37365     191.2815     382.7154      3.003     8.58     1333.594     67.49337     227.5352        29     2.367     1.043  72.90   3
       113    836.3495    691.8170 307.5673882  +6.6162268     645.2216     1497.446     1948.552     95.37365     191.5861     382.6011      2.088     3.46     1323.711     67.49337     90.47192         5     0.784     0.442 -73.90   0
       114    931.9997    687.4967 307.5275411  +6.6211534     986.3716     2126.847      2620.42     95.37365     191.0527     382.4106      2.673     8.66     1321.761     67.49337      137.551        11     2.064     1.016  68.79   3
       115    929.6228    688.6647 307.5284956  +6.6205919     1221.861      2455.72     3323.629     95.52637       191.51     382.7915      2.639     6.28     1321.881     67.49337     162.4694        15     1.580     0.940  73.76   2
       116    865.4046    687.4178 307.5553880  +6.6190019     2754.531     9128.638     10977.13     95.52637     191.0527     382.7154      2.846     7.87     1322.734     67.49337     374.0884        58     2.093     1.878 -51.16   0
       117    468.7381    691.0043 307.7211144  +6.6044744     651.3986     1612.829     2653.352     95.22068     191.2053     382.6011      1.448     3.53     1330.865     67.49337     112.5419         5     1.240     0.290  35.42   2
       118    407.1401    686.8450 307.7470085  +6.6041663     1310.031     3647.441     5233.702     95.83108     191.4339       383.02      3.025    10.55     1331.935     67.49337     159.9246        29     2.395     1.295  82.43   2
       119    411.2007    687.0093 307.7453053  +6.6042322     1525.601     3592.595     5043.814     95.22069      191.129     382.6011      2.519     6.23     1331.857     67.49337     195.2317        22     1.561     1.110  89.88   3
       120    969.6638    687.1810 307.5118038  +6.6225188     880.4504     2206.107     1900.659     95.52637       191.51     382.7154      2.390     8.46     1320.656     67.49337     128.5094        13     1.584     1.262  -6.41   0
       121     68.6468    679.2562 307.8887831  +6.5961282     1628.255     3890.742     5799.236     95.98307       191.51       383.02      3.109    12.86     1333.277     67.49337     196.0178        35     2.292     2.083 -32.79   2
       122     65.1593    677.0000 307.8903176  +6.5969470     1251.192     2310.333     3257.275     95.06747     191.0527     382.4868      2.388     4.59     1333.367     67.49337     214.5912        10     1.162     0.683 -10.76   3
       123    237.0404    675.0500 307.8185240  +6.6034369     8384.347     35302.21     51450.79     96.13483       191.51     382.8296      3.332     9.44     1332.645     67.49337     1112.427       114     2.521     2.414 -52.25   0
       124    209.9487    678.4234 307.8297363  +6.6011451     1183.323     2291.335     3667.872     95.37365       191.51     382.7915      2.061     5.08     1332.696     67.49337     178.0684        10     1.797     0.406  56.82   3
       125    214.1311    675.8297 307.8280756  +6.6023573     2146.573     5629.556     7973.295     95.67885       191.51     382.8296      2.997     9.28     1332.597     67.49337     236.5049        46     2.371     1.672 -83.43   2
       126    210.0000    674.0266 307.8298638  +6.6029673     1319.943     2164.297      3206.38     95.37365     191.0527     382.6392      1.760     5.09     1332.414     67.49337     201.9818         8     1.339     0.548 -89.30   3
       127   1022.3637    677.8088 307.4900838  +6.6281264     805.6343     1806.477     1906.847     95.37365     173.5407     312.5635      2.207     6.75     1318.535     67.49337     109.3505        11     1.286     0.993 -84.75  26
       128    361.0439    670.4021 307.7668368  +6.6094547     11939.36     51644.75      75615.9     95.22068     190.9764     382.4868      3.347     9.68     1331.668     67.49337      1617.95       122     2.587     2.414 -47.88   0
       129    114.4731    670.1841 307.8699318  +6.6014006     914.4799     2559.674     3703.296     95.37365     191.2815     382.7915      3.058     5.36     1331.639     67.49337     124.5343         9     1.124     0.890  77.76   3
       130    118.8241    672.8101 307.8680238  +6.6004572     1225.881     3389.483     4941.338     95.52637     191.2815     382.7534      3.181     8.88     1331.798     67.49337     152.7264        21     2.237     0.985 -69.60   2
       131    265.3532    668.2466 307.8069171  +6.6071890     4393.197     19091.56     29409.01     95.98307     191.3577     382.9058      3.479     9.56     1332.045     67.49337     628.4297       103     2.588     2.431 -19.31   0
       132    700.0732    666.3531 307.6252241  +6.6222949     9428.496     36193.04     49464.55     95.83108     191.5861     382.9058      3.141     8.42     1323.499     67.49337     1046.479       105     2.486     2.225 -43.26   0
       133     18.2609    663.9406 307.9103675  +6.6008021     3051.462     8774.562     11056.21     95.98307       191.51     382.9438      2.823     9.57     1334.757     67.49337     338.2686        55     2.320     1.798  63.18   2
       134     14.6416    665.9622 307.9118120  +6.5998453     1743.698     2727.667     3404.701     95.67885     191.5861     382.7534      1.793     4.84     1335.017     67.49337     231.5056        11     1.244     0.691  64.81   3
       135    959.5168    646.7708 307.5174041  +6.6389195      897.616     2483.673     3534.992     95.98307     191.2053     382.7534      2.836     8.86     1318.305     67.49337     109.2443        15     1.931     1.135  17.28   0
       136    237.3321    641.1328 307.8195503  +6.6174905     9210.967     27357.81     40329.28     95.98307     191.5861     382.9438      3.273    10.08     1330.086     67.49337     1088.749       101     2.620     2.555 -52.97   2
       137    233.3738    642.5896 307.8211559  +6.6167565     5750.605     9048.857     12225.72     95.52637     191.2815     382.7534      1.694     5.97     1330.312     67.49337     718.8108        14     1.739     0.576  68.42   3
       138    665.7574    637.3486 307.6405495  +6.6331769     2406.985      6999.52     8995.479     95.98307       191.51     382.9438      2.893     9.72     1323.457     67.49337     277.9557        50     2.416     1.588 -89.64   3
       139    669.8094    637.2278 307.6388594  +6.6333601     2083.558     3851.718     3935.649     95.52637     191.2815     382.7534      1.914     5.88     1323.393     67.49337      236.424        19     1.571     0.918 -87.67   3
       140    553.1830    641.3400 307.6874843  +6.6278203     729.3286     1443.943     2121.289     95.37365     191.4339     382.6011      2.795     4.50     1327.443     67.49337     122.8827         7     0.874     0.658 -23.40   0
       141    374.1364    639.7094 307.7624005  +6.6225955     4936.875     6425.825     6896.947     95.98307     191.7382       383.02      1.143     3.49     1328.621     67.49337     1807.489        10     1.403     0.347 -74.91   3
       142    375.9063    632.9725 307.7618882  +6.6254434       6271.8     10368.14      10774.7     96.13483     191.2053     382.7534      1.698     6.26     1327.962     67.49337     2000.472        19     2.131     0.517 -60.64   2
       143     80.2228    634.9637 307.8854454  +6.6148510      1563.21     4014.924     5841.484     95.52637     191.2053     382.6392      3.108    12.38     1330.448     67.49337     183.8538        36     2.327     1.834  72.23   2
       144     75.3357    635.9901 307.8874538  +6.6142643     1186.194      2678.03      4284.52     95.37365     191.2815     382.7154      2.481     6.52     1330.701     67.49337     144.1067        13     1.590     0.750 -65.66   3
       145    346.8932    631.8159 307.7740579  +6.6249652     1052.516     3356.063     5394.907     95.67885     191.2815     382.6773      3.477     9.14     1327.958     67.49337     131.4149        19     1.631     1.430 -13.93   2
       146    352.0223    631.3229 307.7719301  +6.6253386     1071.533     2348.293     4457.708     95.52637     191.2815     382.7915      3.320     7.78     1327.846     67.49337     140.0735        15     2.302     0.736 -61.24   2
       147    313.6250    628.1366 307.7880919  +6.6253908     783.7165     2497.661     4354.483     95.52637       191.51     382.8296      4.231     9.46     1327.606     67.49337     111.5616        15     2.428     1.027  -4.39   0
       148    629.6423    617.0139 307.6563357  +6.6404093     1561.934     3324.293     5433.166     95.22068     191.2815     382.6011      2.919    12.18     1323.103     67.49337     199.3085        32     3.380     1.222 -49.25   3
       149    625.7850    615.7716 307.6579904  +6.6407968     1851.128     4376.042     5595.851     95.52637     191.2815     382.7915      2.583     8.61     1323.089     67.49337     202.6868        25     1.800     1.150 -61.75   3
       150    167.6170    620.1878 307.8494073  +6.6238594     1343.902     2769.335     4399.623     95.67885      191.129     382.7915      2.548     7.60     1328.974     67.49337     170.2188        18     1.809     0.893 -49.46   3
       151    163.1895    618.7806 307.8513061  +6.6242957     1403.875     3164.851     4979.791     95.52637      191.129     382.7534      2.564     8.32     1328.927     67.49337      174.561        24     2.005     0.965 -79.18   3
       152    166.7860    616.7703 307.8498705  +6.6252470     1483.654     3030.928     4997.282     95.52637     191.2815     382.8296      2.589     7.59     1328.812     67.49337     172.8319        15     1.679     0.960  30.43   3
       153     50.3491    618.4671 307.8984947  +6.6206930     807.5839     2192.165     4035.926     95.83108     191.3577     382.9058      3.105     6.51     1330.609     67.49337     117.8938        10     1.700     0.700  79.70   0
       154    582.0028    607.4099 307.6765789  +6.6428186     12370.88     49953.14     84621.77     95.37365      191.129     382.7154      3.796    13.24     1323.926     67.49337     1480.798       190     4.093     2.398 -65.21   0
       155    308.4476    611.5148 307.7908190  +6.6321025     1370.559       3349.5     6581.231     95.98308     191.4339     382.9058      4.135     8.37     1325.916     67.49337     147.5673        22     1.808     1.082  82.72   2
       156    264.2623    600.4214 307.8096688  +6.6352371     970.1084     2721.131     4101.418     95.52637       191.51     382.7534      2.824     6.73     1325.953     67.49337     127.1995        10     1.631     0.780  87.66   2
       157    260.6583    597.1291 307.8112871  +6.6364814     935.0364       2298.1     4499.523     96.13483       191.51     382.9058      3.067     9.93      1325.84     67.49337     142.7053        12     3.665     0.750 -81.18   2
       158    645.0071    590.1119 307.6508182  +6.6520541     736.1274     1878.809     2476.222     95.37365      191.129     382.6011      2.884     6.37     1321.083     67.49337     121.3041         9     1.879     0.606  86.28   0
       159    649.1552    589.4969 307.6491045  +6.6524452     931.1418     2164.198     3213.693     95.98307     191.4339     383.0961      2.851     7.57     1320.955     67.49337     132.9303        11     1.593     1.008 -76.63   0
       160    386.1361    579.7730 307.7594094  +6.6478091     913.2142     2368.414     3327.111     95.52637       191.51     382.7915      2.677     9.42     1323.563     67.49337     147.1522        12     2.319     1.067 -86.95   2
       161    389.2743    584.2486 307.7579460  +6.6460594     894.0468     2257.382     3326.238     95.98307     191.5861     382.9438      2.754     7.26     1323.885     67.49337     132.2169        12     1.819     0.811 -30.90   3
       162    391.3791    580.3108 307.7571990  +6.6477594     1118.185     2423.269     3800.017     95.83108     191.2815     382.7534      2.545     6.34     1323.581     67.49337     159.1556        13     1.473     0.766  53.02   3
       163    861.4628    576.3276 307.5607728  +6.6648730     1206.016      4519.73     6114.512     96.13483       191.51     382.9819      2.975    11.35     1314.261     67.49337     158.2712        40     2.087     1.718 -26.57   0
       164    102.5768    570.3458 307.8782902  +6.6423463     1101.255     2350.995     4993.245     95.37365       191.51     382.6773      3.969     6.82     1326.554     67.49337     164.5144        13     1.600     0.816 -79.08   0
       165    782.1064    562.2272 307.5944303  +6.6681066     2015.521     5290.852     6918.667     96.13483     191.2053     382.7154      2.820     8.43     1313.868     67.49337     224.8412        39     2.260     1.308  89.39   3
       166    786.0981    562.1942 307.5927623  +6.6682514     1732.024     3840.025     5706.708     95.67885     191.0527     382.6011      2.568     7.76     1313.784     67.49337     218.6339        25     2.110     0.953 -84.90   3
       167    727.6343    564.9757 307.6171153  +6.6651790      759.125      1723.01     2083.922     95.37365     191.2815     382.6392      2.104     4.60     1315.531     67.49337     120.5472         5     1.333     0.450  56.66   3
       168    726.7244    561.0395 307.6176284  +6.6667790      964.549     2126.158     4266.174     95.83108       191.51     382.9438      4.203    12.47      1315.27     67.49337     129.9563        23     3.350     1.292   6.85   2
       169     25.0892    560.0718 307.9110371  +6.6440359     1069.521     2547.159     3803.953     95.98307     191.8142     382.9058      3.136     8.50     1328.719     67.49337     141.2659        17     1.844     1.096 -76.41   2
       170    721.2987    549.9116 307.6202721  +6.6712085      742.233      1608.93     2534.523     95.98307     192.0421     382.9058      2.601     6.61     1314.709     67.49337     120.3997         8     1.735     0.707 -75.27   0
       171     50.2333    544.4516 307.9010540  +6.6513360     2380.329     10175.39     14723.37     95.83108       191.51     382.7915      3.351     9.97     1327.103     67.49337     349.8801        77     2.420     2.266 -47.96   0
       172    381.6253    544.4315 307.7624904  +6.6622942     594.9401     1390.459     2605.736     95.37365     191.3577     382.7154      2.785     3.85     1320.758     67.49337     93.75146         5     1.082     0.394 -73.77   0
       173    376.8495    542.9114 307.7645387  +6.6627661     730.1146      1650.36     2722.178     95.98307     191.2815       383.02      2.512     6.00     1320.676     67.49337     132.4083        10     1.724     0.588 -68.59   0
       174    591.2955    535.7523 307.6751107  +6.6727961     4522.545     14689.35     20235.58     95.83108     191.3577     383.0961      3.041     9.80     1317.636     67.49337     489.8601        60     2.649     1.567 -89.01   3
       175    595.3807    535.9670 307.6733953  +6.6728417     4554.951      8602.43     10271.01     95.37365     191.2815     382.6773      2.037     6.77     1317.573     67.49337     500.5511        29     1.967     0.945 -88.04   3
       176    494.5428    532.9770 307.7156617  +6.6707595     1283.658     3273.251     5694.771     95.52637       191.51     382.6773      3.096    10.22     1318.122     67.49337      183.678        26     2.499     1.165 -76.15   2
       177    490.4325    533.1532 307.7173745  +6.6705511     1160.875     3194.909     5569.029     95.67885       191.51     382.8296      3.058     7.44     1318.125     67.49337      166.713        15     1.839     0.843  84.67   3
       178    221.1185    529.2249 307.8301187  +6.6632921     2417.544     5911.598     8696.413     95.67885     191.2053     382.8677      3.352    12.54     1321.326     67.49337     289.9938        49     3.166     1.415 -42.78   3
       179    217.5768    525.8077 307.8317153  +6.6645900     2078.565     4606.661     7365.931     95.37365     191.2815     382.7154      3.343    10.88     1321.227     67.49337     240.4427        35     3.124     1.056 -57.14   3
       180    208.7397    528.5116 307.8353188  +6.6631784     719.8214     2024.317     6169.997     95.83108     191.6622       383.02      5.451     7.34     1321.677     67.49337     108.5903        10     1.671     0.903  62.00   3
       181    577.4720    528.2986 307.6811426  +6.6754275     967.0237     2250.467      3790.39     95.67885     191.6622     382.9058      3.199     6.34     1317.108     67.49337     118.4124        11     1.375     0.820  58.83   0
       182    581.0253    525.7333 307.6797433  +6.6766067     930.6069     2564.884     4582.544     95.52637     191.3577     382.7915      3.538     7.31     1316.853     67.49337     141.3652        16     1.809     0.827  68.87   0
       183    398.0669    527.7744 307.7561786  +6.6697337     4212.534      21212.1     32566.57     95.52637     191.3577     382.7915      3.497    11.01     1319.167     67.49337     640.4612       105     2.631     2.471 -61.19   0
       184    136.4426    510.4410 307.8661610  +6.6682708     2144.973     10601.02     16277.05     95.67885       191.51     382.7534      3.502    10.09     1322.521     67.49337     426.1351        85     2.502     2.393 -63.98   0
       185    881.5527    507.3495 307.5546922  +6.6940948     1296.711     4736.603     6220.269     95.98307     191.3577     382.9058      3.064    11.90     1308.306     67.49337     175.2076        44     2.248     1.755 -67.11   0
       186    482.6371    508.9315 307.7214522  +6.6803238     797.0372     2215.381     3887.553     95.83108       191.51       383.02      3.585     7.53     1315.934     67.49337     119.9094        12     1.458     1.087 -73.14   0
       187    944.9261    503.7500 307.5283119  +6.6976638     1036.495     2126.353      2807.17     95.98307     191.5861     382.9438      2.623     6.68     1306.842     67.49337     132.0564        12     1.393     0.898 -79.09   0
       188    667.7224    500.4619 307.6443422  +6.6899233      2049.78     5178.016     7052.527     96.28634     191.5861     382.9058      2.774    10.14     1313.389     67.49337     222.8376        39     2.245     1.276 -69.58   3
       189    663.9689    500.1922 307.6459208  +6.6899115     1838.041     4768.364     7106.547     95.37365     191.2815     382.6392      2.732     8.72     1313.422     67.49337     225.7272        29     2.417     0.879 -75.60   3
       190    584.2791    499.1539 307.6792795  +6.6877197     986.1395     3246.847     6151.761     95.98307       191.51     382.8677      3.756    11.63     1314.253     67.49337     144.4181        24     2.772     1.358 -36.27   2
       191    388.6914    495.4369 307.7611922  +6.6828145     1603.651     3571.944     4110.123     96.13483     191.4339     382.9438      2.474     8.06     1316.199     67.49337     203.7705        24     2.013     1.026  53.53   3
       192    385.1325    498.5591 307.7625748  +6.6814043     1428.645     3641.083     5353.121     95.83108     191.4339     382.9819      2.960    10.08     1316.691     67.49337     165.5234        30     2.274     1.246  37.86   3
       193    384.6472    493.9395 307.7629339  +6.6833011     845.9316     1773.676      3325.76     95.98307     191.4339     382.9819      2.220     4.89     1316.239     67.49337     152.7152         9     1.562     0.434  60.51   3
       194    283.0508    491.1963 307.8055097  +6.6810841      2459.23     12502.09     20069.26     95.22068     191.2053     382.4106      3.559    10.73     1317.468     67.49337     416.6476        90     2.581     2.417  45.67   0
       195     58.3891    490.7654 307.8994651  +6.6738352     847.5427     2113.162     3089.749     95.37365     191.2815     382.6773      2.838     8.08     1324.236     67.49337     127.3975        13     1.697     1.074  49.13   0
       196    601.3556    479.9444 307.6727868  +6.6962359     2065.152     9159.563     15978.66     95.98307       191.51     382.9058      4.760    24.58     1312.085     67.49337     278.8489       130     5.239     3.202  -4.86   2
       197    607.4957    483.8698 307.6700867  +6.6948125     2856.168     7055.446     10920.12     95.83108     191.5861     382.9058      3.057     9.15     1312.359     67.49337     316.7582        36     2.727     0.978 -87.56   3
       198    612.6960    483.8597 307.6679124  +6.6949878      2766.35     5723.051     7601.253     95.83108       191.51       383.02      2.624     8.90     1312.307     67.49337     321.3341        32     2.263     0.976 -77.54   3
       199    207.7893    478.8325 307.8373990  +6.6837174     1349.031     2607.938     3605.969     95.37365     191.2053     382.7154      2.070     5.13      1318.51     67.49337     165.7258        14     1.202     0.930 -53.71   3
       200    209.0562    484.1093 307.8366905  +6.6815743     1404.823     3738.094     4918.474     95.83108     191.3577      383.058      2.613     8.26     1318.831     67.49337     185.0629        23     2.263     0.844  18.67   3
       201    211.9828    481.0954 307.8355688  +6.6829190     2027.838     4921.433      6928.33     95.83108     191.2815     382.7154      2.841     6.67      1318.57     67.49337     217.0496        30     1.737     1.299  80.06   3
       202    371.3654    480.0568 307.7689573  +6.6886114      1686.83     7658.686     11503.47     95.83108       191.51     382.9438      3.459    12.44     1315.545     67.49337     228.8444        75     2.414     2.352 -36.10   0
       203    633.3153    477.4365 307.6595066  +6.6983259     5053.938     16649.71     29361.55     95.98307       191.51     382.8677      3.707     9.54     1311.523     67.49337     528.4038       123     3.144     2.373 -42.98   0
       204     16.7183    476.3389 307.9173788  +6.6784291      788.388     1962.461     3292.802     96.13483       191.51     382.9058      2.879     4.16     1324.965     67.49337     115.3193         6     0.951     0.520  43.89   2
       205     20.2684    473.1115 307.9160039  +6.6798829     1109.751     2453.178     4016.267     96.13483     191.8142     382.8677      2.831     7.41     1324.605     67.49337       147.87        15     1.696     0.941  80.41   2
       206    110.6174    471.2956 307.8782867  +6.6836252     1559.633     4083.487      6998.46     95.83108     191.2815     382.6773      3.790    11.89     1321.274     67.49337     199.1521        34     2.395     1.643 -70.79   2
       207    106.5683    468.5786 307.8800720  +6.6846162     1125.378     2296.677     3468.524     95.37365     191.2815     382.7154      2.566     5.25     1321.337     67.49337     140.7028        11     1.125     0.825  81.84   3
       208    842.1077    464.6727 307.5726233  +6.7104721     721.8682     1654.252      2337.21     95.83108     191.6622     382.9438      2.686     4.96     1305.793     67.49337     97.44495         7     1.180     0.590 -20.22   0
       209    749.7122    455.9492 307.6115557  +6.7110501     1000.836     2600.158     4112.196     95.98307     191.3577      383.058      3.299    12.21     1307.439     67.49337     128.2819        19     2.535     1.637 -87.86   2
       210    754.2573    455.7327 307.6096624  +6.7112891     903.6461     1662.367     3258.198     96.13483     191.4339     382.8677      4.404     6.39     1307.319     67.49337     107.7224        10     1.287     0.889 -49.64   3
       211    579.3873    452.4079 307.6829025  +6.7069151     3155.518     7516.545     10552.88     95.52637     191.2815     382.7915      2.799    11.28     1309.569     67.49337     363.9569        46     2.551     1.573 -70.86   3
       212    574.3112    453.3544 307.6849933  +6.7063561     2746.141     5472.357     6920.993     95.98307     191.3577     382.9438      2.334     5.37     1309.802     67.49337     310.8823        21     1.561     1.036 -63.34   3
       213    574.6902    450.6322 307.6849267  +6.7074957     2674.369     4728.213     5902.394     96.13483     191.2815     382.9058      1.996     4.35     1309.564     67.49337     327.7407        18     1.268     1.086 -68.68   3
       214    715.3047    445.8650 307.6262843  +6.7140950     1507.271     4799.368     8533.916     95.98307     191.6622     382.9438      3.862    14.85     1307.034     67.49337     171.2253        53     3.226     1.901 -46.99   2
       215    201.6725    440.6955 307.8412487  +6.6993064     2308.228     5251.847     6645.774     95.83108     191.6622     382.8677      2.539     9.94     1315.953     67.49337     257.0006        33     2.345     1.175 -60.49   3
       216    203.7065    445.6810 307.8402293  +6.6973093     2442.315     5162.522     5587.328     95.67885     191.8142     382.9819      2.180     7.97     1316.189     67.49337     329.0964        20     1.894     0.938  -9.60   3
       217    206.1325    442.6028 307.8393191  +6.6986640     2968.274     5640.788     6866.767     95.22068     191.0527     382.6773      2.099     6.56     1315.841     67.49337     375.8986        31     1.757     1.420  85.93   3
       218    452.3698    431.6909 307.7367185  +6.7113095     1659.097     5919.972     9165.343     96.13483     191.2053     382.8677      3.336    13.78     1309.088     67.49337     212.3374        49     2.756     1.916 -65.99   2
       219    454.6340    435.6929 307.7356365  +6.7097270     1628.416     2492.203     3635.364     96.13483     191.3577     382.9819      1.707     3.41     1309.397     67.49337     221.8695         9     1.089     0.587 -26.88   3
       220    456.6541    432.7781 307.7348902  +6.7110006      2006.88     4148.747     5653.883     95.37365       191.51     382.6773      2.301     5.75     1309.086     67.49337     258.0948        18     1.487     0.909 -85.42   3
       221    161.5941    427.8853 307.8584422  +6.7032857     1967.005     9468.811     14112.68     95.37365      191.129      382.563      3.397    10.42     1318.208     67.49337     300.2809        80     2.514     2.257 -64.26   0
       222    304.1327    425.5293 307.7989165  +6.7089707     1040.525     2984.801     6986.916     95.98307     191.6622     382.8677      4.565     9.98      1311.88     67.49337     131.5977        18     1.830     1.519 -86.12   2
       223    804.7195    420.9900 307.5897293  +6.7273328     975.2972     3522.835     5195.299     95.52637      191.129     382.7154      3.211    11.32     1303.918     67.49337     124.9956        29     2.111     1.692 -30.98   0
       224    749.0600    417.2092 307.6131335  +6.7270701     1722.932     3830.062     4770.575     95.22068     191.3577      382.563      2.254     8.43     1303.804     67.49337     201.6653        26     1.715     1.157  37.63   3
       225    753.3356    415.0057 307.6114197  +6.7281230     1458.813      2932.79     4480.304     95.22068     191.2053     382.6392      2.307     7.37     1303.599     67.49337     190.2195        19     1.792     0.849 -87.09   3
       226    749.9714    413.6511 307.6128723  +6.7285733     1594.115     2645.142     3475.407     95.52637     191.6622     382.7915      1.852     5.78     1303.497     67.49337      181.259        16     1.246     0.952  -7.97   3
       227    271.9751    417.0314 307.8126517  +6.7114276     875.4315     1785.574     2550.038     95.37365     191.3577     382.6773      2.744     4.03     1311.853     67.49337     111.5963         8     0.858     0.849  22.85   0
       228    364.1487    415.1174 307.7741713  +6.7152627     838.8975     2066.716     3413.821     95.98307       191.51     382.9819      3.316     6.72     1308.833     67.49337      135.057        11     1.873     0.677  29.71   2
       229    366.7305    410.7417 307.7732397  +6.7171598     938.4529       2499.2     4402.251     96.13483       191.51     382.8677      3.709     8.17     1308.429     67.49337     103.7241        17     1.898     0.982  58.61   2
       230    456.6129    412.8039 307.7355823  +6.7192700     563.4294     1189.884     2412.663     95.52637      191.129     382.7534      3.211     4.46     1307.182     67.49337     79.09167         5     1.180     0.480  32.07   0
       231    855.3307    407.6641 307.5690119  +6.7345123     1162.249      2842.61     5182.165     95.98307     191.5861     382.9438      3.710     7.44      1301.65     67.49337     156.4446        16     1.743     0.979 -61.32   3
       232    852.0137    403.9607 307.5705237  +6.7359369     1594.097     4325.161     8205.048     95.37365     191.2815     382.6011      4.089    12.04     1301.392     67.49337     203.4863        37     2.603     1.638 -70.91   2
       233    486.8632    404.0159 307.7232288  +6.7239058     4734.088     17364.05      25302.8     95.37365     191.4339     382.7154      3.222    11.41     1305.565     67.49337     646.0912        78     2.915     1.856 -43.62   3
       234    484.0157    400.9842 307.7245220  +6.7250673     4964.566     9649.309     11132.42     95.67885      191.129     382.8296      2.032     4.98      1305.23     67.49337     551.8491        26     1.584     1.086 -54.80   3
       235    780.9651    395.0789 307.6005360  +6.7372819     11776.46     47057.64     69466.65     95.83108     191.5861     382.9058      3.316     8.68     1301.548     67.49337     1228.641       127     2.568     2.453 -28.73   0
       236    627.4731    397.3972 307.6646494  +6.7312761     556.4092     1445.003     2200.656     95.37365     190.9764     382.7154      3.446     5.42     1302.877     67.49337     80.48816         6     1.706     0.485 -59.45   0
       237    790.3467    377.9765 307.5971885  +6.7446718     800.3505      2684.24     4669.219     95.37365       191.51     382.6773      3.476     9.18     1299.804     67.49337     143.5552        12     2.350     1.000 -56.12   2
       238    183.2431    375.3356 307.8511700  +6.7257603     2751.841     14485.12     22646.68     95.98307     191.4339     382.9058      3.530    11.84     1313.173     67.49337     515.8463        97     2.609     2.479 -64.32   0
       239    232.3046    372.0172 307.8307655  +6.7287559     1507.877     3351.397     4334.457     95.83108     191.2815     382.7154      2.162     6.26      1311.42     67.49337     160.6575        20     1.313     1.145   1.67   3
       240    233.3293    377.0453 307.8301667  +6.7267078     1560.758     3798.922     4561.218     95.98307       191.51     382.9058      2.457     9.27     1311.449     67.49337     174.1251        26     2.152     1.114  30.98   3
       241    236.6103    373.7355 307.8289068  +6.7281867      1960.13     4181.574     4716.398     95.37365     191.2815     382.7915      2.224     6.90     1311.202     67.49337     242.4268        29     1.902     1.123 -86.74   3
       242    949.0964    373.8133 307.5309360  +6.7516051     15102.71     41275.66     51511.52     95.83108     191.2053     382.6392      2.739     7.87     1296.479     67.49337     1525.571        91     2.380     2.022 -76.84   2
       243    953.0000    373.9546 307.5292987  +6.7516746     9148.257     14192.53      15214.8     95.06747     191.2053     382.3343      1.619     5.89     1296.401     67.49337     1205.851        16     1.908     0.588 -84.39   3
       244    826.2966    372.8571 307.5823259  +6.7479721     2019.208     4814.467     6020.687     95.83108     191.4339     383.1722      2.446    10.23     1299.084     67.49337     215.5179        32     2.220     1.315 -67.46   3
       245    821.6690    374.3595 307.5842107  +6.7471981     2008.867     3026.995     3883.875     95.83108       191.51       383.02      1.699     3.94     1299.211     67.49337     263.8071        12     1.120     0.750  47.44   3
       246    821.7741    371.2905 307.5842700  +6.7484724     2053.777     4231.983     6090.202     96.13483     191.2053     382.7154      2.369     7.82     1298.929     67.49337     256.6432        22     1.969     1.035 -62.62   3
       247    973.9825    367.2638 307.5207481  +6.7551330     1217.349     3992.606     4961.189     95.37365     191.4339     382.7154      2.838    10.32     1295.414     67.49337      168.851        30     2.125     1.532 -65.35   0
       248    258.9773    364.0276 307.8198819  +6.7329453     3168.966        16104     26434.57     95.37365     191.2815     382.8296      3.623    11.15     1309.688     67.49337     522.3458       102     2.700     2.510 -40.84   0
       249    679.5702    362.7974 307.6440287  +6.7473166     1809.289      4999.75     8029.263     95.37365     191.2815     382.6773      3.203    13.82     1298.331     67.49337     210.1483        51     3.088     1.719 -52.41   2
       250    677.7010    358.6328 307.6449508  +6.7489797     1523.716     3060.593     4223.757     95.98307     191.3577      383.058      2.438     7.06     1297.928     67.49337     201.0934        16     1.643     0.851 -47.89   3
       251   1023.3599    359.8963 307.5003446  +6.7598018     1383.272     2662.679     2979.948     88.06268     157.6053     294.6053      2.115     7.59     1294.057     67.49337     191.6847        19     2.013     0.801 -88.53  24
       252    855.2281    350.5746 307.5709760  +6.7581486     893.9163     2220.232     3168.052     95.37365     191.2815     382.7534      3.202     4.94     1297.065     67.49337     104.7135         8     1.048     0.659   0.70   3
       253    737.8467    336.5774 307.6205398  +6.7600895     994.5715     2721.446     4266.394     95.52637       191.51     382.7534      3.309     8.53     1295.834     67.49337     129.0883        14     1.738     1.169 -75.62   2
       254    734.2003    338.7459 307.6219918  +6.7590717     1072.616     2596.242     4245.323     95.06747     191.0527     382.4106      3.040     8.32     1296.013     67.49337     147.6671        15     1.890     1.024  40.51   2
       255    590.9471    332.9513 307.6820995  +6.7567595     2449.145     11546.17     17820.25     96.13483     191.4339     382.9058      3.457    10.54     1297.264     67.49337     349.6317        88     2.546     2.363 -38.23   0
       256    906.5412    334.5191 307.5500554  +6.7664805     1519.127     5094.034     7642.587     96.13483     191.5861     382.9058      3.261    12.64     1294.081     67.49337     198.2091        42     2.330     1.909  66.58   2
       257    706.2103    331.9262 307.6339278  +6.7609756     705.8306     1920.847     3623.513     95.37365     191.0527     382.7534      4.083     6.85      1295.44     67.49337     107.6874        10     1.844     0.713  85.22   0
       258    109.5520    332.2357 307.8834481  +6.7411691     632.7719     1400.344     2066.654     95.67885       191.51     382.8296      2.007     3.36     1316.713     67.49337     132.8123         5     1.113     0.293  68.04   0
       259    110.1888    326.8306 307.8833651  +6.7434282     934.0305     2154.926     3121.062     95.37365     191.2053     382.7534      2.900     6.31     1316.713     67.49337     133.4802        11     1.324     0.846 -64.23   3
       260    114.8245    330.0804 307.8813163  +6.7422360     1083.627     2409.373     3442.213     95.67885     191.2053     382.8677      2.565     6.81     1316.225     67.49337     149.8813        15     1.972     0.659 -67.73   2
       261    113.3249    327.3512 307.8820359  +6.7433164     736.8375     1722.605     3042.486     95.83108     191.5861     382.9438      2.540     3.46      1316.42     67.49337     108.3329         5     1.031     0.335 -68.43   3
       262    239.5558    323.6950 307.8293699  +6.7490040     1275.304     2511.591     2591.638     95.98307     191.4339      383.058      2.039     6.38     1308.575     67.49337     140.8514        14     1.289     0.886  47.21   3
       263    239.2496    329.0093 307.8293179  +6.7467934     1322.211     2248.988      2173.85     95.37365     191.3577     382.5249      1.712     7.71     1308.986     67.49337     160.7808        15     1.602     1.038  48.39   3
       264    243.7990    326.9138 307.8274863  +6.7478114     1630.941     3850.685     5556.054     95.06747     190.9764      382.563      2.673    10.55     1308.513     67.49337     209.7357        32     2.285     1.358 -81.93   3
       265     72.2199    326.6780 307.8992487  +6.7422349     810.2725     1922.997     3041.064     95.52637     191.2053     382.8677      2.772     6.89     1318.658     67.49337     126.4806        10     1.704     0.781  36.94   0
       266    301.7411    323.4564 307.8033715  +6.7511567     828.5778      1753.55     2740.455     96.13483       191.51     382.9438      2.386     4.73      1304.68     67.49337     119.5272         8     1.420     0.446 -66.31   0
       267    275.4998    318.2748 307.8145213  +6.7524357     921.7529     1863.349     2500.578     95.37365     191.6622     382.7915      2.431     6.99     1305.859     67.49337     109.3365        12     1.531     0.895 -28.76   3
       268    276.5702    324.0132 307.8138794  +6.7500950     1137.553     2949.455     4140.299     95.37365     191.2815     382.8296      2.960     9.25     1306.108     67.49337     145.4774        20     1.924     1.240  24.14   3
       269    279.2986    321.4367 307.8128255  +6.7512519     1244.402     2719.391     4074.979     95.98307     191.3577     383.1341      2.630     7.44     1305.785     67.49337     155.2573        18     1.544     1.024 -85.93   3
       270     76.1948    324.4556 307.8976618  +6.7432866     826.4336     1636.455      3083.05     95.22069     191.2815      382.563      2.311     4.13     1318.554     67.49337     113.0892         6     1.056     0.461 -59.02   1
       271     72.6269    321.5464 307.8992526  +6.7443731     808.9486     1768.604     2838.576     95.67885     191.6622     382.8296      2.544     5.14      1318.64     67.49337     120.6725         6     1.126     0.668 -70.46   1
       272    296.7729    320.8465 307.8055376  +6.7520733     674.8427     1591.788     2681.182     95.52637     191.5861     382.7915      1.803     3.37     1304.784     67.49337     110.3895         5     0.957     0.343 -44.41   0
       273    583.9529    312.4191 307.6857176  +6.7650312     4742.532     13207.06     20544.84     95.37365       191.51     382.6773      3.425    13.76     1294.657     67.49337     578.7335        81     3.364     2.514 -69.97   3
       274    580.7462    308.4047 307.6871942  +6.7665879     4796.389      10589.1     14309.23     95.22069     191.2053     382.5249      2.635     6.94     1294.165     67.49337     499.4509        42     1.897     1.580 -53.89   3
       275    534.7306    309.5384 307.7064011  +6.7646032     4576.182      21498.5     33890.43     96.13483       191.51     382.9438      3.546    10.54     1294.702     67.49337     606.1556       106     2.642     2.475 -57.61   0
       276    463.6580    306.6332 307.7362238  +6.7634644     2057.364     3642.528     4041.277     95.83108     191.5861     382.8296      2.019     7.29     1296.667     67.49337      247.193        18     1.982     0.750 -78.37   3
       277    459.7278    303.6282 307.7379691  +6.7645791     2001.391      4792.06     6109.967     95.67885       191.51     382.8296      2.398     8.83     1296.668     67.49337     199.4338        26     1.924     1.133  -1.60   3
       278    392.8562    300.4797 307.7660430  +6.7636777     755.5164     2098.493     3426.153     96.13483       191.51     382.9058      2.930     6.10     1300.155     67.49337     101.9413         7     1.636     0.640  87.91   0
       279    388.3279    299.2162 307.7679796  +6.7640515     703.4381     1739.231     2668.483     95.37365     191.4339     382.7915      3.102     5.07     1300.333     67.49337      87.7655         5     1.095     0.665 -26.01   0
       280    459.4792    308.0858 307.7379224  +6.7627252     2242.697     5807.406     7725.056     95.83108     191.8902       383.02      2.679     7.79     1297.051     67.49337     285.2795        35     1.910     1.302  37.08   3
       281    366.6171    288.3694 307.7774265  +6.7678265      1990.97     11100.36     17846.81     95.52637     191.2053     382.8296      3.569    11.21     1300.909     67.49337     356.1783        86     2.650     2.389 -49.07   0
       282    665.7638    289.2977 307.6522813  +6.7772971     649.6104     1720.229     3263.871     95.98307     191.3577     383.0961      3.483     5.00     1291.727     67.49337     100.6672         6     1.559     0.454  -2.00   0
       283    825.1081    281.4972 307.5858987  +6.7857634     5921.986     16921.89     23419.79     95.98307      192.118     382.8296      2.976    10.33     1291.411     67.49337     590.9985        73     2.649     1.926 -82.02   3
       284    829.4890    281.0220 307.5840824  +6.7861040     4442.193     7708.377     8805.818     95.98307     191.2815     382.7534      1.828     5.78     1291.396     67.49337     518.9564        19     1.623     0.765 -66.57   3
       285    974.6873    271.5531 307.5236707  +6.7947882     2401.021     6124.873     7791.771     95.98307     191.3577     382.9438      2.740     8.53     1287.193     67.49337     250.8625        46     2.331     1.563 -89.42   2
       286    977.9858    270.7550 307.5223178  +6.7952268     1560.719     2776.264     3188.989     95.22068     191.2815     382.6392      1.829     4.45     1287.063     67.49337     184.2921        14     1.119     0.950 -39.98   3
       287   1017.2125    270.3084 307.5059258  +6.7966972     1152.403     3643.068      4918.86     95.67885     191.2053      379.656      2.920    10.54     1286.112     67.49337     141.1014        29     1.874     1.685 -58.00  16
       288    651.8432    270.0470 307.6587529  +6.7848105     707.0761     1446.706     2535.573     95.98307     191.4339     382.8296      1.937     3.85     1290.395     67.49337     116.3525         5     1.299     0.326 -60.45   0
       289    385.1919    269.5703 307.7702938  +6.7762235     657.2184      1394.21     2446.965     95.37365     191.2815     382.6392      2.884     5.00      1298.94     67.49337      101.078         5     1.095     0.646 -60.21   0
       290    807.4814    261.5049 307.5939444  +6.7934630     1200.315     2176.261     3068.856     95.67885     191.8902       383.02      1.998     3.70     1290.547     67.49337     150.5494         9     0.882     0.801  68.97   3
       291    807.8381    264.9478 307.5936793  +6.7920491     1428.255     3074.318     4218.112     95.67885     191.5861     382.9058      2.274     8.04     1290.692     67.49337     166.0024        22     1.729     1.046  27.90   3
       292    811.7446    263.0414 307.5921095  +6.7929667     1098.738     2494.798     3769.845     95.83108     191.4339     382.9058      2.760     7.38     1290.583     67.49337     154.6647        14     1.857     0.821  76.27   3
       293    758.0459    258.7527 307.6147139  +6.7929787     1069.345     3240.615     5161.941     95.98307     191.3577     382.9438      3.327     9.63     1290.202     67.49337     139.1384        21     2.483     1.042  80.73   2
       294    762.5195    257.8192 307.6128743  +6.7935123     1036.228      2689.19     3670.707     95.52637      191.129     382.8296      2.773     6.47     1290.176     67.49337     143.6903        13     1.480     0.795 -57.36   3
       295      1.4148    258.6216 307.9311697  +6.7680694     714.6931     1273.153     1278.372     84.68737     153.4818      289.615      2.065     5.53     1322.377     67.49337      127.712         8     1.345     0.641 -85.05  24
       296    114.9518    248.7069 307.8840230  +6.7759337     5801.144     29655.24     46238.93     95.83108     191.3577      383.058      3.514    11.54     1317.206     67.49337     1006.777       113     2.704     2.475 -69.42   0
       297     13.0067    245.2925 307.9267745  +6.7739724     922.7685     2273.627     4157.833     95.52637      191.129     382.6773      3.455     6.89     1322.593     67.49337     129.4681        11     1.663     0.800 -77.98   2
       298    694.3971    243.3101 307.6418561  +6.7972810     659.7368     1447.119     2853.975     95.22069      191.129      382.563      2.466     4.00     1288.962     67.49337     109.2841         6     0.993     0.461   2.03   0
       299    668.2818    235.6062 307.6530390  +6.7996122     1083.827     3114.743     4037.665     95.52637     190.9764     382.6392      2.749    10.30     1288.274     67.49337     163.9199        27     2.272     1.303 -48.53   2
       300    663.9088    234.6836 307.6548992  +6.7998504     899.0398     2360.613     3203.402     95.67885     191.8902      383.058      2.772     8.67     1288.142     67.49337     134.3716        16     2.070     1.014 -80.16   3
       301    752.3326    229.7572 307.6180806  +6.8047973     1117.887     4165.826     6042.617     95.98307     191.4339     382.9819      3.257    11.84     1288.712     67.49337     161.2017        35     2.123     1.838 -17.04   2
       302    329.4819    215.7764 307.7954143  +6.7966592     4666.742      16157.2     27163.09     95.83108     191.2053     382.8296      3.593    11.50      1300.35     67.49337     572.7552        90     2.905     2.362 -51.19   2
       303    326.9816    211.4870 307.7966052  +6.7983527     3574.265      5374.63     6575.449     95.67885     191.2053     382.7534      1.640     4.46     1300.592     67.49337     435.5093        14     1.307     0.778  22.69   3
       304    421.2935    207.1259 307.7573063  +6.8032705     4122.269     22109.84     36763.05     95.83108     191.6622     382.8677      3.649    11.62     1292.111     67.49337     695.2365       115     2.756     2.570 -51.10   0
       305   1017.8839    207.1406 307.5077677  +6.8228758     871.4191     2070.046     2990.619     96.28634     191.5861     374.8259      2.603     7.99     1282.262     67.49337     124.6779        14     1.937     0.922  76.83  16
       306     96.4190    209.3974 307.8931075  +6.7915967     719.0159     1502.569     2593.098     95.52637     190.9764     382.6011      1.952     5.01     1319.839     67.49337     109.9742         7     1.597     0.445   7.62   0
       307    151.8987    196.3344 307.8703467  +6.7988412     13236.84     66270.76       106112     95.98307     191.5861     382.9058      3.574    10.80     1316.027     67.49337     2222.289       146     2.782     2.578 -62.39   0
       308    642.0202    197.2588 307.6653169  +6.8146270     786.5255     2339.275     4626.637     95.52637     191.3577     382.6773      3.752     6.06     1285.941     67.49337     116.4948         9     1.312     0.787 -43.29   0
       309    793.8721    196.2591 307.6018343  +6.8200328     804.3518     2283.753     3616.662     96.13483       191.51     382.8677      3.413     6.17     1286.811     67.49337       154.46        11     2.270     0.472 -24.14   0
       310    460.2140    190.9106 307.7415755  +6.8112681     855.7855     1910.067     3353.136     95.67885     191.2815     382.7534      2.178     2.89     1287.851     67.49337     131.1979         5     0.791     0.428  70.25   3
       311    461.5342    187.4818 307.7411392  +6.8127313     1026.848      2881.59     4622.618     96.28634     191.8142     382.9819      3.166     9.23     1287.427     67.49337     151.1498        17     2.374     1.002  33.69   2
       312    863.7806    185.3340 307.5729605  +6.8268520     2206.413     8189.625     10956.45     95.52637       191.51     382.7915      3.087     9.25     1285.869     67.49337     306.4163        62     2.238     2.095 -88.55   0
       313    523.9581    181.8026 307.7152210  +6.8171401     1254.619     5916.446     8646.489     95.22068      191.129      382.563      3.387    14.09     1285.221     67.49337     186.6605        64     2.414     2.285 -52.86   0
       314   1006.1796    182.3982 307.5134950  +6.8327376     734.8369     1541.925     2994.935     95.52637      191.129      382.563      3.703     5.53     1281.739     67.49337     98.80579         7     1.238     0.696 -72.07   2
       315    123.5389    178.9359 307.8827982  +6.8051070     1596.215      5347.27     7426.004     95.98307       191.51     382.9438      3.116    11.84     1318.688     67.49337     217.5304        43     2.526     1.620 -52.32   2
       316    120.1863    175.9432 307.8843019  +6.8062353     1107.836     2015.201     3215.151     95.22068     191.3577     382.5249      2.185     5.63      1319.01     67.49337     157.3052        12     1.470     0.608 -36.11   3
       317    895.2327    173.6460 307.5601978  +6.8327239     928.1247     2236.918     4014.895     95.67885       191.51     382.7915      3.595     6.18     1284.107     67.49337     120.2684        10     1.355     0.792  -8.27   2
       318    769.0358    170.3293 307.6130966  +6.8299538     2782.065     8034.195     11336.31     95.83108       191.51     382.9438      3.032    10.09     1284.984     67.49337     323.7755        59     2.915     1.407 -86.24   3
       319    772.6947    170.4836 307.6115609  +6.8300102     2606.595     6065.851     8317.408     95.83108     191.9661      383.058      2.629     8.38     1285.007     67.49337     271.9502        34     2.528     0.967 -82.92   3
       320     31.9259    195.5587 307.9205506  +6.7951915     5020.885     25626.93     40355.41     95.83108     191.5861     382.9438      3.548    10.61     1322.834     67.49337     939.2701       106     2.691     2.423 -55.93   0
       321    107.4297    146.3844 307.8906402  +6.8180521     2252.089     7148.357     11891.74     95.52637     191.2053     382.8296      3.486    11.66     1319.816     67.49337     340.3315        68     2.622     2.412 -47.69   2
       322     89.4430    143.4773 307.8982620  +6.8186605     797.4469     2614.585      4800.55     95.83109       191.51     382.9438      3.713    10.48     1320.483     67.49337     139.5018        17     2.317     1.322 -34.78   0
       323    640.6475    137.3532 307.6679123  +6.8393871     765.4604     1748.376     3708.003     95.98307     191.3577     382.9058      2.360     4.64     1283.743     67.49337     108.9436         7     1.354     0.452  89.27   2
       324    944.8585    134.9615 307.5407407  +6.8503700     907.3253     2747.969     4072.319     95.98307     191.5861     382.9819      3.186     9.24     1280.086     67.49337      132.696        15     2.019     1.181  68.79   0
       325    637.9734    141.0547 307.6689060  +6.8377664     879.2136      1587.67     3519.361     95.52637     191.5861     382.7154      2.095     4.04     1283.879     67.49337     174.9832         7     1.230     0.607   8.29   2
       326    454.0124    131.9857 307.7461614  +6.8354625     782.5007     2006.475      3350.35     95.83108      191.129     382.8296      3.207     6.22     1286.133     67.49337     102.8785         8     1.558     0.697 -61.32   2
       327    927.9031    130.2997 307.5479901  +6.8517443     915.3607     2207.972     3227.943     95.98307      192.118     382.7154      2.795     7.00     1279.922     67.49337     108.8796        13     1.474     0.931  32.93   0
       328    859.7947    126.0987 307.5766219  +6.8512491      992.935     3624.286     5777.028     95.67885     191.0527     382.4868      3.388    10.95     1281.646     67.49337     138.8068        24     2.294     1.455 -22.81   3
       329    186.5569    123.5495 307.8583184  +6.8301247     1065.089     3949.057     7099.393     96.13483       191.51     382.9438      3.744    11.89     1316.224     67.49337     187.9758        34     2.702     1.457 -31.16   2
       330    809.6710    122.8681 307.5976978  +6.8509412     2919.856     7343.744     9364.993     95.98307     191.6622     382.8677      2.660     9.15     1282.313     67.49337     326.8785        52     2.539     1.461  89.91   3
       331    813.7706    122.2591 307.5960034  +6.8513280     2220.307     4075.234     4385.719     95.67885       191.51     382.8296      1.994     7.61     1282.183     67.49337     293.4602        22     2.181     0.757 -84.09   3
       332    869.0663    121.6908 307.5728918  +6.8533787     3253.601     12317.23     16945.62     95.98307     191.6622     382.9438      3.161     8.64     1281.141     67.49337     429.6427        70     2.285     2.088 -50.19   0
       333    175.1936    118.7582 307.8632338  +6.8317328     873.5222     2266.862      5312.92     95.37365      191.129      382.563      4.314     5.38     1316.939     67.49337      133.723         9     0.940     0.868  54.44   2
       334    205.2010    118.2603 307.8506994  +6.8329311     2069.726     4386.215     5120.049     95.22069     191.2815     382.5249      2.200     8.28     1315.217     67.49337     245.0267        26     1.875     1.032  18.92   3
       335    209.3242    115.6449 307.8490634  +6.8341504     2410.345     3988.606     5466.906     95.83108     191.5861     382.9438      2.055     5.32     1315.015     67.49337     314.5236        20     1.587     0.832 -75.37   3
       336    204.7576    113.3262 307.8510521  +6.8349595     1932.788     4656.879     5981.376     95.83108     191.5861     382.9438      2.808     8.39     1315.277     67.49337     195.6877        34     1.947     1.446 -20.15   3
       337    222.9204    111.5273 307.8435159  +6.8363048      6870.78     34995.51     55752.28     96.28634     191.8142     382.9058      3.563    10.96     1314.303     67.49337     1161.646       125     2.746     2.550 -55.79   0
       338    288.4890    110.6092 307.8161209  +6.8388514     602.6744     1393.935     3000.491     95.52637      191.129     382.6011      3.045     5.25     1310.928     67.49337     101.7924         6     1.298     0.599 -22.59   0
       339    193.0496    107.5438 307.8561453  +6.8369666     1424.838     3972.369     6028.199     95.98307       191.51     382.9819      4.364    11.62     1315.973     67.49337     221.4906        37     2.600     1.446 -49.50   2
       340    189.2124    105.0364 307.8578353  +6.8378780     1197.791     2757.248     5205.365     95.37365     191.2815      382.563      3.538     7.88       1316.2     67.49337     128.2172        19     1.931     0.899 -65.50   3
       341    907.1334    101.2010 307.5576574  +6.8631121     1413.127     4476.371     6383.066     95.06747     190.9764     382.6011      3.131    10.72     1278.354     67.49337     166.6515        40     2.012     1.776 -42.35   2
       342    337.5085    100.8142 307.7959482  +6.8445259     2578.552     8411.951     12762.16     95.67885     191.2053     382.6773      3.423    11.10     1304.601     67.49337     299.1798        69     3.071     1.690 -35.12   2
       343    334.9850     97.1709 307.7971271  +6.8459511     2196.411     4406.234     4943.903     95.52637     191.2053     382.7915      2.138     5.72     1305.338     67.49337     241.7449        24     1.639     1.025 -24.89   3
       344     48.4191     88.9130 307.9172730  +6.8398948     62349.07     301495.1       461176     95.67885     191.2053     382.7534      3.460     9.89     1321.789     67.49337     11035.61       208     2.802     2.542 -60.68   0
       345     87.6568     87.2501 307.9009172  +6.8418825     2774.557     7888.661     11524.34     95.98307       191.51     382.9058      3.017     9.13     1319.651     67.49337     335.0111        60     2.651     1.752 -41.54   2
       346     84.7383     83.4236 307.9022678  +6.8433703      1836.87     3362.425     4104.851     95.52637     191.4339     382.7915      1.950     5.83     1319.666     67.49337     230.1554        17     1.404     0.857 -50.14   3
       347    372.3263     74.0132 307.7822912  +6.8567724     4338.797     13656.03     21465.53     95.37365      191.129     382.6773      3.344    11.04     1299.168     67.49337     519.2942        80     2.887     2.122 -46.23   2
       348    369.5049     70.0183 307.7836066  +6.8583335     3727.602     6469.432     8164.541     95.83108     191.2815     382.7154      1.985     4.35     1299.665     67.49337      416.774        21     1.357     1.121 -83.06   3
       349    838.8687     72.5266 307.5871794  +6.8727451     1056.864     2124.216     2913.407     96.13483     191.6622     382.9058      2.444     5.27     1278.379     67.49337     161.3063        10     1.249     0.627 -78.99   2
       350    839.6798     76.6386 307.5867016  +6.8710691     1016.851     2052.091     2997.583     95.83108     191.5861     382.8677      2.648     4.74     1278.634     67.49337     141.2444         9     1.364     0.594 -13.75   2
       351    332.4465     77.3813 307.7988589  +6.8540615     635.5551     1792.046     2883.827     95.37365     191.4339     382.6773      3.369     4.22     1306.057     67.49337     87.97534         5     1.047     0.486   0.57   0
       352    774.0280     70.8002 307.6143621  +6.8713303     2429.085     5945.976       9344.4     95.52637     191.2053     382.6773      3.314    12.31     1279.716     67.49337     264.8921        49     2.821     1.595 -42.04   2
       353    772.4940     67.4546 307.6151166  +6.8726653     2129.713     4023.894     5039.474     95.83109       191.51     383.1722      2.025     5.54     1279.509     67.49337     252.4841        15     1.304     0.937 -81.02   3
       354    718.7340     64.7853 307.6376957  +6.8720037     529.2244     1561.273     2528.759     95.37365     191.3577     382.8296      3.241     5.41     1280.249     67.49337      90.2959         6     1.258     0.658 -53.33   0
       355    323.3372     58.5605 307.8033065  +6.8615537     1557.745      4737.86     8205.217     95.98307     191.4339     382.9819      3.946    11.57     1307.779     67.49337     187.7233        50     2.784     1.857 -37.96   2
       356    320.1516     55.3798 307.8047468  +6.8627655     1280.948      2751.01     4432.464     95.37365       191.51     382.6773      2.970     6.89     1308.343     67.49337     164.4327        12     1.499     0.887  66.75   3
       357    851.0328     52.7598 307.5827564  +6.8813294     964.2532     2273.399     3425.345     95.67885     191.2815     382.7154      2.603     6.61     1276.603     67.49337      135.608        11     1.923     0.637  34.43   3
       358    854.0057     57.6540 307.5813480  +6.8794004     1246.849     3411.467     4625.773     95.37365     191.2053     382.5249      2.737     8.12     1276.872     67.49337     166.5323        18     1.880     0.980 -49.17   2
       359     41.8563     45.9640 307.9214764  +6.8574606     2452.371     8167.324     12466.15     95.83108       191.51     382.9438      3.336    10.49     1319.889     67.49337     314.3231        66     2.523     2.063 -50.00   2
       360     39.2091     42.7684 307.9226922  +6.8586960     1632.488      2770.45     4421.951     95.37365     191.2815     382.7154      1.823     4.39     1319.836     67.49337     213.8867         8     1.125     0.553 -18.02   3
       361    614.5316   1018.0801 307.6491328  +6.4738403     1397.608     3741.584     4940.213     96.13483     191.8142     372.9545      2.902     7.83      1345.69     67.49337     208.1317        26     1.806     1.387 -69.60  16
       362    327.8147     35.0141 307.8022308  +6.8714511     1330.021     4238.093     7592.014     95.67885      191.129     382.8296      3.707    11.64     1307.312     67.49337     164.5865        39     2.424     1.556 -32.89   2
       363    443.8694     32.6908 307.7537617  +6.8762427      1189.45     3175.951     5937.863     95.98307     191.6622     382.9058      3.704     7.38     1292.017     67.49337     155.1089        17     1.663     0.917  -4.63   2
       364    169.7052   1018.6923 307.8350377  +6.4589225     769.8217     1774.689     2523.732     95.98307      192.118     366.7269      2.280     4.51     1345.907     67.49337     128.9958         7     1.041     0.555 -66.03  16
       365    624.2861     22.7440 307.6786244  +6.8863050     1421.777     2639.693     4014.083     95.98307       191.51     383.0961      2.345     5.03     1280.427     67.49337     186.1384        15     1.274     1.010 -31.04   3
       366    284.2438   1010.8762 307.7874291  +6.4659412     1702.139     4420.613     5867.173     95.83108     191.5861     382.9438      2.849     9.73     1346.626     67.49337     178.9843        30     2.096     1.510  47.58  18
       367    346.0206     26.6544 307.7948980  +6.8755137     1474.429     3538.104     5180.723     95.37365       191.51     382.6773      2.669     8.31     1304.257     67.49337     168.9843        24     1.956     0.986  16.50   3
       368    349.2366     24.0917 307.7936394  +6.8766810     1459.479     3234.545     4994.388     96.13483     191.4339     382.9438      2.793     7.19      1303.75     67.49337     220.3618        17     1.878     0.908  72.64   3
       369     99.4240   1011.0897 307.8646698  +6.4597474     11387.22     32349.13     38438.61     95.98307     191.2815     382.7154      2.671     6.35     1344.974     67.49337     1197.638        83     2.091     1.953 -54.65  16
       370    354.1311   1013.7975 307.7581194  +6.4670373     645.6298     1666.796     1970.928     95.22068     191.0527     382.6392      2.884     3.91     1345.687     67.49337     108.8477         5     0.740     0.699   5.81   1
       371     65.0560   1009.2956 307.8790949  +6.4593536     1487.065     3749.613      4764.84     95.83108       191.51     383.1341      2.571     7.76     1344.052     67.49337      163.903        30     1.745     1.432  76.84   0
       372   1001.2915   1010.6973 307.4877176  +6.4895924      876.504     1574.586     1823.544     95.98307      192.118     382.9058      1.773     3.38     1341.018     67.49337     145.6942         6     1.061     0.492 -43.94   0
       373    827.9862   1010.3177 307.5601720  +6.4840673     710.9279     1517.722     2156.568     95.52637     191.2053     382.6773      2.649     4.55     1342.377     67.49337     101.7334         5     1.014     0.581  72.58   0
       374    127.0671    989.0316 307.8538633  +6.4697947     757.0513     1738.983     2652.963     95.83108       191.51     382.8677      2.289     3.66     1344.807     67.49337     116.9598         5     1.033     0.373  34.28   0
       375    924.6027   1004.7863 307.5199722  +6.4895268     3028.258     6746.206     7003.135     95.52637      191.129     382.7154      2.266     5.12     1340.795     67.49337     396.6401        39     1.652     1.485 -53.45   0
       376    499.1640    996.8259 307.6980717  +6.4788443     647.0993     1305.524     1478.374     95.52637     191.2815     382.6392      1.646     4.69     1344.866     67.49337     90.82983         6     1.548     0.402  31.46   0
       377    396.2778    991.9086 307.7412425  +6.4774905     17189.72     52745.38     64233.09     95.67885     191.8142     382.9438      2.780     6.71     1346.081     67.49337      1693.33        97     2.216     2.033 -44.70   0
       378    604.2031    991.4639 307.6543471  +6.4845216     5277.767     15144.34     17617.31     95.22069     191.2815     382.6392      2.642     6.45     1344.671     67.49337      537.387        63     2.047     1.794 -37.82   0
       379    161.5979    989.7368 307.8394067  +6.4706440     8158.717     24489.03     30167.27     95.22069     191.2053     382.6392      2.777     6.52     1345.258     67.49337     880.1693        81     2.106     2.056  50.54   0
