#   1 NUMBER                 Running object number                                     
#   2 X_IMAGE                Object position along x                                    [pixel]
#   3 Y_IMAGE                Object position along y                                    [pixel]
#   4 ALPHA_J2000            Right ascension of barycenter (J2000)                      [deg]
#   5 DELTA_J2000            Declination of barycenter (J2000)                          [deg]
#   6 FLUX_APER              Flux vector within fixed circular aperture(s)              [count]
#   9 FLUXERR_APER           RMS error vector for aperture flux(es)                     [count]
#  12 FLUX_RADIUS            Fraction-of-light radii                                    [pixel]
#  13 FWHM_IMAGE             FWHM assuming a gaussian core                              [pixel]
#  14 BACKGROUND             Background at centroid position                            [count]
#  15 THRESHOLD              Detection threshold above background                       [count]
#  16 FLUX_MAX               Peak flux above background                                 [count]
#  17 ISOAREA_IMAGE          Isophotal area above Analysis threshold                    [pixel**2]
#  18 A_IMAGE                Profile RMS along major axis                               [pixel]
#  19 B_IMAGE                Profile RMS along minor axis                               [pixel]
#  20 THETA_IMAGE            Position angle (CCW/x)                                     [deg]
#  21 FLAGS                  Extraction flags                                          
         1    932.7420     24.1454 307.5553107  +6.6941202     3739.009     6023.076     6288.538     79.57073     158.5757     316.9623      1.677     4.31     843.8056     55.86422     596.9095        28     1.796     0.819  42.65   0
         2    716.8448     16.8556 307.6452530  +6.6899218     6907.376     11059.11     11780.87     79.44512     158.5127     316.9308      1.653     4.46     847.0358     55.86422     1124.052        34     1.681     0.911  43.41   0
         3    637.1218     16.0645 307.6784012  +6.6875825     3409.252     5663.723     5602.031     79.69614     158.5757     316.8993      1.733     4.70     848.9645     55.86422     506.7507        28     1.779     0.854  40.93   0
         4    393.1127     14.3351 307.7798332  +6.6801230     710.3981     993.5184     649.4511     79.44512     158.7016     316.9623      1.724     5.34     856.5546     55.86422     97.66461         9     1.226     0.657  67.95   0
         5    437.2005     12.2762 307.7615865  +6.6824515     5728.807     9548.469     10044.44     78.68729     157.8814     316.7417      1.741     4.50     853.3658     55.86422     833.6168        33     1.735     0.924  43.43   0
         6     38.1646     11.7775 307.9273766  +6.6692523     7592.623     12852.13     14128.39      78.9407     158.2605     316.7102      1.797     4.58     861.8995     55.86422     1063.704        38     1.776     0.966  44.75   0
         7    684.3983     11.3814 307.6589174  +6.6910975     683.6896     1092.805     1141.141     79.06712     158.0711     316.6471      1.583     4.71     848.3538     55.86422     127.8787         9     1.193     0.615  40.87   0
         8    512.9677      9.6708 307.7301969  +6.6860664     866.6374     1497.278     1405.811     79.31932     158.5127     316.8993      1.648     6.25     849.3837     55.86422     146.6897        11     1.533     0.716  86.51  16
         9    333.7962      7.1982 307.8047166  +6.6810799     11767.92     19719.33     21805.93     78.81409     158.0711      310.597      1.756     4.40     860.4746     55.86422     1702.639        48     1.840     1.066  44.41  16
        10    429.0614      8.0515 307.7651104  +6.6839231     751.8184      1219.57     1706.861     79.44512     158.4497     315.7312      1.820     6.06     853.9924     55.86422     114.8143        11     1.608     0.642  59.96  16
        11    107.4578      7.5035 307.8987352  +6.6733489     2301.893      3782.67     4375.708     79.31932     158.5127     312.9034      1.810     4.66     862.9907     55.86422     385.7396        21     1.617     0.778  45.28  16
        12     98.9826      6.4256 307.9022925  +6.6735088     1414.921     2410.086     2680.095     79.06711     158.3236     304.5906      1.681     4.93      862.876     55.86422     210.8539        14     1.498     0.668  55.48  16
        13    802.2517      6.2552 307.6101259  +6.6971526     986.6151     1518.958     1755.774     79.44512     158.5127     303.1446      1.662     6.11     843.8795     55.86422     141.6337        13     1.416     0.742  41.35  16
        14    400.1934      5.2717 307.7771973  +6.6841029     2071.531     3589.519     3476.703      78.9407     158.0711     292.9928      1.733     4.65      856.097     55.86422     320.2981        22     1.665     0.786  44.55  16
        15    467.8693      5.1786 307.7490845  +6.6864103     496.9392     891.0946     1015.502     79.06711     158.4497      292.071      2.039     4.73     850.6956     55.86422     78.18304         6     1.135     0.559  23.84  16
        16    995.2456      2.0945 307.5300819  +6.7053097     710.4896     1049.917     1109.286     77.14927     136.9483     250.8695      1.396     3.92     836.5988     55.86422     145.8149         8     1.062     0.544  64.15  24
        17    661.4342      1.7680 307.6687815  +6.6942992     8186.009     9811.776      9712.64     73.84227     132.1989     245.3145      1.191     2.84     848.6533     55.86422     1653.139        21     1.169     0.772  19.14  24
        18    826.1563      1.3016 307.6003606  +6.6999964     877.5305      1159.43     1386.501     68.65619     125.4547     238.0838      1.049     2.53     843.3934     55.86422     234.8972         5     0.745     0.423  16.90  24
        19    538.7986      1.2394 307.7197494  +6.6904131     843.7998     1160.948     1038.829     67.33434      124.094     236.5267      1.136     2.38     848.8912     55.86422     238.8336         6     0.919     0.379  13.58  24
        20    605.8647    997.8785 307.6583605  +6.2811091     1219.008     2030.609     2256.564     79.69614     158.5757     316.8993      1.678     4.62     882.6311     55.86422      168.796        13     1.323     0.751  39.34   0
        21    964.7783   1022.3777 307.5085425  +6.2829739     5672.534      9204.64       9861.9     79.19331     143.6395     258.7086      1.744     4.60     875.1628     55.86422     688.0261        32     1.724     1.003  28.85  24
        22    719.8264   1023.2791 307.6101989  +6.2744292     831.7746     1314.887     2074.097      73.7069     131.5931     244.7847      1.840     4.91     881.0998     55.86422     140.4343         7     0.987     0.692  11.01  25
        23    249.1931   1022.5489 307.8055891  +6.2589735     1314.692     1856.001     1837.219      78.9407     141.3972     255.8362      1.490     4.68     884.9431     55.86422     203.6906        13     1.380     0.772  46.64  24
        24    537.2833    996.3781 307.6868809  +6.2794345     4057.221     6838.498     7758.997     79.19331     158.1974     316.8048      1.952     4.41      884.376     55.86422     512.5792        36     1.974     1.003  29.87   0
        25    646.8245    995.7398 307.6414288  +6.2833618     1180.746     1641.894     1546.429     79.06711     158.5127     316.8048      1.489     3.79     881.7445     55.86422      194.885         9     1.107     0.554  42.32   0
        26     71.7497    994.9890 307.8801758  +6.2643939     840.6586     1387.028     1631.468     78.81409     158.3866     316.6471      1.799     5.23     883.6124     55.86422     110.3724        11     1.111     0.805  34.22   0
        27    490.4819    992.8029 307.7064295  +6.2793442      2109.16     3484.467     3669.797     78.81409     158.1342     316.6471      1.713     4.90     884.3734     55.86422       318.75        22     1.645     0.875  38.20   0
        28    924.8096    984.9763 307.5263880  +6.2970865     38707.48     67217.27     73570.33     79.06711     158.3236     316.8048      1.887     4.38     876.2003     55.86422      5123.32        82     1.943     1.262  43.04   0
        29    232.2541    983.2920 307.8139448  +6.2746153     1781.979      2568.49     2481.804     79.31932     158.3866     317.0883      1.580     4.00     884.4145     55.86422     246.0333        17     1.300     0.896  39.98   0
        30    120.7755    982.3708 307.8602515  +6.2712520     451.9684     802.9479     163.2863      78.9407     158.3866     316.7733      1.477     3.43     883.3185     55.86422     70.62683         5     1.188     0.286  54.79   0
        31    631.3486    981.6436 307.6483270  +6.2886653     748.5574     987.5701     899.7095     79.57073     158.4497     316.9623      1.452     4.36     881.8074     55.86422     146.5014         9     1.109     0.614  50.02   0
        32    822.7966    978.7563 307.5689465  +6.2962524     2044.714     3380.582     3910.472     78.81409     158.1342      316.584      1.794     4.34     877.3017     55.86422      282.028        19     1.436     0.854  49.70   0
        33    771.0023    976.5485 307.5905226  +6.2954352     6232.639      10580.3     11981.89     78.81409     158.1342     316.5209      1.817     4.29     878.5812     55.86422     840.0955        35     1.759     0.969  48.19   0
        34    240.3833    975.5291 307.8108321  +6.2780937     1286.046     2010.199     2164.615      78.9407     158.4497     316.8363      1.704     5.41     884.3348     55.86422     202.7264        15     1.531     0.775  48.32   0
        35    205.0776    975.6666 307.8254833  +6.2768518     840.0448     1511.188     1556.297     79.57073     158.5757     316.8993      1.845     5.26     883.9572     55.86422     142.2781        11     1.250     0.827  45.44   0
        36    557.5435    975.5303 307.6791714  +6.2887212     993.1697     1615.629     1382.431     79.57073     158.5127     316.8993      1.753     4.38     883.3304     55.86422     187.2114        10     1.251     0.602  46.65   0
        37     65.2542    973.5977 307.8835949  +6.2730085     2629.183     4337.751     4599.278     78.81409     158.3236     316.5525      1.793     4.08      883.266     55.86422     347.2606        27     1.629     0.939  44.48   0
        38    959.1221    971.6485 307.5125897  +6.3037338     6018.431     10408.76     11445.46     79.44512     158.5757     316.8993      1.876     4.32     874.6199     55.86422     726.6312        40     1.815     1.076  40.21   0
        39    214.5325    967.2397 307.8218429  +6.2806489     541.9995     967.7379      1240.66     79.31932     158.4497     317.0254      1.951     4.91     883.9604     55.86422     100.7712         5     1.029     0.663  14.09   0
        40    641.9445    966.1289 307.6444496  +6.2954262     558.3716     576.1782     557.0533     79.31932     158.4497     316.8993      1.406     3.88     881.3163     55.86422     90.82324         6     0.964     0.449  38.44   0
        41    932.9858    963.3424 307.5237185  +6.3062926      1874.72     3180.326     2923.402     78.81409     158.3866     316.6156      1.802     5.16     875.3363     55.86422      240.092        24     1.729     0.918  37.22   0
        42    792.6085    959.8949 307.5821117  +6.3030335     1172.057     2061.127     2011.089     79.19331     158.1342     316.6786      1.904     5.87     877.5186     55.86422      141.702        17     1.536     0.754  43.32   0
        43    653.6140    959.2081 307.6398376  +6.2986741     4228.198      6934.08     7613.402     79.06712     158.2605     316.7733      1.773     4.55     880.9827     55.86422      612.461        27     1.654     0.865  44.41   0
        44    265.8149    959.3910 307.8008194  +6.2856110     4175.005     6702.157     7138.001     79.19331     158.2605     316.8048      1.720     4.29     884.3315     55.86422     599.4182        28     1.655     0.887  46.08   0
        45    475.7186    957.7800 307.7137368  +6.2933121     1051.613     1847.459     2129.957     79.19331     158.1974     316.8678      1.923     4.46     883.5469     55.86422     165.1085        13     1.317     0.670  46.42   0
        46   1002.8618    957.9598 307.4948895  +6.3108439     638.9871     1029.556     1298.916     79.44512     158.5127     316.9939      1.633     3.86     872.9771     55.86422     88.77167         5     0.817     0.521 -30.72   0
        47     34.6390    956.8026 307.8968711  +6.2789142     2022.581     3503.548     3494.297     78.56026     158.2605     316.6471      1.842     4.76     882.7275     55.86422     265.6815        21     1.542     0.855  41.77   0
        48    885.5679    955.8655 307.5436547  +6.3077991     903.9862     1334.305     1298.598     79.31932     158.5757     316.8993      1.682     4.66     875.8491     55.86422     110.1923         8     0.936     0.659  32.25   0
        49    956.9033    952.9333 307.5141377  +6.3113882     647.5649     984.9209     765.3726     79.44512     158.5757     316.9623      1.647     5.19     874.3387     55.86422     89.25879         7     1.210     0.628  57.73   0
        50   1008.0003    950.0000 307.4930227  +6.3143020     503.2639     1221.051     1298.321     78.68729     158.0079     316.6156      2.284     3.38     872.8415     55.86422     93.90765         4     0.717     0.462  -0.01   2
        51    578.3497    951.5226 307.6713413  +6.2993310     1618.322     2585.158     2563.181     79.44512     158.5757     316.8993      1.737     4.96     882.1873     55.86422     266.6017        18     1.592     0.842  34.13   0
        52    617.4211    947.9142 307.6552424  +6.3021278     1104.946     1985.345     1925.808     79.31932     158.2605     316.8363      1.693     5.89     881.4199     55.86422     166.7119        15     1.562     0.662  44.27   0
        53     66.8520    948.4611 307.8837811  +6.2834417     737.2021     1236.231     1387.565     79.44512     158.4497     316.9308      1.854     4.03     882.7849     55.86422     115.4596         6     1.011     0.460  52.58   0
        54    297.3945    945.9241 307.7881640  +6.2922314     1237.491     2150.073     2530.304     79.06711     158.0079     316.7733      2.895     5.65     884.5336     55.86422      207.763        15     1.727     0.662  47.41   0
        55    565.5726    944.4680 307.6768828  +6.3018167     560.8539     1085.159      1232.16     79.06712     158.3866     316.8363      1.895     5.58      882.156     55.86422     87.83911         8     1.065     0.826  34.00   0
        56    764.5361    942.2402 307.5943584  +6.3093867     796.9243     1228.774     1273.209     79.44512     158.4497     316.9939      1.592     5.13     878.0933     55.86422     130.7253         9     1.249     0.636  51.84   0
        57    901.9489    938.6133 307.5374323  +6.3154696     6339.215     10747.39     10985.04     78.81409     158.4497     316.6786      1.781     4.45     875.1054     55.86422     864.5504        37     1.774     0.987  46.14   0
        58    140.0661    940.5715 307.8536554  +6.2891601     526.7745     894.8829      527.766     79.19331     158.4497     316.8678      1.476     4.25     883.0609     55.86422     94.64764         5     1.096     0.471  61.58   0
        59    437.7242    935.5954 307.7302565  +6.3012004     1981.787     3294.487     3449.428     79.06712     158.0079     316.7733      1.715     4.28     883.0171     55.86422     316.6512        20     1.616     0.798  45.96   0
        60    339.4243    934.0660 307.7711159  +6.2985375     8811.909     14569.27     15711.44     79.06711     158.5127     316.8678      1.752     4.41     884.5214     55.86422     1179.077        39     1.715     1.014  45.97   0
        61    259.5505    932.9787 307.8043107  +6.2963072     6448.028     10759.78     11282.65      78.9407     158.5757     316.8048      1.727     4.33     884.0409     55.86422     966.7063        35     1.715     0.952  43.07   0
        62    587.4417    927.5319 307.6683734  +6.3095418     1106.266     1730.685     1516.042     79.31932     158.4497     317.0254      1.581     5.29     881.4175     55.86422     152.2571        14     1.431     0.761  44.92   0
        63    772.7436    927.3566 307.5914505  +6.3158068     546.3604     801.9366     887.3189     79.31932     158.5127     316.9308      1.225     3.47     877.5558     55.86422     91.35059         5     1.182     0.294  53.99   0
        64    917.5353    923.6201 307.5314639  +6.3221807     1042.372     1913.871     2601.592     79.06712     158.5127     316.7733      2.141     6.68     874.4899     55.86422     141.8536        15     1.516     0.825  37.19   0
        65    149.4794    923.6904 307.8503177  +6.2964470     550.0305     929.7498     1440.081     79.19331     158.7016     316.9939      1.946     5.59     882.9174     55.86422     101.6424         6     1.279     0.690  51.75   0
        66    873.8341    922.4783 307.5496453  +6.3211949     839.5811      1631.79      1850.93     79.31932     158.5127     316.8993      1.975     6.08     875.0869     55.86422     126.6181        12     1.512     0.686  29.05   0
        67    985.8257    919.8698 307.5032376  +6.3260055     665.7496     1142.301     1579.665     79.06711     158.3866     316.8678      1.988     5.94     873.0042     55.86422     97.23218        11     1.555     0.639  61.80   0
        68    847.5380    917.6501 307.5607244  +6.3223114     581.5455     627.4836     565.6044     79.44512     158.4497     316.9939      1.351     5.00     875.5544     55.86422     93.15643         6     0.970     0.729  56.62   0
        69    754.2448    917.0222 307.5994773  +6.3194567      1472.79     2410.381     2676.316      78.9407     158.4497     316.7733      1.719     5.95     877.8348     55.86422     187.8426        17     1.480     0.774  51.16   0
        70    577.6942    917.4767 307.6727582  +6.3133679     677.6518      981.208     893.8719     79.19331     158.6386     316.9308      1.458     4.27     881.2321     55.86422     114.3648         6     1.134     0.459  45.62   0
        71      4.8771    913.9686 307.9106739  +6.2956002     842.1522     1437.574     1576.524     79.31932     158.5757     288.7353      1.745     4.66      881.117     55.86422     134.4161        12     1.280     0.822  51.92  16
        72    985.4224    912.5145 307.5036514  +6.3290294     1163.894     1717.469     1859.555     79.44513     158.3236     316.8363      1.624     5.58     872.7771     55.86422     154.4703        15     1.549     0.726  45.11   0
        73    539.2571    912.7391 307.6888748  +6.3140382      1099.62     1744.728       1554.6     79.57073     158.4497     316.9623      1.661     5.28     881.5496     55.86422     192.0126        13     1.422     0.655  46.25   0
        74    630.1959    913.4179 307.6510983  +6.3167999     534.6994     795.5175      816.314     79.06712     158.0711     316.7417      1.380     4.56     880.4738     55.86422     120.7112         6     1.297     0.455  25.12   0
        75    618.0977    913.1728 307.6561292  +6.3164965     643.7972     1069.857     692.2328     79.57072     158.2605     316.8993      1.605     3.96     880.6622     55.86422     103.2997         6     0.790     0.568  39.13   0
        76    672.5643    910.0154 307.6336231  +6.3196212     2451.096     3970.547     4052.957     79.06711     158.3236     316.7417      1.710     4.73     879.7267     55.86422     338.4402        23     1.611     0.860  47.26   0
        77    212.7590    905.2481 307.8246710  +6.3061874     2097.959     3296.877     3448.954     79.31932     158.4497     316.8048      1.670     4.58     883.1881     55.86422     290.0732        21     1.610     0.862  43.80   0
        78     69.2337    906.1282 307.8842231  +6.3010020     2797.389     4583.675     4278.338     79.31932     158.5127     316.9308      1.681     4.12     882.0939     55.86422     365.2587        24     1.481     0.950  56.63   0
        79    833.5321    906.7990 307.5669031  +6.3263250     878.7507     1202.553     1249.809     78.81409     158.0711     316.7102      1.265     2.72      875.725     55.86422     161.3387         8     0.837     0.638  34.17   0
        80     86.6488    905.4617 307.8770161  +6.3018627     1959.009     2981.236     2698.239     79.44512     158.4497     316.9939      1.621     4.17     882.3771     55.86422     287.0787        19     1.467     0.867  42.31   0
        81    950.7869    905.3981 307.5182694  +6.3308139     740.7627     978.4404     980.2351     79.06712     158.1974     316.7102      1.433     5.27     873.3872     55.86422      108.965        10     1.306     0.601  52.15   0
        82    246.7419    901.9114 307.8106760  +6.3087060     717.3079     1069.358     655.6415     79.44512     158.4497     317.0569      1.345     4.29     883.6882     55.86422     150.2059         8     1.428     0.456  51.37   0
        83    351.7996    901.2676 307.7670838  +6.3124960     894.0421     1332.382     1569.027     78.68729     158.0079     316.6786      1.819     5.29     883.7922     55.86422     123.3942        11     1.313     0.603  57.41   0
        84    804.5488    900.2685 307.5791551  +6.3280545     837.9337      1289.27     1271.832     79.31932     158.3866     316.8678      1.641     6.21     876.2648     55.86422     114.7838        10     1.291     0.839  56.42   0
        85    667.1155    899.1754 307.6362494  +6.3239154     6787.405     10736.61     11660.62     79.31932     158.2605     316.8363      1.655     4.08     879.5577     55.86422     1007.468        33     1.641     0.927  44.07   0
        86     27.3971    897.8049 307.9018719  +6.3030321     1201.823     1660.902     1782.062     78.81409     158.1342     316.7733      1.529     4.89     881.2856     55.86422     160.9559        13     1.260     0.700  51.20   0
        87    904.9732    895.5447 307.5376202  +6.3333555     2608.154     4460.287     4646.558     79.06711     158.5757     316.7733      1.830     4.31       874.21     55.86422      398.537        27     1.691     0.968  49.65   0
        88     40.1669    895.9676 307.8966329  +6.3042202     896.9584     1375.243     1169.924      78.9407     158.2605     316.6786      1.694     4.82     881.4669     55.86422     154.9682        11     1.219     0.778  47.99   0
        89    350.1173    892.2764 307.7680853  +6.3161523     15325.61     24883.34     26523.91     79.57073     158.8274     317.0569      1.706     4.27     883.5867     55.86422     2190.955        43     1.741     0.982  43.01   0
        90     84.8043    893.0345 307.8782017  +6.3069322      1304.91     2062.439     2200.461     78.68729     158.3866     316.7102      1.514     4.86     882.1335     55.86422     196.6401        18     1.453     0.863  50.11   0
        91    221.1200    891.9424 307.8216491  +6.3119624      1208.62     1703.182     1498.462     79.44512     158.5127     316.8993      1.517     5.07      883.213     55.86422      180.849        12     1.377     0.679  52.91   0
        92    401.2440    891.2714 307.7468939  +6.3182811      679.103     977.8835     636.1613     79.31932     158.5127     316.9623      1.607     4.38     882.6119     55.86422     104.8942         7     1.110     0.492  32.00   0
        93    427.9631    883.3475 307.7360682  +6.3224484      992.815     1639.067     1506.095     79.31932     158.5127     316.9623      1.741     5.49     882.0582     55.86422     146.0546        12     1.217     0.742  45.27   0
        94    113.5421    882.7836 307.8666181  +6.3121309     1565.178     2637.455     2615.188     78.81409     158.4497     316.6786      1.747     4.65     882.2107     55.86422     226.4453        17     1.507     0.769  43.85   0
        95    508.0768    879.4373 307.7029400  +6.3267461     404.9713       915.01     1323.209     79.31932     158.5757     316.9308      2.235     4.73     880.9174     55.86422     98.26147         7     1.780     0.357  28.27   0
        96    681.9242    879.2935 307.6307692  +6.3326204     734.5959     1377.633     2485.289     79.31932     158.7016     316.9308      1.542     4.77     878.7203     55.86422     127.8047         8     1.443     0.446   3.77   0
        97    895.3868    877.1671 307.5422162  +6.3406247     1724.997     2794.412      2917.49      78.9407     158.2605     316.8363      1.838     5.36     874.0914     55.86422     265.6263        19     1.721     0.718  39.84   0
        98    866.1817    876.9822 307.5543478  +6.3397270     1811.039     3005.708     2661.653     79.19331     158.1974     316.8678      1.644     5.13     874.6609     55.86422     256.6357        18     1.475     0.802  42.40   0
        99    829.4009    876.2379 307.5696433  +6.3388072     2827.011     4522.487     5356.146     78.56026     158.3236     316.7102      1.805     4.01     875.4144     55.86422      443.824        25     1.609     0.863  40.46   0
       100     96.9581    876.3904 307.8737187  +6.3142135     2260.658     3692.495     3923.743     78.81409     158.3236     316.6786      1.694     4.29     882.0096     55.86422     320.1758        23     1.526     0.880  49.15   0
       101    565.2299    867.5361 307.6796123  +6.3335734     318550.5     509304.2       542534     79.19331     158.5757     316.8678      1.736     4.14     880.0045     55.86422     45381.45       187     1.935     1.256  45.32   0
       102    409.5467    870.1116 307.7441597  +6.3272969      7292.22     11685.94     13026.14     79.44512     158.3866     317.0569      1.742     4.27     882.1213     55.86422     1059.508        36     1.651     0.986  43.45   0
       103    653.1567    870.7470 307.6429998  +6.3351880     1158.512     1762.987     2124.476     79.44512     158.5127     316.9308      1.567     3.28      879.112     55.86422     199.1417        10     1.063     0.678  43.42   0
       104    352.7313    868.5098 307.7678011  +6.3260540     12063.92     19065.33     20819.75     79.57073     158.6386     316.9308      1.733     4.19     882.9429     55.86422     1829.344        43     1.781     0.969  41.88   0
       105    903.5883    863.8599 307.5392572  +6.3463934     4880.819     8361.829     9488.009     78.81409     158.3866     316.6471      1.864     4.47      873.692     55.86422     689.4536        34     1.690     1.028  39.71   0
       106    671.0770    864.7944 307.6357598  +6.3382451     3325.783     5231.146      5481.24     79.06711     158.0079     316.7733      1.617     4.11     878.6793     55.86422     533.1431        25     1.621     0.851  44.00   0
       107    742.5885    861.3551 307.6061854  +6.3420547     639.8264     1150.256     1471.584      78.9407     158.3866     316.6471      2.036     4.79     876.5421     55.86422     135.6038         8     1.409     0.535  34.95   0
       108    645.8858    858.7544 307.6464215  +6.3398972     3231.261     5115.761       5968.2     79.44512     158.3866     316.9308      1.703     4.26     878.8175     55.86422     518.1344        23     1.552     0.816  44.25   0
       109    834.6865    858.2704 307.5680516  +6.3464031     1612.101      2294.32     2164.266     79.57073     158.7645     316.9623      1.510     3.99     875.0135     55.86422     242.7776        14     1.335     0.643  44.05   0
       110    188.9055    858.4361 307.8361537  +6.3247165     524.7924     1030.944     723.5305     79.57072     158.3866     317.0254      2.592     4.82     882.4961     55.86422     110.3405         6     1.372     0.479  37.25   0
       111    961.4606    857.1885 307.5154530  +6.3510776     810.1017     1170.628     1237.486     78.81409     158.3866     316.6471      1.642     5.00     871.7787     55.86422     123.9421        12     1.376     0.810  55.69   0
       112    636.5828    858.0181 307.6503086  +6.3398902     999.9028     1522.546     2074.448     79.19331     158.1974     316.8678      1.787     3.57     878.9177     55.86422     165.1038         9     1.047     0.680  47.90   0
       113    638.8885    853.4019 307.6495065  +6.3418735     2116.923     3283.268     4081.762     78.68729     158.1342     316.6786      1.675     4.11     878.6652     55.86422     356.4165        20     1.505     0.807  48.74   1
       114    922.5555    851.5739 307.5317940  +6.3520993     3060.269     5073.228     5627.872      78.9407     158.5757     316.8363      1.806     4.54     872.9387     55.86422     448.4979        24     1.660     0.854  45.27   0
       115    332.5358    852.1307 307.7767375  +6.3321402     1080.176     1857.737     1755.246     79.44512     158.5757     316.9623      1.852     5.60     882.9854     55.86422     176.8458        16     1.514     0.886  43.89   0
       116    380.7753    847.5327 307.7568652  +6.3356563     2454.379     3680.597     3794.126     79.06712     158.3866     316.8363      1.567     4.37     882.1245     55.86422     387.5854        18     1.528     0.707  42.28   0
       117    516.7129    837.1281 307.7007782  +6.3445063     2958.257     4639.489      4791.61     79.57073     158.7645     316.9308      1.660     4.29     879.9352     55.86422     433.0799        24     1.532     0.896  39.92   0
       118    861.2596    836.0911 307.5577626  +6.3564486     1042.969     1488.302     1708.292     79.31932     158.5127     317.0254      1.541     4.96     874.1152     55.86422     154.4886         9     1.183     0.630  43.04   0
       119    582.4193    835.2307 307.6735622  +6.3474886     824.0746     1082.901     950.2051     79.06712     158.3236     316.8048      1.478     4.24     878.8989     55.86422     136.1887         9     1.161     0.560  39.51   0
       120    563.6421    833.3656 307.6814208  +6.3476306     5849.728     9419.134     10327.11     79.19331     158.5127     316.7733      1.724     4.40     879.2242     55.86422     851.4883        29     1.664     0.869  43.76   0
       121    481.7661    832.4935 307.7154433  +6.3452500     1482.342      2167.82     2261.827     79.57073     158.3866     317.0254      1.629     4.40     880.1523     55.86422     227.5042        15     1.444     0.681  51.20   0
       122    275.4741    833.8563 307.8010436  +6.3377722     605.0044     901.6807     782.3705     79.31932     158.3866     316.8993      1.803     3.51     882.9398     55.86422      95.9704         5     1.223     0.290  36.11   0
       123    570.7936    832.6176 307.6784768  +6.3481787     1223.961      1949.72      2496.95     79.06712     158.2605     316.7733      1.885     3.99     879.0736     55.86422     186.3781        12     1.240     0.637  36.80   0
       124    123.3250    831.5699 307.8642868  +6.3336072     1388.069     2203.774      2182.78     79.31932     158.5757     316.9308      1.733     5.13     881.3931     55.86422     181.6546        15     1.589     0.692  38.33   0
       125    899.4443    831.3210 307.5420685  +6.3596920     1296.897     2106.049     1680.137     79.44512     158.5127     316.9308      1.659     5.55     873.0001     55.86422     202.2147        13     1.518     0.654  35.97   0
       126    699.2463    830.2714 307.6252242  +6.3534425     679.2097     927.7153     637.4893     79.44512     158.5127     316.9308      1.416     3.82     876.7213     55.86422     142.1576         6     0.809     0.517  50.54   0
       127    534.3550    827.2200 307.6937870  +6.3491882     18689.95     30156.17     32221.71     79.06712     158.3866     316.7733      1.703     4.27     879.6446     55.86422     2669.804        50     1.746     1.012  44.91   0
       128    375.5462    828.5613 307.7596754  +6.3433149     695.4567     990.1779     794.7518     79.44513     158.5757     316.9308      1.597     3.10     881.8427     55.86422     132.2581         6     1.163     0.534  43.95   0
       129    948.0573    825.5661 307.5220774  +6.3636893     3460.296     5568.717     6048.021     79.31932     158.5127     316.9308      1.713     4.30     871.4109     55.86422     473.1921        26     1.559     0.938  44.32   0
       130    181.2723    826.7203 307.8403934  +6.3375564     569.6085     944.3109     1030.242     79.69614     158.7645     316.9308      1.733     4.83     881.9005     55.86422     96.09625         7     1.007     0.657  83.58   0
       131    420.6804    823.2103 307.7411172  +6.3470372     697.8203     923.4658     1234.541     79.06712     158.1974     316.7733      1.459     4.60      880.991     55.86422     112.2915         9     1.167     0.571  49.43   0
       132     44.8723    817.6820 307.8973261  +6.3367044     1563.182     2512.329     2368.201     79.69614     158.8274     316.9623      1.786     4.88     880.6545     55.86422     195.1428        16     1.375     0.840  43.92   0
       133    326.9826    815.8614 307.7802657  +6.3469308     3072.284     5187.541     5517.316     79.06711     158.4497     316.7417      1.728     4.47     882.1281     55.86422     445.9028        22     1.628     0.797  44.19   0
       134    792.5231    811.8196 307.5871159  +6.3641775     51965.13     83207.16     88814.81     79.06712     158.2605     316.8993      1.701     4.13     874.8982     55.86422     8109.292        77     1.840     1.066  42.88   0
       135     27.2146    814.0967 307.9047779  +6.3375909     2103.724     3544.675     3984.229     79.19331     158.2605     316.7102      1.786     4.71     880.5669     55.86422     296.7673        21     1.549     0.846  40.67   0
       136    730.9554    813.4527 307.6126237  +6.3614471     652.7619     1014.653     890.2277     79.44512     158.5127     316.9308      1.451     4.96      875.928     55.86422     132.8594         9     1.291     0.539  45.94   0
       137    435.8995    810.6671 307.7352210  +6.3527266     780.2623     990.4795     672.5112     79.44512     158.6386     316.8993      1.487     4.62     880.4894     55.86422      130.233        10     1.330     0.625  41.15   0
       138    249.7009    809.5791 307.8125628  +6.3469321     4774.065     8529.562     10966.88     79.44512     158.3236     316.7102      2.115     4.73     881.9913     55.86422     671.4196        38     1.850     1.080  42.63   0
       139    917.8111    807.0511 307.5352561  +6.3703266     8110.744     13158.49     14408.27     78.81409     158.3866     316.6471      1.686     4.34     871.7922     55.86422     1257.547        40     1.724     1.009  44.39   0
       140    720.8662    806.4103 307.6170492  +6.3640181     20642.05     32607.46     35385.34      78.9407     158.3866     316.8048      1.662     4.78     875.8469     55.86422     3034.901        45     1.735     0.981  49.71   3
       141    714.5754    802.8964 307.6197791  +6.3652590     83806.18     133689.5     144877.3     79.57072     158.2605     316.8048      1.719     4.22     875.7986     55.86422     12970.35        95     1.921     1.117  45.81   3
       142    359.3260    803.6786 307.7672482  +6.3530460     19644.13     31742.18     33884.51     79.69614     158.7645     316.9623      1.744     4.24     881.6714     55.86422     2871.924        56     1.830     1.034  44.46   0
       143    408.6892    803.9793 307.7467435  +6.3545765     1302.788     2278.558     2527.979     79.31932     158.2605     316.8048      1.597     5.67      880.796     55.86422     224.9784        13     1.601     0.570  43.47   0
       144    647.8391    802.8539 307.6474892  +6.3630461     841.8502     1277.721     1892.358     79.31932     158.5757     316.9308      1.672     5.09      876.321     55.86422     110.7358        10     1.444     0.508  52.50   0
       145    421.1955    801.5535 307.7416328  +6.3559973     20820.96     33524.29     35485.05     78.81409     158.2605     316.6156      1.718     4.17      880.548     55.86422     3031.664        53     1.765     1.027  42.63   0
       146    249.1392    787.9821 307.8135247  +6.3558312     747576.3      1781260      2017082     79.06711     158.4497     316.7417      2.369    11.49     881.4045     55.86422      63560.4       630     2.646     2.041  45.79   4
       147    914.6938    798.5004 307.5368371  +6.3737537     6332.326     10185.34     10475.82     79.44512     159.0159     316.7733      1.711     4.49     871.6996     55.86422     878.3591        35     1.729     0.945  45.26   0
       148    887.4496    799.2003 307.5481255  +6.3725561     636.5329     1063.182     1072.386     78.68729     158.0711     316.4894      1.670     4.73     872.6354     55.86422     100.0163         7     0.989     0.641  63.25   0
       149    655.2086    797.4713 307.6446103  +6.3655152     6062.121     9585.091     10396.67      78.9407     158.0711     316.8048      1.674     4.02     876.0207     55.86422     912.1617        32     1.636     0.916  39.99   0
       150    444.1325    795.5333 307.7323125  +6.3592517     1593.703     2559.309     2373.123     79.44512     158.5127     316.9623      1.641     4.75     879.9661     55.86422     259.2254        17     1.638     0.685  44.91   0
       151    169.3603    795.0486 307.8464082  +6.3502345     642.2349     1206.993     1343.527     79.31932     158.5127     316.8363      2.096     5.96      881.282     55.86422     96.55316         9     1.468     0.680  52.09   0
       152    958.2452    800.7371 307.5186793  +6.3742819     1810.293     3127.627     2852.858     79.44512     158.4497     316.9623      1.801     4.73     870.4598     55.86422      232.139        23     1.525     1.049  37.80   0
       153    608.8693    790.0221 307.6641006  +6.3670418     896.5794      1156.85     1320.595     79.06711     158.4497     316.8993      1.522     3.22     876.5888     55.86422     130.8735         8     0.840     0.639  42.49   0
       154    883.3170    789.0938 307.5501803  +6.3765917     653.9958     918.5337      1017.02     79.19331     158.8274     317.0569      1.222     3.53     872.5018     55.86422     137.1202         7     1.012     0.497  44.55   0
       155    690.2794    787.6234 307.6303798  +6.3707540      2421.95     3643.096     3646.948     79.06712     158.1974     316.8993      1.589     3.85     875.4344     55.86422     347.7003        20     1.506     0.778  41.03   0
       156    159.5825    788.4885 307.8506892  +6.3526148     835.8773     1287.316      1252.41     79.19332     158.2605     316.8048      1.759     5.14     881.0607     55.86422      129.994         9     1.400     0.533  39.16   0
       157    134.3032    787.8420 307.8612062  +6.3520325      984.869     1925.077     1820.753     79.44512     158.4497     317.1198      1.973     6.64     880.7786     55.86422     153.4444        15     1.685     0.735  41.36   0
       158    424.1545    784.2277 307.7409879  +6.3632509     50092.87     81750.61     86496.29      78.9407     158.5757     316.8363      1.710     4.35     879.7979     55.86422     7231.596        75     1.815     1.110  42.42   0
       159    967.2797    786.1069 307.5154182  +6.3806245     686.8945     1049.935     1323.113     79.19331     158.7016     316.9939      1.718     4.58     869.8538     55.86422     89.42017         8     1.040     0.728  65.59   0
       160    541.8965    783.2729 307.6921344  +6.3675881       6917.7     10634.13     11171.36     79.06711     158.7016     316.8993      1.615     4.03      878.292     55.86422     1055.907        28     1.569     0.850  46.26   0
       161    458.6942    781.8409 307.7267277  +6.3653936     4338.661     6845.911     7400.036     79.57073     158.4497     317.0254      1.648     4.40     879.2477     55.86422     706.6768        24     1.605     0.832  45.29   2
       162    455.2313    775.3044 307.7283856  +6.3679768     2150.182      3585.52     3927.336     79.57073     158.3236     317.0254      1.792     3.97     879.0549     55.86422     333.9813        21     1.483     0.894  43.06   3
       163    787.0828    779.9504 307.5904442  +6.3771560     10958.67     17674.02      18898.7     79.44512     158.5127     316.9623      1.668     4.06     874.1182     55.86422     1670.442        43     1.751     1.003  43.12   0
       164     16.4988    775.7916 307.9105221  +6.3530475     1026.378      1740.45     2219.624     79.19331     158.1342     316.7102      1.921     5.73      880.512     55.86422     172.4216        15     1.617     0.687  36.83   0
       165    808.8664    774.2437 307.5815910  +6.3802398     1103.721     1609.088     1690.568     79.44512     158.4497     316.9623      1.591     3.43     873.5273     55.86422     172.1067         9     1.003     0.667  69.25   0
       166    144.8584    771.8235 307.8573651  +6.3590016     10801.89     17698.58     19123.55     79.06711     158.5127     316.8048      1.710     4.27     880.5651     55.86422     1619.131        44     1.803     1.013  37.78   3
       167    152.9914    772.0411 307.8539811  +6.3591850     2656.599     4319.459     4586.287     78.81409     158.3236     316.6786      1.736     4.54     880.6207     55.86422     399.3401        23     1.637     0.860  43.74   2
       168    137.0480    769.2355 307.8606952  +6.3598078     2702.741     4535.888     5386.083     79.19331     158.5127     316.8678      1.824     4.05     880.4529     55.86422      423.671        27     1.704     0.972  40.68   3
       169    982.0643    768.4107 307.5098722  +6.3884248     1393.131     2394.404     3290.368      78.9407     158.3236     316.8363      1.902     5.30     868.7961     55.86422     195.8288        16     1.564     0.714  37.63   0
       170    932.6568    768.4531 307.5303857  +6.3867605     6150.548     9578.317     10022.58     79.57073     158.5127     316.9308      1.727     4.25     870.8327     55.86422     906.9323        34     1.686     0.953  42.15   0
       171    688.2061    765.9590 307.6319685  +6.3796308     1534.861     2284.117     2776.665     78.68728     158.1974     316.6471      1.635     4.21     874.8137     55.86422     270.9052        16     1.484     0.653  48.06   0
       172    574.9916    765.3124 307.6789975  +6.3761121     2248.254     3552.558     3875.882     79.06711     158.1974     316.7102      1.621     4.26     876.6943     55.86422     353.3684        22     1.646     0.784  45.34   0
       173    423.3185    765.3187 307.7419719  +6.3710311     1125.988     1852.146      2038.27     79.44512     158.7645     317.0254      1.731     4.48     879.0488     55.86422     162.2841        11     1.345     0.543  42.15   0
       174    137.1573    762.8164 307.8608667  +6.3624621     1846.455     2950.791     3644.216      78.9407     158.3236     316.7102      1.733     4.06     880.3398     55.86422     283.8059        16     1.359     0.735  42.79   0
       175    956.3340    760.0140 307.5208373  +6.3910347     2913.149     4671.422     5201.214      78.9407     158.3866     316.8678      1.703     4.25     869.7222     55.86422     433.5833        25     1.678     0.868  42.65   0
       176    926.7501    760.5916 307.5331018  +6.3898100     2902.138     4627.805       4736.1      78.9407     158.3236     316.6156      1.709     3.65     870.9814     55.86422     437.7839        28     1.652     0.919  39.49   1
       177    679.2723    759.7539 307.6358864  +6.3818946     1315.699     2229.802     2815.939     79.31932     158.5757     316.9308      1.859     4.90       874.69     55.86422      206.004        16     1.562     0.708  54.84   0
       178    987.3992    759.7849 307.5079460  +6.3921646     1765.252     2938.022     3070.145     79.06712     158.1974     316.7102      1.785     4.80     868.3254     55.86422     260.7837        18     1.590     0.728  45.81   0
       179    826.5567    758.0645 307.5747886  +6.3875113     1034.826     1667.607     1615.183     79.44512     158.4497     316.9308      1.526     4.59     872.6744     55.86422      167.845         9     1.227     0.536  44.05   0
       180    902.2742    756.0118 307.5434181  +6.3908850     674.0184     1071.962     1410.187      78.9407     158.1974     316.7417      1.609     4.19      871.326     55.86422      101.024         6     1.202     0.417  54.48   0
       181    251.5874    754.4376 307.8136401  +6.3697649     1774.604     3068.378      3856.91      78.9407     158.3236     316.6471      1.854     4.96     880.5992     55.86422     274.5333        20     1.676     0.806  46.55   0
       182    689.3871    752.1407 307.6319424  +6.3853765     748.5677     1026.924     1192.349     78.81409     158.4497     316.6156      1.378     4.45     874.4088     55.86422     137.3248         8     1.080     0.620  54.94   0
       183    944.9472    750.1948 307.5258944  +6.3947100     947.4855     1286.916     1195.512     78.81409     158.2605      316.584      1.382     3.81     870.0729     55.86422     164.9484        10     1.139     0.574  57.77   0
       184    272.2006    750.2147 307.8052242  +6.3722005     851.5745     1355.178     1599.194     79.06711     158.1974     316.7102      1.535     4.28     880.7281     55.86422     133.9053         8     1.058     0.517  50.69   0
       185    918.6704    749.1360 307.5368406  +6.3942711     1088.365      1620.67     1062.593     79.44512     158.5127     316.9308      1.594     5.70     870.9816     55.86422     138.9911        12     1.422     0.643  49.03   0
       186    167.9174    750.0543 307.8485267  +6.3687654     854.3145     1054.894     649.0573     79.44512     158.5127     317.0254      1.398     3.98     880.1401     55.86422     156.1871         7     0.923     0.491  52.12   0
       187    971.2388    747.7760 307.5150585  +6.3965851     2232.602     3584.057      3637.23     79.06711     158.2605     316.7417      1.588     4.04     868.7359     55.86422      369.658        19     1.609     0.707  40.98   0
       188    691.0776    747.1335 307.6314087  +6.3875007     911.7686     1353.826      1044.98     79.57073     158.5757     316.8993      1.466     4.98     874.2535     55.86422     144.9397         9     1.352     0.518  54.11   0
       189   1012.9625    741.3090 307.4979503  +6.4006458     1647.233     2851.541     3126.158     79.57072     158.4497     316.9623      1.898     4.35     866.3134     55.86422     241.6154        19     1.517     0.804  44.02   0
       190    482.4558    742.4876 307.7181869  +6.3824399     589.8812     866.1893     536.3295     79.44513     158.3866     317.0569      1.520     3.70     877.6769     55.86422     96.40399         6     1.003     0.393  70.61   0
       191    639.6197    741.1174 307.6529769  +6.3882648     714.9113     918.5875     671.2223     79.06711     158.1974     316.8678      1.364     4.96     874.8654     55.86422     107.1513         8     1.178     0.591  70.80   0
       192    814.7711    739.9348 307.5802906  +6.3946046     1080.853     1625.939     1431.805     79.19331     158.5127     316.8678      1.604     4.73     872.3123     55.86422     156.7692        13     1.313     0.829  34.29   0
       193    900.4861    736.9984 307.5447981  +6.3986769     1313.179     2050.308     2095.389     78.68729     158.0711     316.6471      1.815     5.59     870.9839     55.86422     190.1727        14     1.534     0.643  45.25   0
       194    875.0535    732.2512 307.5555175  +6.3997890      805.223     1382.996     1606.465     79.57073     158.4497     316.9623      1.659     4.12     871.0943     55.86422     157.2618         9     1.300     0.527  43.01   0
       195    661.1548    731.7999 307.6443484  +6.3928324      584.268     833.5963     1035.931     78.68728     158.1342     316.4578      1.227     4.79     874.1754     55.86422     91.76239         8     1.032     0.631  57.98   0
       196    857.4155    728.4390 307.5629692  +6.4007748     1443.223     2152.693      2005.25     79.19332     158.3236     316.7102      1.733     5.30     871.2964     55.86422     212.9529        13     1.357     0.659  37.09   0
       197     56.6085    727.2738 307.8955102  +6.3744307     2488.729     4038.774     4331.317     79.06712     158.0711     316.7733      1.678     4.59     880.2145     55.86422     355.8455        24     1.550     0.912  45.42   0
       198    469.4003    727.5291 307.7241113  +6.3881796     464.7245     766.1162     379.8553      78.9407     158.0079     316.7102      1.479     4.12     877.3278     55.86422     82.75708         5     1.159     0.419 -37.02   0
       199    120.6764    726.0773 307.8689505  +6.3770787      912.671     1994.992     2248.592     79.69614     158.7645     316.9939      2.214     7.37     879.7799     55.86422     120.1843        16     2.000     0.761  62.47   0
       200    669.2254    715.8084 307.6415347  +6.3997058     5911.403     9656.392     10088.25     79.06711     158.3236     316.7733      1.695     4.33     873.5217     55.86422     863.2917        34     1.714     0.916  42.79   0
       201    615.9469    714.8695 307.6636887  +6.3983120     1397.913     2335.549     2277.475     79.31932     158.3866     316.8363      1.578     4.72     874.4099     55.86422     236.1049        16     1.613     0.676  43.11   0
       202    537.5742    715.2841 307.6962167  +6.3955186      668.694      733.842     541.2009     79.44512     158.2605     316.8678      1.259     4.84     875.4988     55.86422      131.253         8     1.209     0.550  55.31   0
       203    527.3539    715.8980 307.7004397  +6.3949230     737.8254     1040.651     1157.337     79.44512     158.3866     317.1198      1.797     4.58      875.761     55.86422     115.7924         8     1.078     0.552  41.07   0
       204    132.2199    711.6422 307.8646454  +6.3834273     3393.412     5665.099     5849.953      78.9407     158.3236     316.7733      1.756     4.18     879.5616     55.86422     490.7238        28     1.533     0.994  55.09   0
       205   1006.5229    711.1220 307.5016353  +6.4128969     2434.203     3876.889     3960.922     79.69614     158.7645     317.0254      1.731     4.75     866.4106     55.86422     340.3029        22     1.545     0.858  43.28   0
       206    643.2401    711.5696 307.6524669  +6.4005874     2037.473     3408.314     4068.943      78.9407     158.2605     316.7733      1.821     4.38     873.8376     55.86422      287.732        20     1.600     0.743  45.72   0
       207    318.6418    711.6772 307.7872417  +6.3896720     642.7263     990.0919     1702.679     79.31932     158.5127     316.9939      1.567     4.57     879.0776     55.86422     87.95416         6     1.089     0.545  33.25   0
       208    916.2163    707.7047 307.5392485  +6.4112982     3502.352     5412.729     5856.115     79.19331     158.3236     316.7733      1.623     4.40     869.8356     55.86422     482.2688        27     1.628     0.872  42.86   0
       209    786.0841    707.9125 307.5932769  +6.4068703     18835.52     30338.18     32063.62     79.19331     158.7016     316.9939      1.674     4.32      872.098     55.86422     2863.849        47     1.773     0.970  41.32   0
       210    513.7372    707.9283 307.7063618  +6.3977581     954.5983     1414.239     1362.163     79.44512     158.5127     316.9939      1.493     4.28     875.8249     55.86422     163.3962        11     1.255     0.605  42.97   0
       211    485.3528    708.3314 307.7181340  +6.3966412     1194.755       1621.2     1613.655     79.44512     158.4497     316.8993      1.520     3.60     876.3957     55.86422     206.7167        11     1.263     0.539  41.99   0
       212    331.3309    708.1000 307.7820937  +6.3915748     672.7537     816.9003     939.3453     79.44512     158.6386     316.8993      1.491     4.07     878.7696     55.86422     101.9684         6     1.163     0.406  58.58   0
       213    288.0117    708.1355 307.8000790  +6.3901069     629.2134       880.17     651.7781      78.9407     158.3236     316.7733      1.349     4.47      879.305     55.86422     105.0975         5     1.177     0.483  71.20   0
       214     95.2094    704.0311 307.8802692  +6.3853261      430.015     621.6436     105.7842      78.9407     158.3236     316.7733      0.997     2.45     879.8737     55.86422     119.1013         5     0.780     0.468  35.40   0
       215    666.6593    700.6939 307.6431082  +6.4058614     6766.724     10833.47     11564.45     79.31932     158.5127     316.9939      1.700     4.19     873.0878     55.86422     1068.489        33     1.705     0.885  44.16   0
       216    648.9485    701.9504 307.6504200  +6.4047504     878.0513     1322.646     1834.581     79.57073     158.3866     316.8678      1.514     4.01     873.3978     55.86422     140.7463         9     1.222     0.606  58.36   0
       217    259.6586    701.5278 307.8120743  +6.3918839     5951.648     9216.895     9825.605     79.57073     158.5127     316.8993      1.707     4.02     878.8537     55.86422     930.6188        30     1.638     0.900  45.42   0
       218    362.1861    700.5803 307.7695358  +6.3957147     575.4757     1027.687     1487.229     79.19331     158.2605     316.8363      1.472     3.86     878.1703     55.86422     111.7465         6     1.279     0.334  40.84   0
       219    926.6965    693.6904 307.5353665  +6.4174348      1130.43     1680.718     2018.203     79.44512     158.9531     316.9308      1.858     4.63      869.026     55.86422     195.2847        13     1.334     0.745  45.04   0
       220    738.4402    689.2072 307.6136883  +6.4130034     3586.426     6022.312      6814.87     78.81409     158.1974     316.6156      1.802     4.40     872.0139     55.86422     502.3337        25     1.664     0.859  44.14   0
       221    693.6520    689.6812 307.6322700  +6.4113112     1124.207     1682.686      889.692     79.44512     158.5127     316.9308      1.515     4.91     872.4623     55.86422     180.1489        11     1.379     0.528  48.56   0
       222    943.1970    686.2751 307.5287633  +6.4210471     2255.006     3732.056     3090.255      78.9407     158.0079     316.8363      1.796     4.58     868.2257     55.86422     319.3887        22     1.685     0.835  52.43   0
       223   1004.6835    685.7902 307.5032475  +6.4232964     8321.053     13252.16     14068.39     79.06712     158.1974     316.7733      1.701     4.25     866.4147     55.86422     1301.146        37     1.757     0.924  41.84   0
       224     23.8596    685.5493 307.9105181  +6.3905582     1907.876     3438.573     3756.268     79.44512     158.4497     316.9308      1.970     5.44     880.4809     55.86422     241.5523        23     1.708     0.930  39.36   0
       225     82.0182    680.4543 307.8865431  +6.3946181     23916.09     38925.21     41340.14      78.9407     158.5127     316.7102      1.736     4.22     879.9523     55.86422     3307.417        58     1.832     1.064  44.68   0
       226    557.0889    683.9348 307.6891686  +6.4091171     495.4179     621.4054     1009.177     79.44512     158.7016     316.9308      1.286     3.79     874.4878     55.86422     101.6205         5     0.674     0.611   4.05   0
       227    543.2014    681.4359 307.6950192  +6.4096842     1824.788     3068.044     3290.664     78.56026     158.3236     316.7417      1.813     4.69     874.7278     55.86422     304.2732        20     1.617     0.799  47.30   0
       228    512.0129    678.5962 307.7080651  +6.4098127     1252.256     2103.512     1978.442     79.06711     158.1974     316.8048      1.737     5.51     875.0455     55.86422     196.9303        13     1.543     0.683  43.95   0
       229    933.4971    678.1541 307.5330633  +6.4240772     1023.218     1484.498     1697.383     79.44512     158.3866     317.0883      1.667     3.94     868.1997     55.86422     175.1531        10     1.034     0.715  23.49   0
       230    552.2753    675.0769 307.6914654  +6.4126137     926.1973     1607.816     2192.356     79.69614     158.7645     316.9939      2.083     5.87     874.4108     55.86422     131.3506        12     1.728     0.562  38.12   0
       231    728.0914    672.7690 307.6185377  +6.4194457      3259.63     5156.025     5147.246     79.57072     158.3236     316.9308      1.657     3.97     871.5721     55.86422     548.4803        22     1.563     0.798  42.33   0
       232    750.0172    671.0087 307.6094923  +6.4209051      3721.56     5826.709     5673.149     79.19331     158.2605     316.7733      1.548     4.29     871.3962     55.86422     601.2188        23     1.597     0.772  43.98   0
       233    581.7076    668.9747 307.6794494  +6.4161185     3089.083     4799.216     5012.292     79.57072     158.2605     316.7733      1.643     4.53     873.4814     55.86422     483.0831        22     1.609     0.766  40.68   0
       234    417.6445    669.4915 307.7475561  +6.4104114     1299.639     1943.956     1668.941     79.44512     158.4497     317.0569      1.742     5.53      876.717     55.86422     194.9448        15     1.450     0.729  39.88   0
       235   1022.7369    667.1678 307.4963745  +6.4315879     4621.945     6461.317     6289.312     78.30561     139.3339      253.365      1.509     4.45      865.746     55.86422     684.9568        21     1.467     0.797  52.73  24
       236    988.3519    666.1859 307.5106859  +6.4308478     7520.705     12105.49     12470.56     78.81409     158.4497     316.6471      1.681     4.23     866.5373     55.86422     1039.016        36     1.716     0.932  45.60   0
       237    325.8993    668.2308 307.7856935  +6.4078559     1502.073     2211.879     2090.836     79.44512     158.2605     317.0569      1.539     4.55     877.3588     55.86422      235.517        14     1.342     0.691  33.18   0
       238    242.1917    668.3651 307.8204459  +6.4049915     1746.925     2596.158     2444.776      78.9407     158.3236     316.7102      1.564     4.44     877.5779     55.86422     263.3831        16     1.442     0.713  32.64   0
       239    542.0022    666.4243 307.6960222  +6.4158429     464.2394     696.9965     1145.332     79.06711     158.1974     316.7417      1.481     4.10     874.3296     55.86422     83.05981         5     1.081     0.444  65.28   0
       240    708.4086    664.9089 307.6269748  +6.4220338     978.8076     1628.577      2049.83     79.06711     158.1974     316.6786      1.941     5.67     871.6791     55.86422     136.7586        11     1.314     0.750  40.18   0
       241    146.7934    659.4016 307.8603593  +6.4054886     22607.55     36941.53     39094.95     78.81409     158.1974     316.7417      1.738     4.28     878.5797     55.86422     3220.012        55     1.793     1.049  43.53   0
       242     99.9075    662.8956 307.8797088  +6.4024699     817.3538     1268.787     986.3397     79.44512     159.0787     316.8993      1.662     4.91     879.4983     55.86422     109.3754         9     1.024     0.668  32.09   0
       243    433.7227    660.3597 307.7411876  +6.4147210       2753.1     4598.401     4943.758     79.31932     158.5127     316.9623      1.768     4.29     875.8836     55.86422     375.9865        24     1.560     0.872  39.75   0
       244    651.4279    660.4726 307.6507847  +6.4219612     555.5095     641.7208     696.5799     79.19332     158.4497     316.8678      1.604     4.01     872.2292     55.86422     104.5126         5     1.120     0.577  54.07   0
       245    815.3956    659.8249 307.5827196  +6.4277064     1160.242     1588.452     1782.169      78.9407     158.2605     316.7733      1.517     4.60     870.6794     55.86422     161.7186        12     1.295     0.804  32.10   0
       246    366.3529    654.7136 307.7693518  +6.4147943     567.4866     1176.942     1458.031     79.44512     158.3866     316.9308      2.328     4.86     876.5142     55.86422     85.00769         6     0.909     0.737 -85.14   0
       247    983.3328    649.1414 307.5133412  +6.4377190     6618.331     11029.45     11837.52     79.57073     158.4497     316.9308      1.787     4.72     866.1334     55.86422      922.639        40     1.891     0.938  40.93   0
       248     27.9583    648.2927 307.9100765  +6.4060801     1135.296      1708.18     1592.884     79.57073     158.4497     317.0254      1.523     4.41      880.451     55.86422     168.8967        12     1.268     0.632  35.75   0
       249    576.7843    644.3162 307.6823232  +6.4261362     45385.66     72088.09     76309.95     79.06712     158.1974     316.8363      1.686     4.19     872.9484     55.86422     6657.676        65     1.787     1.038  43.10   0
       250    941.2297    645.8008 307.5309368  +6.4376952      578.491      693.883     618.2444     78.81409     158.3236     316.7417      1.213     3.34      867.161     55.86422      111.384         5     0.931     0.348  42.49   0
       251    536.2872    644.8387 307.6991218  +6.4245651      633.238     937.4836     866.1002     79.44512     158.4497     316.9308      1.660     4.43     873.6469     55.86422     86.46375         7     0.904     0.619  58.90   0
       252    801.9915    644.0044 307.5888166  +6.4337919     660.5299     892.9424     558.2296     78.81409     158.1974     316.7733      1.556     2.86     870.3336     55.86422     125.7385         5     0.930     0.380  26.48   0
       253    507.4073    641.4865 307.7112267  +6.4249825     668.9478     798.0276     923.8209     79.06712     158.1974     316.6786      1.522     5.02     873.8719     55.86422     82.81946         8     0.950     0.749  50.17   0
       254    184.1814    640.8381 307.8454622  +6.4144101     2489.774     4058.115     3843.295     79.06711     158.3866     316.6786      1.632     4.58     877.8091     55.86422     370.9642        22     1.595     0.903  36.27   0
       255    987.3825    640.5535 307.5119472  +6.4414004     648.8988     1117.667     1531.559      78.9407     158.4497     316.6786      2.137     5.66     865.7781     55.86422      89.1322         7     1.587     0.570  42.26   0
       256     77.2475    635.3305 307.8900493  +6.4130904      1445.92     1941.056     2237.001     79.44512     158.4497     316.9623      1.456     3.87      879.316     55.86422     223.2858        15     1.272     0.757  50.44   0
       257    474.0650    628.0803 307.7255232  +6.4294018     58235.12     93618.22     99231.88     79.69614     158.5757     316.8993      1.699     4.22     873.8948     55.86422     8467.692        77     1.812     1.094  43.31   0
       258     17.6577    629.5775 307.9149864  +6.4134615     1570.281     2454.378     2714.758     79.06712     158.5127     316.7417      1.646     4.85     880.7061     55.86422     265.5087        15     1.416     0.690  46.26   0
       259    660.0864    625.4422 307.6483668  +6.4367162     868.9383     1510.171     1388.245     79.44512     158.3866     316.9308      1.728     6.08     871.7208     55.86422     143.5898        11     1.446     0.718  48.30   0
       260    148.5825    622.9719 307.8608472  +6.4205915     1484.455     2321.922      1909.13     79.06711     158.3236     316.8363      1.555     4.25     877.9971     55.86422     234.8174        16     1.514     0.678  44.19   0
       261    944.0943    621.2274 307.5305709  +6.4479382     718.5666     891.4572     802.7926     79.57072     158.2605     316.7733      1.326     3.72     866.4596     55.86422     132.2383         8     1.047     0.506  53.57   0
       262    427.7212    620.9147 307.7450086  +6.4308081     896.0111     1343.896     1414.402     79.44512     158.8274     317.0254      1.485     5.30      874.163     55.86422     133.7639        10     1.545     0.514  45.20   0
       263    620.1890    619.9995 307.6651173  +6.4376295     920.8331     1362.017     1212.792     79.06711     158.1974     316.7417      1.456     4.24     871.9304     55.86422     149.8846        10     1.151     0.587  32.67   0
       264    501.7346    619.3014 307.7143292  +6.4339536     581.3318     1057.374     1480.565     79.44512     158.5757     316.9623      1.331     3.48     873.2209     55.86422     90.86145         5     1.254     0.279  54.99   0
       265    319.6016    617.3613 307.7900240  +6.4286503     1976.728     3428.216     3482.021     78.56026     158.2605     316.6471      1.819     4.55     875.2127     55.86422     287.7917        22     1.571     0.884  45.15   0
       266    472.2892    616.1406 307.7266627  +6.4342727     908.2549     1641.533     2037.002     79.31932     158.5757     317.0254      1.914     4.70     873.5189     55.86422     160.7589         8     1.249     0.503  39.67   0
       267    746.1245    611.6888 307.6131009  +6.4452708     4946.617      7746.61     8386.305     79.44512     158.8274     317.0254      1.680     4.52     870.4354     55.86422     698.6251        27     1.604     0.835  43.07   0
       268   1017.0972    607.5310 307.5007139  +6.4560269     862.9694     1329.392      1167.63     79.31932     158.7016     314.9712      1.380     5.93      863.783     55.86422     136.4462        12     1.578     0.628  47.61  16
       269    799.6843    606.9421 307.5910187  +6.4490195     13131.41     20474.87     21591.32     79.44512     158.5127     316.9939      1.618     4.25      869.238     55.86422     2184.799        41     1.740     0.904  43.10   0
       270    542.0494    606.9716 307.6980034  +6.4403948     1147.516     2108.787     2571.611     79.06711     158.5757     316.8363      2.233     5.84     872.2524     55.86422     184.8704        15     1.680     0.673  56.98   0
       271    623.6189    604.9088 307.6642005  +6.4439758     2730.867     4485.452     4376.106     79.31932     158.2605     316.8048      1.626     3.92      871.601     55.86422       440.78        22     1.627     0.755  46.44   0
       272    940.7908    601.0121 307.5326204  +6.4561759     1065.128     1727.282     2156.274     79.19331     158.3236     316.8678      2.009     5.25     866.0065     55.86422     214.2667        14     1.593     0.641  51.01   0
       273    199.5323    598.9741 307.8405018  +6.4322126     567.9514     895.4016     881.1387     79.06711     158.3866     316.8363      1.874     5.90     876.9467     55.86422     102.9926         9     1.457     0.719  41.74   0
       274    382.4085    598.7805 307.7645704  +6.4384293      840.572     1258.055     1019.354     79.19331     158.2605     316.7417      1.608     4.58     873.8467     55.86422     164.2049         7     1.016     0.586  42.84   0
       275    236.1444    598.5184 307.8253145  +6.4336302     1178.283      1926.05      2186.88     79.44512     158.5127     316.9623      1.563     5.24     876.2833     55.86422     177.8695        10     1.252     0.619  42.03   0
       276    875.7249    590.0481 307.5600082  +6.4585335     2577.026      4252.67     4960.593     79.31932     158.5757     316.9623      1.668     4.36      867.371     55.86422     422.0833        21     1.700     0.714  49.98   0
       277    171.2515    590.4467 307.8525331  +6.4347837      650.967     1148.217     1534.237     79.57073     158.3866     316.9939      1.774     2.76     877.3249     55.86422     104.7955         5     0.708     0.464  19.60   0
       278    834.6305    587.7010 307.5771524  +6.4581315     2451.583     3728.587     4372.385     79.44512     158.2605     316.9939      1.670     4.36     868.1635     55.86422     365.7883        20     1.489     0.758  45.28   0
       279    805.3166    583.6192 307.5894627  +6.4588386     2326.874     3922.848     5180.072     79.06712     158.1974     316.8993      1.868     4.50     868.6526     55.86422      370.592        20     1.584     0.755  49.25   0
       280    748.5529    584.5699 307.6130033  +6.4565504     698.9208     1017.877     735.9606     79.06712     158.5757     316.8363      1.547     4.65     869.5165     55.86422     122.0226         8     1.380     0.445  41.73   0
       281    815.0649    578.8141 307.5855758  +6.4611483     148918.7     236562.5     251868.8      78.9407     158.3866     316.8678      1.678     4.09     868.3386     55.86422     23430.03       119     1.863     1.145  44.52   0
       282    262.4325    582.4371 307.8149413  +6.4411531     7237.373     11536.92     11570.86     79.06712     158.2605     316.7102      1.727     4.24     875.1907     55.86422     1112.534        36     1.734     0.941  44.20   0
       283    622.4084    581.5707 307.6654880  +6.4535726     379.0383     714.5278     616.9569      78.9407     158.3236     316.7102      1.535     3.46     870.8278     55.86422     68.27844         5     1.081     0.319  68.78   0
       284    196.6456    576.9865 307.8424431  +6.4411949     53633.52     89250.18     96148.79     78.81409     158.3236     316.7102      1.774     4.31      876.472     55.86422     8089.274        87     1.847     1.188  42.98   0
       285    744.8361    579.1748 307.6147279  +6.4586542     560.1178      806.265     1043.169     79.06711     158.3236     316.6786      1.605     3.33     869.3676     55.86422     117.5666         5     0.959     0.335  45.34   0
       286    120.6602    573.2012 307.8741233  +6.4402046     5714.008      9648.22     9935.213     78.81409     158.3236     316.6471      1.773     4.44     877.8193     55.86422     808.7244        33     1.684     0.964  40.24   0
       287    985.8130    570.7122 307.5149391  +6.4701888     1156.819     1647.522     1652.616     79.06711     158.3236     316.8048      1.606     4.71     863.7256     55.86422     169.5044        13     1.328     0.680  44.59   0
       288   1007.1988    569.5000 307.5060985  +6.4714020     658.0511     861.4631     662.1579      78.9407     158.1342     316.6471      1.342     4.52     863.0742     55.86422     100.8189         6     0.940     0.661  58.05   0
       289    235.3456    568.4325 307.8266618  +6.4460267     783.1051     1344.917     1544.152     79.31932     158.4497     316.8993      1.970     6.06     875.2291     55.86422      114.116        10     1.211     0.854  49.90   0
       290    851.6420    566.0535 307.5708143  +6.4676385     4152.073     6574.455     6763.659     79.44512     158.5757     316.9623      1.624     4.31     867.2054     55.86422     672.3969        25     1.648     0.782  47.43   0
       291    370.0536    564.1736 307.7708675  +6.4523053     15541.18     25576.16     26846.81     79.19331     158.6386     316.8363      1.733     4.22     873.3369     55.86422     2122.292        51     1.786     1.052  45.16   0
       292    460.6617    564.6460 307.7332254  +6.4551472     737.7562     1244.004     1332.237     79.31932     158.3866     316.9623      1.710     4.43     872.4005     55.86422     117.4504         7     1.030     0.777  67.26   0
       293    171.9147    563.2839 307.8531752  +6.4460223      1747.43     2778.098     3021.249     79.19331     158.6386     317.0254      1.677     4.62     876.9544     55.86422     257.2351        22     1.544     0.890  44.34   0
       294    247.6021    561.3970 307.8218098  +6.4493434     845.9568     987.6734     925.8323     78.81409     158.0711     316.6786      1.396     4.35     874.7726     55.86422     143.1286         9     1.044     0.724  24.34   0
       295    177.8509    560.7338 307.8507964  +6.4472747     702.0095     1264.377     2129.373     79.31932     158.4497     316.9308      1.694     5.40     876.7272     55.86422     113.7704         9     1.277     0.645  50.65   0
       296    109.7328    561.0128 307.8790727  +6.4448702     739.0085     1220.985     1441.231      78.9407     158.3236     316.8363      2.239     3.84     877.8826     55.86422     166.1323         8     1.227     0.466  46.50   0
       297    805.5888    559.4188 307.5901621  +6.4688411     5543.806      8384.25     8890.793     79.06712     158.1974     316.8363      1.647     4.15     868.0856     55.86422     902.9732        29     1.631     0.836  44.47   0
       298    536.4445    559.0687 307.7019431  +6.4599881     6080.497     9768.203     10119.39     79.44512     158.4497     316.9623      1.706     4.40      871.711     55.86422     842.7115        33     1.743     0.907  40.54   0
       299    394.9617    555.8527 307.7608046  +6.4565765     1271.799     1997.324      1938.54     79.19331     158.5757     316.9308      1.604     5.06     872.9741     55.86422     175.7096        14     1.405     0.739  41.52   0
       300    581.2540    552.3430 307.6835613  +6.4642651     2053.207     3752.918     4064.442     79.57073     158.5127     316.9308      1.961     4.26     870.6486     55.86422     277.5555        24     1.346     1.176  43.54   0
       301    183.4427    552.1270 307.8487651  +6.4510166     6211.894     10218.63     10813.65     79.31932     158.5757     316.9623      1.769     4.27     876.3996     55.86422     842.9401        37     1.780     0.954  40.72   0
       302    822.1538    551.6489 307.5835437  +6.4726026     1345.916     2202.041      2644.66     79.44512     158.3866     316.9623      1.923     5.01     867.5397     55.86422     211.5275        15     1.602     0.612  46.77   0
       303    278.6786    548.6727 307.8093346  +6.4556408     80438.48     130802.8     139823.7     79.69614     158.7645     316.9308      1.759     4.21     873.9221     55.86422     11991.95        92     1.863     1.171  42.66   0
       304     55.0819    550.8837 307.9021086  +6.4472150     4655.817     7914.771     8247.616     79.19331     158.7645     316.9939      1.800     4.51     878.3881     55.86422     621.3393        33     1.793     0.912  45.40   0
       305    568.1572    546.5319 307.6891956  +6.4662264     855.7675     1271.886     1573.215     79.44512     158.4497     316.9939      1.728     4.56     870.8892     55.86422     130.2615        10     1.212     0.688  42.80   0
       306    262.4888    543.8394 307.8162206  +6.4570932     1307.561     2161.045     785.0704     79.44512     158.4497     316.9623      1.727     4.39      874.002     55.86422      212.839        15     1.396     0.737  40.70   0
       307    978.1489    542.4993 307.5190673  +6.4815839     1487.493     2477.844     2376.011     79.44512     158.5127     317.1513      1.750     4.67     863.0653     55.86422     229.4108        18     1.435     0.853  34.03   0
       308    801.7917    541.1973 307.5923506  +6.4762388     15313.73     24107.87      25587.3     78.81409     158.1974     316.7417      1.649     4.09     867.7433     55.86422     2398.715        44     1.721     0.956  41.46   0
       309    505.4263    539.5238 307.7154821  +6.4670204     37670.84     64323.46     70645.09     79.19332     158.4497     316.8993      1.885     4.68     871.3903     55.86422     5423.191        81     1.967     1.217  36.79   0
       310    655.9131    537.9530 307.6530409  +6.4727045     775.8969      1360.53     1496.527     79.44512     158.3866     316.9308      1.776     4.88     868.9999     55.86422     114.3337         9     1.280     0.527  50.92   0
       311    217.9658    535.9243 307.8349764  +6.4588667     1630.525     2841.979     2756.029     79.31932     158.5127     316.8993      1.870     4.65     874.5699     55.86422     234.6725        21     1.535     0.925  44.10   0
       312     53.4488    535.8971 307.9032935  +6.4533483     1134.885      1882.37     2192.384     79.44512     158.4497     317.0883      1.915     4.95      878.197     55.86422     201.9088        12     1.522     0.607  46.78   0
       313    665.4473    534.5709 307.6491952  +6.4744199     2718.001      4388.45     4965.117     79.06712     158.5757     316.8363      1.745     4.23        868.8     55.86422     446.0921        21     1.540     0.782  48.58   0
       314    727.7577    533.8733 307.6233420  +6.4767905     1257.951     2414.509     3100.133     79.31932     158.5757     316.9623      2.254     4.84     868.0594     55.86422     205.8614        14     1.531     0.714  47.58   0
       315    675.7781    534.4929 307.6449076  +6.4747975     1414.205     2295.527     2347.778     79.44512     158.3236     316.7417      1.659     5.26     868.6436     55.86422     234.9027        14     1.460     0.649  45.21   0
       316    403.0618    530.2147 307.7583050  +6.4674348     1583.257     2694.966     2780.303      78.9407     158.4497     316.7417      1.757     4.45     872.0358     55.86422     263.0724        18     1.594     0.845  43.96   0
       317     82.4944    531.1243 307.8913938  +6.4562960     632.4341     1395.494     1412.138     79.19331     158.7016     316.9308      2.317     4.36     877.9191     55.86422     119.8193         5     1.011     0.534  51.31   2
       318    334.6462    528.5382 307.7867725  +6.4658329     3620.482     6085.856       6040.6     79.31932     158.3866     316.9623      1.797     4.51     872.4641     55.86422     524.6095        29     1.680     1.012  41.99   0
       319    149.7629    526.9975 307.8635997  +6.4602615     23028.93     38262.43     40705.51     78.56026     158.3236     316.7417      1.728     4.36     876.8546     55.86422     3452.811        55     1.805     1.047  43.94   0
       320    514.4212    527.8139 307.7121410  +6.4721570     1919.423     2952.999     3256.659     79.19331     158.2605     316.8363      1.648     4.52     870.8037     55.86422     302.8276        19     1.537     0.772  49.14   0
       321    877.9135    527.2397 307.5612063  +6.4845430     1418.943     2190.856     2160.624     79.44512     158.5127     316.9308      1.538     4.55     865.3047     55.86422     247.0515        16     1.570     0.674  43.54   0
       322    115.2110    525.4301 307.8780006  +6.4597474     2422.845     3816.399     4220.485      78.9407     158.3236     316.7733      1.682     4.37     877.4111     55.86422      346.499        19     1.553     0.755  46.43   0
       323    351.9873    523.7250 307.7797336  +6.4684021     849.3315     1290.318     1255.645      78.9407     158.1974     316.7417      1.652     4.94     872.1126     55.86422     121.9353         9     1.153     0.600  44.94   0
       324    975.3621    521.6853 307.5209222  +6.4900860     4720.649     7364.735     7423.202     79.44512     158.5127     316.9308      1.668     4.26     862.2118     55.86422     734.4357        28     1.646     0.855  42.65   0
       325    548.7945    514.3296 307.6983203  +6.4788759     1352.988      1971.56     1974.596      78.9407     158.1342     316.8048      1.579     3.88     869.8036     55.86422     208.1945        14     1.298     0.695  53.27   0
       326     14.0344    511.3078 307.9204922  +6.4621756     22953.84     38068.08     41072.37     79.57072     158.3866     316.9939      1.774     4.27     878.3448     55.86422     3148.712        61     1.842     1.096  43.75   0
       327    446.7919    508.2265 307.7408858  +6.4779801      39112.2     63496.16      67300.5     79.06711     158.3236     316.7733      1.720     4.26     870.6187     55.86422     5717.543        64     1.811     1.062  43.35   0
       328    654.8228    507.9335 307.6545030  +6.4850643     11216.83     18124.44     19147.05     79.06711     158.5127     316.8678      1.676     4.16     867.9876     55.86422     1802.067        43     1.735     0.978  43.95   0
       329    295.0383    508.5980 307.8038932  +6.4727379     867.1757     1453.652     1639.426     78.56026     158.2605     316.7102      1.761     3.54     871.5785     55.86422     168.7675         8     1.099     0.548  65.03   0
       330    211.9198    505.7256 307.8385068  +6.4711335      17352.6     29313.04     31754.24     79.69614     158.7645     316.9939      1.826     4.67     873.8764     55.86422     2232.772        54     1.894     1.060  44.02   0
       331    177.7099    506.8192 307.8526761  +6.4695327     1453.573     2476.998     2083.321     79.31932     158.2605     316.8048      1.760     5.46     875.3796     55.86422     212.7366        22     1.735     0.890  49.03   0
       332      1.4780    505.8673 307.9258904  +6.4639995      1944.53     3462.214     5002.192     70.94536     128.2105     240.9193      2.363     6.19     878.4452     55.86422      418.348        25     2.387     0.698  87.68  24
       333    988.9924    506.4964 307.5157705  +6.4968125     1100.907     1551.409     2069.096     79.19331     158.1342     316.7102      1.593     5.02     860.8972     55.86422     172.3859        13     1.418     0.634  48.69   0
       334    829.1454    506.1326 307.5821678  +6.4916317     958.3938      1413.59     1345.328     79.44512     158.4497     316.8678      1.662     4.05     865.8344     55.86422     168.4857        10     1.252     0.527  52.12   0
       335    917.2606    505.4028 307.5455978  +6.4948728      724.225     1277.515     1448.315     78.81409     158.2605     316.6471      1.999     5.57     863.5732     55.86422     122.7548         9     1.417     0.617  31.93   0
       336    576.5518    504.6526 307.6871187  +6.4838009     2757.187     4312.438      4492.09     79.57073     158.4497     316.9308      1.643     4.34     868.9747     55.86422      432.035        21     1.575     0.775  45.92   0
       337    950.5319    501.9874 307.5318945  +6.4973926     4243.218     6739.467     6489.188      78.9407     158.3866     316.8363      1.642     4.34     862.2653     55.86422     679.1741        26     1.601     0.814  44.03   0
       338    623.6548    500.2598 307.6677049  +6.4871907     6034.619     9288.973      10224.7     79.57073     158.4497     316.8993      1.666     4.22     868.1844     55.86422      888.491        29     1.646     0.838  46.81   0
       339    111.4696    500.7653 307.8803880  +6.4698063     1059.578     1668.522     868.2164     79.31932     158.5127     317.0569      1.545     4.20     877.0983     55.86422     167.9827        11     1.216     0.602  46.57   0
       340    535.7886    491.4271 307.7044924  +6.4878979     6896.283     11065.26     11931.72     79.06712     158.3236     316.8363      1.743     4.16      868.787     55.86422     1032.184        39     1.760     0.984  44.17   0
       341    381.8089    491.7304 307.7684282  +6.4826137     2430.176     4057.947     3769.121      78.9407     158.1974     316.8048      1.764     4.33     870.4054     55.86422      339.642        24     1.605     0.895  37.60   0
       342    752.2361    491.6305 307.6145953  +6.4950521      517.017     909.2191     940.1434     79.06712     158.2605     316.7733      1.617     3.38     866.7196     55.86422     92.94525         5     1.259     0.263  55.47   0
       343   1003.7410    490.4905 307.5101815  +6.5039135     485.5296     806.0234     917.7089     79.31932     158.5127     317.0569      1.562     4.44      859.398     55.86422     87.73315         5     1.191     0.471  56.31   0
       344    973.2076    494.2944 307.5227350  +6.5013252      3231.24     5236.097     5398.272     79.06711     158.1974     316.7417      1.686     4.52     860.9831     55.86422       495.02        24     1.634     0.801  42.48   0
       345    892.0613    487.3382 307.5566691  +6.5014920     2880.248     4769.263     5109.512     79.44512     158.5127     316.9623      1.874     5.27     863.5825     55.86422     460.8949        26     1.873     0.825  34.01   0
       346    544.9519    488.5647 307.7007833  +6.4893866     628.8403     1104.757     1283.433     79.19331     158.5127     316.8678      2.665     5.35     868.5536     55.86422     106.9786         8     1.109     0.728  28.44   0
       347    899.7315    481.8855 307.5536665  +6.5039996     2084.902     3168.679     3176.555     79.57073     158.7645     316.9623      1.614     4.04     863.2197     55.86422     354.8358        20     1.492     0.751  39.67   0
       348    939.2465    480.9189 307.5372878  +6.5057164     1127.214     1733.932     1376.789     79.44512     158.5127     316.9623      1.467     4.17     862.0101     55.86422     197.6996        11     1.358     0.680  48.45   0
       349    119.0525    480.9073 307.8779103  +6.4782610     702.9467     1216.416     1310.584     79.31932     158.3866     317.1513      1.565     3.85     876.5583     55.86422     104.2758         6     0.950     0.447  53.03   0
       350    723.7586    477.6617 307.6268915  +6.4998690     2745.858     4358.331     4744.004     79.44512     158.5127     316.9939      1.652     4.40     866.5602     55.86422     461.0599        22     1.541     0.813  46.37   0
       351    277.2115    479.4276 307.8122806  +6.4841849     564.9698     673.1948     724.9481     79.06712     158.3236     316.8363      1.267     3.50     870.3937     55.86422     84.83197         5     0.767     0.461  16.93   0
       352     85.7393    476.7749 307.8918840  +6.4788473      1683.06     2754.724      3112.14     79.06712     158.5127     316.8363      1.697     4.56     877.1808     55.86422     270.3879        19     1.539     0.868  52.01   0
       353    435.0692    476.2223 307.7468325  +6.4908029     974.8526     1491.982     1737.791     79.06711     158.4497     316.8993      1.517     3.96     869.3159     55.86422     158.2563        11     1.191     0.641  52.06   0
       354    622.2915    472.4214 307.6692074  +6.4986407     9208.846     14886.49     16194.34     79.31932     158.3236     316.7733      1.736     4.40     867.2976     55.86422     1376.178        38     1.717     0.965  42.83   0
       355    784.9701    469.0574 307.6017588  +6.5054668     15127.54      24126.5     25955.55     79.19331     158.5757     316.8363      1.652     4.38     865.3713     55.86422     2432.986        43     1.756     0.942  41.64   0
       356    304.7159    469.2898 307.8012006  +6.4892942     2504.579     4081.791     3842.526     79.19331     158.7645     317.0254      1.687     4.84     869.5194     55.86422     361.0839        23     1.718     0.809  49.97   0
       357    394.5254    475.7806 307.7636849  +6.4896263     3359.637     5511.639     5822.008     79.06712     158.3866     316.8678      1.754     4.24     869.5656     55.86422     559.4661        27     1.681     0.898  43.54   0
       358    736.5392    467.7280 307.6219174  +6.5043981     467.9468     739.8751     955.2379     79.57073     158.5127     316.9939      1.393     4.35     866.1776     55.86422     104.4945         5     1.298     0.415  57.48   0
       359    814.2435    466.2744 307.5896946  +6.5075934     1264.105     2100.725      1883.67     79.31932     158.5757     316.9623      1.689     4.23     864.6438     55.86422     216.7783        15     1.402     0.694  48.30   0
       360    387.9068    465.9188 307.7667660  +6.4934766     1518.448     2318.159     2393.773     79.19331     158.7645     316.9939      1.641     5.02     869.0368     55.86422     214.0164        14     1.303     0.753  53.18   0
       361    970.3450    464.1511 307.5249342  +6.5136774     1956.244     2722.521     2770.414     79.44512     158.5127     316.9939      1.457     4.48     859.9288     55.86422     339.2346        17     1.543     0.672  41.10   0
       362    788.7946    464.2853 307.6003307  +6.5075651         1235     2081.088     2346.359      78.9407     158.1974     316.6471      1.812     6.67     865.0631     55.86422      183.262        16     1.546     0.809  42.60   0
       363    122.3876    460.8768 307.8772024  +6.4866443     4095.703     6874.969     7361.932     79.06711     158.1342     316.7417      1.772     4.43     875.6909     55.86422     634.9901        30     1.712     0.894  44.81   0
       364    375.5155    461.6631 307.7720555  +6.4948184     563.0277     917.5222     1027.331     79.57073     158.6386     316.8993      1.917     5.97     868.8573     55.86422     105.8575         8     1.682     0.597  30.45   0
       365    760.4745    459.9876 307.6122367  +6.5083940     2057.208     3147.167     3354.376      78.9407     158.1974     316.7102      1.597     4.74     865.4402     55.86422     337.8055        16     1.486     0.620  45.90   0
       366   1023.1503    458.2630 307.5032003  +6.5178684     2983.376     3906.796     4521.905     75.18253     133.7012     247.0992      1.354     3.95     857.5626     55.86422     504.0754        18     1.281     0.808  62.93  24
       367    280.0824    457.7823 307.8118189  +6.4932193     1230.254     2234.844     2752.749     79.06711     158.1974     316.8993      1.918     5.04     869.5454     55.86422     176.1031        14     1.399     0.701  46.73   0
       368    358.4174    455.5549 307.7793622  +6.4967673     2914.215     5177.063     5462.419     79.06712     158.3866     316.6786      1.878     4.91     868.5873     55.86422     405.8416        29     1.822     0.906  44.66   0
       369    714.3256    453.6039 307.6316175  +6.5094883     1617.054      2638.54     2212.888      78.9407     158.0079     316.8363      1.707     3.96     865.7416     55.86422     241.3638        16     1.375     0.718  38.68   0
       370    988.4283    452.7326 307.5178065  +6.5189952     615.6641      934.089     1466.454     79.19331     158.4497     316.8993      1.475     3.22     858.8399     55.86422     121.9235         7     0.938     0.488  84.11   0
       371    246.0677    451.4317 307.8261592  +6.4946997     774.0341     1289.261     1130.954     79.31932     158.5127     316.8993      1.864     5.40     870.5541     55.86422     90.66949        10     1.370     0.601  40.80   0
       372    555.7721    446.0811 307.6977196  +6.5072919     857.9016     1638.758       1555.6     79.31932     158.3236     316.8993      2.172     5.89      866.571     55.86422      142.692        12     1.740     0.562  32.99   0
       373    478.1407    444.5242 307.7300129  +6.5053352     1368.003     2300.647     2700.023     79.57073     158.5757     316.8993      1.873     5.01     867.0416     55.86422     218.9178        14     1.483     0.628  48.68   0
       374    840.7325    443.5840 307.5794549  +6.5178474      1360.97     2137.556     2545.874      78.9407     158.4497     316.8363      1.759     4.49      863.116     55.86422     252.3079        11     1.450     0.500  47.22   0
       375    826.0973    442.6202 307.5855656  +6.5177570     1893.061     2945.264     3262.512     79.31932     158.3236     316.7102      1.653     5.04     863.3399     55.86422     283.8141        16     1.364     0.734  39.78   0
       376    723.3480    440.6072 307.6283071  +6.5151566     13502.49      21982.6     23853.66      78.9407     158.3236     316.5525      1.758     4.60      865.257     55.86422     2196.112        49     1.995     0.943  45.16   0
       377    644.7120    436.9144 307.6610901  +6.5140528     2386.132     3655.422     4528.896     79.19331     158.7645     317.0569      1.770     4.29     865.6556     55.86422     382.7947        20     1.460     0.818  44.78   2
       378    616.9136    431.9080 307.6728037  +6.5151904     13880.81     25407.77     31759.19     79.31932     158.9531     317.0254      2.234     6.69     865.8164     55.86422     2035.728        66     2.630     1.024  37.33   0
       379    948.7789    430.7981 307.5350093  +6.5267314     3521.849     5679.063     6199.517     79.06711     158.1974     316.6471      1.698     4.59     859.4491     55.86422     603.3763        28     1.769     0.838  47.27   0
       380    387.8791    426.5894 307.7681034  +6.5097161     26139.51     43105.53     45553.57     79.06711     158.2605     316.8048      1.750     4.30     866.8773     55.86422     3694.294        60     1.807     1.104  43.27   0
       381    424.5609    427.9417 307.7528236  +6.5103874     494.4964     800.7986     58.89205     79.44512     158.5757     316.9939      1.441     3.95     866.7283     55.86422     82.49768         5     0.898     0.496  88.96   0
       382    133.8616    426.0625 307.8736142  +6.5014056     2051.789     3533.015     4094.392     79.44512     158.5127     316.9623      1.854     5.18     873.8853     55.86422     269.2079        23     1.664     0.875  43.84   0
       383    903.3694    425.4045 307.5540501  +6.5274444     1324.438     2838.259     3671.351      78.9407     158.3866     316.7102      2.414     7.64     860.6954     55.86422     251.3375        20     2.605     0.627  43.79   0
       384    917.5010    421.1204 307.5483245  +6.5296848         4808     7805.829     7971.449     79.31932     158.8902     316.9623      1.695     4.66     859.9977     55.86422     682.6251        30     1.657     0.882  41.72   0
       385     67.4290    421.4284 307.9013595  +6.5010852     1271.929     2290.578     2984.433      78.9407     158.2605     316.6786      2.072     5.11     876.3367     55.86422     188.4728        15     1.413     0.809  42.42   0
       386    973.6708    419.0965 307.5250631  +6.5323933     540.3377     552.8019     76.38828     79.31932     158.6386     316.9623      1.171     3.04     858.2403     55.86422     123.5598         5     0.905     0.350  44.48   0
       387    245.4556    417.1104 307.8275722  +6.5088514     12527.47     20695.34     21638.57     79.31932     158.3866     317.0569      1.748     4.39     869.3111     55.86422     1674.108        42     1.738     1.020  43.02   0
       388    740.5715    410.9962 307.6221487  +6.5279597     617.0052     1295.497     1967.839      78.9407     158.3236     316.7733      2.521     6.15     863.8954     55.86422     114.2888         9     1.787     0.596  40.41   0
       389     81.2276    411.0836 307.8959790  +6.5058209     804.7222     1246.343     1376.422     79.31932     158.2605     316.8048      1.697     4.04     875.4714     55.86422     112.1643         8     0.971     0.607  32.25   0
       390    968.9312    409.4314 307.5273556  +6.5362265      956.439     1422.598     1457.217     79.31932     158.5127     316.8993      1.779     5.19     857.9658     55.86422     148.1669        10     1.307     0.583  37.64   0
       391    358.3999    406.6269 307.7810195  +6.5169706      1333.37     2127.209      2045.36      78.9407     158.1974     316.7417      1.655     5.23      865.949     55.86422     191.3911        17     1.597     0.734  46.05   0
       392    191.3537    407.2933 307.8503723  +6.5110880     870.6755     1350.152     1117.833     79.31932     158.4497     317.0569      1.738     5.91     871.1361     55.86422     143.8953        14     1.461     0.783  41.81   0
       393    145.6849    405.6406 307.8693943  +6.5102357     4539.456     7355.029     7712.703     79.44512     158.4497     316.8993      1.773     4.30     872.9437     55.86422     602.3511        32     1.694     0.942  42.80   0
       394    443.3665    404.7718 307.7457943  +6.5205852     647.3842     929.1827     519.1547      78.9407     158.2605     316.7102      1.701     3.97     865.2081     55.86422     101.0482         6     0.921     0.490  50.85   0
       395    250.7935    404.7051 307.8257742  +6.5141531     1195.687     1926.614     1977.355     79.19331     158.1974     316.7417      1.685     4.29     868.7922     55.86422      203.439        13     1.302     0.661  40.59   0
       396    167.8463    401.7159 307.8603233  +6.5126012     2224.722     4447.488     5162.476     79.44512     158.5127     316.9623      2.111     4.85      872.048     55.86422     277.6965        31     1.670     1.147  47.16   0
       397    831.7642    402.3846 307.5845626  +6.5345611      820.573     1170.659     1019.475     79.06712     158.3236     316.7417      1.561     3.95     861.5739     55.86422     157.9519         6     0.928     0.481  46.04   0
       398    563.6097    401.3881 307.6959688  +6.5260096     841.5874     1427.563     1491.648     79.19331     158.3236     316.8993      1.981     5.61     864.2916     55.86422     122.8329         8     1.749     0.507  19.78   2
       399    279.6998    397.5515 307.8140107  +6.5180774     662.6008     1149.862     1296.941     79.44512     158.3866     317.1198      1.656     4.78     867.6895     55.86422     121.8968         8     1.678     0.386  57.88   0
       400    391.1808    396.4116 307.7677497  +6.5222882     2022.929     3304.784     3774.633     79.06712     158.2605     316.8363      1.747     4.32     865.2111     55.86422     286.9161        22     1.521     0.879  49.19   0
       401      9.9256    396.7520 307.9260749  +6.5093398     658.8827     1110.747     591.2725     79.31932     158.5757     316.9623      1.597     5.45     877.3898     55.86422      123.705         8     1.435     0.585  58.82   0
       402    980.3079    395.8053 307.5230872  +6.5422325     918.1122     1346.713     2211.281     79.06711     158.1974     316.6786      1.852     3.89     857.0604     55.86422     141.9139        10     1.083     0.731  49.12   0
       403    444.9914    389.9650 307.7456184  +6.5267539     6593.969     10824.94     11215.32      78.9407     158.3236     316.7417      1.702     4.24      864.374     55.86422      879.469        36     1.721     0.968  45.36   0
       404     41.3260    390.4280 307.9132485  +6.5130078      2738.24     4949.699     5286.611     79.31932     158.4497     316.8678      1.978     4.38     876.0337     55.86422     416.1966        32     1.656     1.374  25.01   0
       405    785.6462    387.3420 307.6042222  +6.5392331     11848.23     19089.38     20281.91     79.44512     158.5127     317.0569      1.729     4.34       861.86     55.86422     1847.533        41     1.768     0.931  44.95   0
       406    777.6511    388.9555 307.6074887  +6.5382998     1866.148     3150.335     3947.159     79.57072     158.4497     316.9623      1.821     5.16     862.0619     55.86422     293.7449        20     1.635     0.741  40.60   0
       407    349.0377    385.6229 307.7856162  +6.5253298     912.6689     1431.463     1168.465     79.06711     158.2605     316.7102      1.672     4.61     865.1293     55.86422     130.7968        12     1.212     0.802  49.86   0
       408    961.1290    379.9949 307.5315830  +6.5481220     560.5357      761.782     1304.599     79.06711     158.1342     316.8048      1.722     4.64     856.9836     55.86422     95.29742         6     0.926     0.661  44.11   0
       409    194.3086    378.5731 307.8501153  +6.5230466     817.2549      1338.34     774.0228     79.57073     158.2605     316.8048      1.703     5.68     870.4478     55.86422      130.657        10     1.408     0.646  47.18   0
       410    911.2285    377.7880 307.5523831  +6.5473695     567.3532     874.4266      642.363      78.9407     158.3236     316.8363      1.510     3.38     858.5703     55.86422      115.492         5     0.959     0.345  40.83   0
       411      1.3187    377.4713 307.9303018  +6.5170114     539.2274     929.1818     1372.493     69.23558     126.0899     238.2096      1.662     3.42     876.1143     55.86422     96.79089         5     1.090     0.311  70.58  24
       412    465.4001    374.3325 307.7376689  +6.5338929     2072.545     3581.635      3626.56     78.68729     158.0079     316.6471      1.868     4.39     863.3095     55.86422     291.7697        24     1.551     0.986  42.91   0
       413    493.3407    373.6892 307.7260861  +6.5350946     2886.034     4643.796       4791.1     79.31932     158.5757     317.0254      1.703     4.34     863.0464     55.86422     432.9802        23     1.568     0.850  43.30   0
       414    921.9350    373.3146 307.5480862  +6.5495738     724.9383     1075.686     700.7286     79.57073     158.7016     316.9939      1.505     3.42     858.0325     55.86422     139.9536         7     1.074     0.433  55.50   0
       415    851.0312    370.3011 307.5776371  +6.5484528     30289.88     50399.17     53844.43     79.44512     158.2605     317.0569      1.781     4.25     860.0157     55.86422     4255.625        62     1.831     1.096  48.45   0
       416    343.5616    365.8864 307.7885563  +6.5332959     855.4293     1307.136     1248.628     79.44512     158.4497     316.9308      1.586     5.19     864.4362     55.86422     129.8845        12     1.421     0.648  50.36   0
       417    622.6849    362.6297 307.6727372  +6.5439911     2407.522     3911.169     4383.253     79.44512     158.3236     316.8048      1.855     5.15     861.7084     55.86422     375.8292        24     1.818     0.765  45.40   0
       418     30.9781    362.8603 307.9184788  +6.5240428     1068.989     1768.989     1457.314     79.06711     158.4497     316.8678      1.663     5.46     874.7307     55.86422     133.3005        14     1.298     0.823  49.38   0
       419    707.4753    356.2636 307.6377341  +6.5494550     74195.88     117908.7     125723.5     79.69614     158.5127     316.8993      1.726     4.44      861.025     55.86422     10832.79        85     1.854     1.089  43.15   0
       420    865.5972    357.7602 307.5720080  +6.5541175     1066.756     1586.192     1959.332     78.56026     158.2605     316.6471      1.435     5.16     859.1561     55.86422     177.1415        11     1.486     0.517  43.82   0
       421     86.9171    355.7190 307.8954885  +6.5288736     1135.718     1681.299     1439.245     79.31932     158.7645     317.0254      1.566     5.08     874.0405     55.86422     178.6105        12     1.352     0.635  52.17   0
       422    569.9204    353.0551 307.6949746  +6.5461792     2523.303     4172.554     4516.472     79.57073     158.5127     316.9623      1.721     4.59     861.2026     55.86422     363.3372        23     1.597     0.834  48.80   0
       423    949.6948    353.5820 307.5372178  +6.5586479     821.8718     1212.599     1218.683     79.31932     158.3236     316.7733      1.705     4.86     856.3148     55.86422     124.2635         9     1.217     0.787  68.19   0
       424    107.2229    351.6800 307.8871919  +6.5312242     5586.631     9176.546     10006.66     79.06712     158.1974     316.8993      1.779     4.19     873.5882     55.86422      815.769        35     1.749     0.970  43.82   0
       425    553.1918    349.0846 307.7020563  +6.5472588     6394.618     10448.03      11121.5     79.06711     158.1974     316.7733      1.720     4.21     860.9908     55.86422      879.252        36     1.670     0.987  44.29   0
       426    416.0886    344.2980 307.7591617  +6.5446425     23448.15     39282.41     42022.93     79.44512     158.9531     316.9308      1.790     4.42     862.2945     55.86422     3342.293        59     1.817     1.104  45.91   0
       427    282.2450    346.6937 307.8146703  +6.5391635     2458.733     4155.823     3882.501     79.31932     158.4497     317.0569      1.809     4.57     866.3698     55.86422     374.1808        26     1.705     0.889  38.21   0
       428    523.9046    343.2298 307.7144176  +6.5486959     1222.358     1992.972     1939.918     79.57072     158.2605     316.9308      1.763     5.59     860.8762     55.86422     157.5151        15     1.518     0.756  33.72   0
       429    395.8886    342.1453 307.7676241  +6.5448543     1107.146     2008.337     2914.425     79.44512     158.3866     317.0569      2.663     5.36     862.5676     55.86422     159.9824        15     1.538     0.825  52.14   0
       430    810.8967    336.8557 307.5954299  +6.5609241     742.7045     1310.886     1325.011     79.31932     158.4497     317.1198      2.181     4.87     859.6078     55.86422     128.7693         8     1.502     0.447  48.67   0
       431    647.6267    337.3973 307.6632265  +6.5552447     458.7867     731.1402     535.5651      78.9407     158.2605     316.7417      1.608     3.79     860.0352     55.86422      78.3208         5     1.389     0.297  45.09   0
       432    505.1860    334.7271 307.7224786  +6.5515801     7788.956     12779.57     13396.99      78.9407     158.2605     316.7733      1.724     4.55     860.5825     55.86422     1144.099        36     1.730     0.936  44.86   0
       433    495.2065    339.5981 307.7264595  +6.5492345     1090.169     1914.987     2499.233     78.81409     158.1974     316.7417      1.926     5.18     861.0459     55.86422     156.8959        13     1.409     0.668  38.66   0
       434    774.4853    333.4835 307.6106669  +6.5611007     2931.803     4863.704     5042.695     79.19332     158.7016     317.0254      1.752     4.71     859.6478     55.86422     486.8361        26     1.737     0.801  44.81   0
       435    929.7734    333.4661 307.5461670  +6.5662904     763.2981     1292.415     1379.504     79.06712     158.3866     316.8363      1.958     5.43     856.0494     55.86422     127.6158         9     1.484     0.560  36.10   0
       436    722.1558    333.1635 307.6324130  +6.5594846     683.7227     761.5777     740.5282     79.19331     158.4497     316.8048      1.532     4.50      859.678     55.86422      134.104         7     1.186     0.485  49.00   0
       437    331.9842    331.7850 307.7945152  +6.5469890     1121.873     1685.851     1040.863     79.19331     158.1974     316.8678      1.610     3.98     863.9276     55.86422     168.9692        11     1.158     0.727  34.18   0
       438    167.5168    324.9182 307.8630553  +6.5443017     887.4474     1444.342     1703.891     79.19331     158.7645     317.0254      1.962     5.08     870.7287     55.86422      138.144        10     1.346     0.542  64.39   0
       439    395.0550    318.8271 307.7687565  +6.5544551     6805.133      11379.6     12026.05     79.06711     158.5757     316.7733      1.765     4.43     861.9248     55.86422     941.7924        35     1.716     0.973  50.06   0
       440    762.9630    314.8270 307.6160795  +6.5684198     49887.33     80058.28     84829.58     79.06711     158.3236     316.7417      1.678     4.29     858.7306     55.86422     7820.217        71     1.805     1.057  45.12   0
       441    748.4105    318.7497 307.6219923  +6.5663139     767.9333     1586.837     1703.856     78.81409     158.3866     316.6156      2.507     6.75     858.9344     55.86422     126.2307        11     1.639     0.781  48.53   0
       442    251.0523    319.2831 307.8285509  +6.5494348      1922.93     3059.848     3395.305     79.44512     158.5127     317.0254      1.724     4.56     866.6928     55.86422      286.429        20     1.617     0.797  41.13   0
       443    434.6736    314.3027 307.7524537  +6.5576515     2109.104     3452.374     3554.304     79.06712     158.7016     316.9308      1.700     4.10     860.7032     55.86422     319.5044        24     1.582     0.901  45.77   0
       444    593.9639    315.1212 307.6862649  +6.5626481     500.0199     930.7927     1124.029     79.31932     158.5757     316.9308      1.829     4.00     858.6356     55.86422     89.03137         6     1.018     0.450  39.10   0
       445    997.7351    311.8246 307.5186635  +6.5774926     1525.384     2398.412     2549.184     79.06711     158.5127     316.8678      1.516     4.97     853.1624     55.86422     287.8527        14     1.543     0.593  42.25   0
       446    938.9619    311.0912 307.5431008  +6.5758363     2078.413     3144.107     3195.698     79.57073     158.4497     316.9623      1.550     3.99     854.7156     55.86422     366.9144        17     1.467     0.709  49.33   0
       447    580.7189    311.7493 307.6918797  +6.5635973     1176.314     1801.703     1689.042     79.44512     158.5757     316.9308      1.683     4.39      858.455     55.86422     204.5701        13     1.136     0.943  27.16   0
       448    421.2529    310.0615 307.7581709  +6.5589530     1840.233     2995.263     2551.684     79.44512     158.4497     316.8993      1.702     5.55      860.915     55.86422     266.7195        22     1.748     0.799  46.62   0
       449    471.9246    310.6013 307.7371063  +6.5604282     995.0318     1596.763     2062.273     78.68728     157.9446     316.8048      1.670     4.44     859.5482     55.86422     174.9896        10     1.144     0.632  50.93   0
       450    301.5500    309.6630 307.8079021  +6.5551025     631.9763     837.1368     573.8749     79.44512     158.4497     316.9939      1.468     3.94     864.1211     55.86422     75.52307         6     0.941     0.472   1.10   0
       451    842.5700    304.3913 307.5833639  +6.5753873     1202.861     1789.352      2048.33      78.9407     158.3236     316.7417      1.500     4.16     857.3276     55.86422     223.0632        13     1.306     0.630  40.19   0
       452    471.6006    304.7526 307.7374380  +6.5628325     733.9805     1212.454     1852.979     78.81409     158.1342     316.4894      2.163     5.15     859.1747     55.86422      113.646         8     1.128     0.664  48.88   0
       453    975.1137    303.7393 307.5283309  +6.5800775     504.0599     528.7156    -209.0693     79.57073     158.6386     317.0254      1.460     3.50      853.488     55.86422     90.52338         5     1.039     0.341  43.45   0
       454    197.5499    301.1142 307.8513860  +6.5551402     2195.235     3457.938     3677.211     79.44512     158.3866     316.9939      1.738     4.87     868.9289     55.86422     309.6797        22     1.602     0.870  41.36   0
       455    451.7209    301.3168 307.7458108  +6.5635852     1122.814     1796.878     1988.018     79.57073     158.7645     317.0569      1.799     5.37     859.5695     55.86422     151.7957        12     1.343     0.605  54.15   0
       456    761.4312    299.3672 307.6172352  +6.5747526     5785.093     9183.143     9574.784      78.9407     158.2605     316.6471      1.678     4.42     857.9153     55.86422     932.9738        29     1.635     0.876  42.14   0
       457    777.9460    297.4680 307.6104392  +6.5760885     2453.857     4115.984     4122.457     79.44512     158.4497     316.8363      1.748     4.94     857.8134     55.86422     408.4788        22     1.747     0.780  46.76   0
       458    233.5269    299.1184 307.8365108  +6.5571728     785.0588     1163.707     1293.391     79.69614     158.8274     316.9623      1.686     4.90     867.3045     55.86422     114.1703         8     0.953     0.714 -11.57   0
       459     94.0129    298.4534 307.8944782  +6.5527584      875.847     1239.282     1164.373     78.81409     158.4497     316.6786      1.590     6.38     872.2037     55.86422      129.384        12     1.607     0.711  51.88   0
       460    367.4643    292.0242 307.7811201  +6.5645976     1626.312     3262.652     3425.468     79.06711     158.5127     316.8363      2.124     6.95     862.1492     55.86422     196.0045        25     1.752     1.040  22.15   0
       461     80.9033    292.5729 307.9001219  +6.5547456     1153.712     2006.311     1978.587     79.57072     158.2605     316.8678      1.855     5.11     872.2681     55.86422     159.6298        15     1.364     0.756  36.99   0
       462   1016.1740    288.3751 307.5117904  +6.5877904     5530.135     8698.148      9347.54      78.9407     158.3236     316.8363      1.656     4.23     852.0126     55.86422     865.0934        30     1.662     0.870  43.42  16
       463    494.1492    288.1942 307.7286302  +6.5704254     1829.333     3126.792     3127.344      78.9407     158.3236      316.584      1.804     4.78     857.6162     55.86422     264.3204        23     1.742     0.817  44.85   0
       464    256.6876    283.6800 307.8274126  +6.5643255     5278.479     8727.162     8829.074     79.19331     158.7645     317.0569      1.751     4.21     865.6072     55.86422     784.1074        31     1.641     1.000  48.31   0
       465    925.3698    282.9760 307.5496897  +6.5869930     518.9124     811.4699     517.6102      78.9407     158.3866     316.7417      1.398     4.91     853.8834     55.86422      97.8717         7     0.915     0.746 -28.12   0
       466    775.8749    277.0939 307.6119840  +6.5844326     646.7828      964.409      1017.06     79.19331     158.7016     316.8993      1.475     3.42     856.9351     55.86422     117.2301         6     0.920     0.441  53.86   0
       467    391.0060    274.4304 307.7719354  +6.5726521     1603.948      2613.07      3169.01     78.81409     158.3236     316.7102      1.716     5.15     860.6108     55.86422     227.5659        16     1.558     0.700  42.39   0
       468    977.5060    273.3441 307.5283562  +6.5927087     1007.427     1728.526     2180.283     79.31932     158.5127     317.1198      1.797     6.34     852.1331     55.86422     159.7598        14     1.678     0.674  49.14   0
       469    313.1890    270.3951 307.8043932  +6.5717079     1023.975     1975.176     1393.125     79.06712     158.2605     316.8363      1.897     6.10     862.8359     55.86422     125.4785        13     1.441     0.727  49.08   0
       470    160.7933    270.1917 307.8676974  +6.5666736     1659.369     2707.362     2845.797     78.81409     158.3236     316.7733      1.708     5.40     869.5211     55.86422     221.3214        17     1.562     0.773  44.17   0
       471    570.2743    266.1158 307.6977541  +6.5820913     2032.326     3189.071      3262.72     79.57073     158.8274     316.9939      1.692     3.97     856.0837     55.86422     306.6538        18     1.418     0.763  47.37   0
       472    913.7354    265.1239 307.5551213  +6.5939769     1591.351     2467.207     2646.946     79.57073     158.5127     316.8993      1.718     5.31     853.7779     55.86422     255.2054        17     1.704     0.659  40.06   0
       473    733.8000    263.4675 307.6299188  +6.5886538     4625.746     7304.742     7636.293     78.68729     158.0079     316.6471      1.654     4.25     856.3718     55.86422     728.0698        26     1.631     0.837  44.00   0
       474    674.9245    263.5251 307.6543724  +6.5866621     2117.078     3050.438     3575.438     79.69614     158.7645     317.0254      1.535     4.07     856.1266     55.86422     327.6386        18     1.419     0.821  48.50   0
       475    972.2250    263.4520 307.5308815  +6.5966175     632.1054     1063.617     1235.759     79.06712     158.5127     316.8363      1.573     4.88     851.8691     55.86422     127.3052         8     1.533     0.441  42.11   0
       476    389.3159    257.1205 307.7732211  +6.5797432     583.0623     1005.447     379.0645     79.31932     158.8274     317.0254      1.847     5.81     860.0095     55.86422     101.8867         7     1.332     0.712  63.39   0
       477    929.7355    255.5663 307.5487956  +6.5984573     924.2792     1458.868     1246.301     79.31932     158.5127     316.8993      1.642     4.59     853.0555     55.86422     159.6456         9     1.266     0.472  50.42   0
       478    876.2996    247.9186 307.5712489  +6.5998328     1668.491     2856.767     2944.069     79.44512     159.0159     317.0254      1.804     4.62     854.3505     55.86422     247.3586        18     1.530     0.847  54.75   0
       479    233.2428    248.5204 307.8383378  +6.5780564     2040.713     3445.967     3857.325     79.44512     158.5127     316.8993      1.829     5.19     866.9916     55.86422     273.8633        21     1.682     0.837  40.07   0
       480    766.7043    247.1928 307.6167978  +6.5964736     1768.126      2580.95     2495.629     79.19331     158.1342     316.7417      1.446     4.17     855.7583     55.86422      238.697        16     1.368     0.732  43.26   0
       481    585.8956    241.3342 307.6920996  +6.5928474     371.0384     796.5242     991.0446     79.44512     158.6386     316.9623      2.361     4.06     855.1595     55.86422     85.18585         5     0.922     0.697  48.58   2
       482    467.2461    238.6084 307.7414755  +6.5899997     20757.88     34226.47     36378.37      78.9407     158.3866      316.584      1.761     4.19     856.3625     55.86422     3058.594        54     1.799     1.065  43.70   0
       483    328.7588    240.9758 307.7989190  +6.5843784     549.2141     826.3174     732.6224     79.06711     158.3236     316.7102      1.631     2.79     861.7612     55.86422     102.9351         5     0.787     0.476  28.78   0
       484    793.3009    237.8143 307.6060650  +6.6012347     12473.54     20027.01      21999.4     79.31932     158.2605     316.6471      1.726     4.27     855.4053     55.86422     1803.791        51     1.766     1.147  35.85   0
       485    732.2880    233.7821 307.6315446  +6.6008615     659.6342     962.0786     907.2493     79.19331     158.2605     316.8048      1.553     4.59     855.2394     55.86422     87.83887         7     1.082     0.553  65.14   0
       486    155.6555    231.9140 307.8711252  +6.5823066     2282.833     3676.631     3496.146     79.44512     158.5127     317.0883      1.706     4.03     868.6582     55.86422     325.8115        23     1.487     0.881  45.80   0
       487    130.5187    230.9292 307.8815993  +6.5818681     1065.127     1697.434     2237.338     79.69614     158.8274     316.9623      1.761     5.93     869.5357     55.86422     158.0467        12     1.586     0.625  38.77   0
       488    473.4329    233.4941 307.7390780  +6.5923188     1443.247     2263.341     2654.988     79.57073     158.3866     317.0254      1.756     4.93     855.9097     55.86422     187.7158        16     1.375     0.801  52.77   0
       489    929.9484    228.4551 307.5496166  +6.6096597     1230.247     1960.185     1435.462     79.44512     158.5127     316.9308      1.663     5.12     852.3687     55.86422     180.8998        15     1.513     0.631  39.32   0
       490    591.3504    224.4498 307.6904020  +6.6000020     4481.686     7065.954     7069.399     79.44512     158.3866     316.8678      1.697     4.44     854.5418     55.86422     621.7299        27     1.614     0.876  40.52   0
       491    554.2171    224.5876 307.7058220  +6.5987022     1922.241     2916.772     3090.243     79.19331     158.1974     316.8363      1.706     4.13     854.5676     55.86422     275.7179        17     1.382     0.771  48.53   0
       492    311.9904    224.9770 307.8064240  +6.5904220        984.3     1866.677     1943.852     79.06711     158.2605     316.7733      1.887     6.15     862.1646     55.86422     124.3151        13     1.765     0.602  49.53   0
       493    395.6565    223.4702 307.7717223  +6.5938510     1368.017      2322.04     2519.675     79.57073     158.4497     316.8993      1.807     4.74     858.3813     55.86422     196.1741        18     1.542     0.802  44.64   0
       494    952.2755    221.5661 307.5405730  +6.6132489     2271.555     3748.887     3771.749     79.31932     158.5127     316.8993      1.728     5.02     851.1119     55.86422      349.611        20     1.783     0.680  42.46   0
       495    898.3472    221.0180 307.5629933  +6.6116767     10404.47     16474.82     17553.01      78.9407     158.5757     316.7102      1.624     4.34     852.8192     55.86422     1511.641        37     1.705     0.881  43.41   0
       496    326.0040    221.4921 307.8007208  +6.5923313     946.4296     1610.539     1212.862     79.06711     158.1974     316.7102      2.064     5.34     861.4799     55.86422     138.3857        13     1.353     0.697  61.88   0
       497    985.0558    218.8972 307.5270455  +6.6154438      9003.83     14403.32     15241.64     79.31932     158.5127     317.1513      1.662     4.34     849.5399     55.86422     1417.119        40     1.799     0.918  41.26   0
       498    573.4597    220.4719 307.6979675  +6.6010459     770.3206     1128.179     1040.037     79.57073     158.5127     316.9308      1.584     5.60     854.4285     55.86422     138.6484         9     1.398     0.633  47.81   0
       499    217.8594    221.2285 307.8456494  +6.5888092     626.8253     819.3632     332.8435     79.06711     158.5757     316.8678      1.323     3.98     867.3934     55.86422     110.7794         6     0.899     0.626  61.74   0
       500    696.4634    218.8285 307.6469284  +6.6058391     2766.782     4382.431     5007.609     79.06712     158.5127     316.8678      1.781     4.05     854.7486     55.86422     442.7283        24     1.631     0.850  38.60   0
       501    271.0515    218.9301 307.8236328  +6.5915447     1028.523     1665.318     1490.239     79.31932     158.3866     316.9308      1.679     3.91     864.3834     55.86422     157.4429        12     1.005     0.899  65.66   0
       502     24.5376    217.4636 307.9260743  +6.5838629     23601.35     39095.29     41969.67     79.44513     158.5127     316.9623      1.805     4.36     871.9832     55.86422     3381.348        56     1.834     1.080  44.82   0
       503    505.0638    213.6485 307.7266079  +6.6015733     2051.977     3434.556     3409.294     79.31932     158.3866     316.9939      1.700     5.02     854.6859     55.86422     264.6313        21     1.580     0.874  46.58   0
       504    837.1113    210.4420 307.5887856  +6.6140005     1901.513     2920.935     3336.655     79.44512     158.4497     316.9623      1.645     4.34     853.4597     55.86422     288.8744        18     1.545     0.737  49.59   0
       505    748.5225    206.9345 307.6257032  +6.6124904     38017.11      59747.4     62911.19     79.57072     158.5127     316.8993      1.676     4.26     854.4412     55.86422     6010.952        65     1.782     1.027  43.97   0
       506    516.9899    209.5652 307.7217915  +6.6036589     2275.348      3929.65     3739.861      78.9407     158.2605     316.7102      1.814     4.56     854.4227     55.86422     345.8875        24     1.641     0.852  43.29   0
       507    889.0788    209.4544 307.5672314  +6.6161426     1946.249      3142.79     3563.975     79.57072     158.5127     316.9623      1.742     4.23     852.3858     55.86422     357.1621        18     1.444     0.799  42.56   0
       508    351.6169    206.2622 307.7905957  +6.5994795     5191.958     11914.35     13455.55      78.9407     158.4497     316.7733      2.367     6.46     860.0018     55.86422     569.7348        52     2.017     1.446  78.50   0
       509    982.4321    205.8452 307.5285730  +6.6207460       2768.7     4220.498     4134.573     79.19331     158.5757     316.7733      1.580     4.15     849.5351     55.86422     441.8395        22     1.628     0.753  40.26   0
       510    916.4979    204.1358 307.5560199  +6.6192535     7172.279     11092.78     11711.97     79.44512     158.5757     316.9623      1.630     4.27      851.544     55.86422     1110.002        32     1.651     0.857  44.02   0
       511   1020.7449    204.3445 307.5127079  +6.6226425     1665.469     2711.137     2878.316     79.69614     157.8181     281.3427      1.654     5.40      848.225     55.86422      292.545        16     1.623     0.603  46.86  16
       512    459.9981    203.0730 307.7456838  +6.6044304     4675.463     7676.409     8256.911      78.9407     158.0079     316.8048      1.722     4.01     855.3239     55.86422     694.4258        32     1.700     0.962  41.61   0
       513    234.7943    199.9490 307.8393340  +6.5981648     692.1331     1088.757     1583.721      78.9407     158.3866      316.584      1.986     6.80     866.4769     55.86422       85.401        12     1.578     0.822  48.09   0
       514    117.3350    194.3176 307.8883132  +6.5965425     4469.722     7502.143     8104.733     79.57073     158.7645     316.9623      1.802     4.66     868.9291     55.86422     618.8333        35     1.774     0.972  46.59   0
       515    937.1628    193.7582 307.5477836  +6.6242280     886.7547     1368.581     1416.712     79.19331     158.5127     316.8048      1.707     4.18     850.5486     55.86422     199.0194        10     1.450     0.513  48.48   0
       516    287.6540    191.0950 307.8176764  +6.6035959     30828.54     51853.75      55761.6     79.31932     158.4497     317.1513      1.788     4.49     863.3865     55.86422      4427.28        65     1.870     1.102  44.73   0
       517    262.9656    192.1838 307.8278946  +6.6023174      5931.31     10001.49      10539.6     79.06711     158.2605     316.7733      1.774     4.39     864.8095     55.86422     835.5397        35     1.745     0.973  47.77   0
       518    716.6002    190.2300 307.6395252  +6.6183215     839.0177     1429.112     1524.979     78.68729     158.3236     316.7417      1.919     5.69     854.2255     55.86422     149.0655        12     1.731     0.526  52.29   0
       519    411.7266    186.5789 307.7662911  +6.6096233     46022.23     76035.79     80874.32     79.06712     158.3866     316.8678      1.782     4.30     856.4888     55.86422     6758.977        67     1.845     1.101  43.46   0
       520    167.6672    187.8058 307.8676270  +6.6009235     3519.961     6040.288      6276.89      78.9407     158.1974     316.7417      1.812     5.14     867.3737     55.86422     480.0258        25     1.717     0.858  45.80   0
       521    429.1213    187.1879 307.7590450  +6.6099550     1318.174     2127.352     2627.575     79.06711     158.1974     316.7733      1.629     4.50     855.8243     55.86422     207.1354        15     1.469     0.689  38.33   0
       522    750.9963    182.8461 307.6254851  +6.6225200     30892.12     49309.84     51840.03     78.81409     158.2605      316.584      1.651     4.23     853.7913     55.86422     4857.028        56     1.774     0.995  44.71   0
       523    315.7305    184.3062 307.8062431  +6.6073415     16927.04     27997.88     30837.21     79.31932     158.6386     316.9308      1.797     4.42     861.7659     55.86422     2338.017        54     1.834     1.096  43.98   2
       524    323.4206    184.4697 307.8030433  +6.6075321     1961.889     3393.583     4679.864     79.06712     158.3866     316.8678      2.275     6.25     861.3555     55.86422      275.623        30     1.987     1.329 -87.76   3
       525    799.6844    183.5054 307.6052376  +6.6238741     1172.228     1832.685     2144.998     79.31932     158.8902     317.0569      1.528     5.15     852.7584     55.86422     173.3731        13     1.458     0.626  50.73   0
       526    699.0155    184.7074 307.6470156  +6.6200142     889.3177     1455.055     1839.931     79.19331     158.3236     316.8048      1.788     4.32     854.1263     55.86422     152.4343        11     1.278     0.653  33.13   0
       527     38.2725    183.0685 307.9215336  +6.5985275     680.1559     1089.389     1820.289     79.57073     158.6386     316.9308      1.807     4.92     871.5968     55.86422     96.82721         9     1.387     0.494  53.04   0
       528     67.8478    180.0019 307.9093528  +6.6007890     8315.494      13852.5     14642.15     78.81409     158.1974     316.5209      1.739     4.43     870.2976     55.86422     1256.545        37     1.754     0.954  45.77   0
       529    101.3602    177.9667 307.8955017  +6.6027568     1568.298     2806.741      2872.58     79.19331     158.3236     316.7417      1.868     4.89     868.8672     55.86422     224.1541        20     1.551     0.893  45.93   0
       530   1009.7869    177.2129 307.5181694  +6.6334811     1122.288     1668.284     1633.661     79.31932     158.1974     316.8678      1.574     4.73      848.882     55.86422     148.9021        12     1.266     0.635  35.30   0
       531    585.5908    167.7608 307.6947028  +6.6232181     837.6563     1071.109     1195.487     78.81409     158.3236     316.6786      1.416     4.90     853.0671     55.86422     158.4277         8     1.120     0.710  44.87   0
       532   1010.5965    163.4856 307.5182932  +6.6391767     2150.157     3165.159     3630.052      78.9407     158.1342     316.6471      1.601     4.20     849.0327     55.86422     346.3438        17     1.519     0.678  42.50   0
       533      1.4469    164.6759 307.9374523  +6.6048824     694.0726     960.1538     575.2013     70.38004     127.8986     240.4628      1.530     4.82     873.4475     55.86422     112.3109         7     1.325     0.497  89.07  24
       534    593.4304    161.0790 307.6916711  +6.6262395     799.8871     1518.512     1389.054     79.31932     158.5757     316.8993      1.539     5.22     852.9338     55.86422     135.2902         9     1.678     0.459  51.86   0
       535    286.5461    157.3558 307.8192757  +6.6174904     28107.03     46537.22     50954.56     79.44512     158.5127     316.9308      1.807     4.37     863.5195     55.86422     3964.029        64     1.859     1.128  42.62   0
       536    601.8056    159.1440 307.6882571  +6.6273189     1845.442      2738.47     2597.409      78.9407     158.3866     316.6471      1.574     4.67     852.9329     55.86422     293.2679        19     1.572     0.765  39.43   0
       537    346.4416    159.2855 307.7943306  +6.6187038     910.1672     1473.865     2098.287     79.44512     158.4497     316.9308      2.015     6.12      859.684     55.86422     126.1333        12     1.341     0.785  45.82   0
       538     31.7338    155.7408 307.9251745  +6.6095915     4167.195     6918.252     7471.533     79.57073     158.4497     316.9308      1.781     4.51     871.7679     55.86422       611.75        28     1.641     0.989  47.57   0
       539    718.1943    154.0041 307.6400809  +6.6333338     7504.009     11964.18     13041.24     78.81409     158.1974     316.8048      1.656     4.08     853.2589     55.86422     1126.498        37     1.729     0.924  43.53   0
       540    195.7295    155.2072 307.8570723  +6.6153273     837.6913     1393.844     1325.718      78.9407     158.1342     316.8363      1.785     5.22     866.5374     55.86422     115.8499        10     1.123     0.687  44.93   0
       541    272.6862    152.6854 307.8251907  +6.6189536     812.9624     1456.562     2141.494     79.19331     158.7016     316.9939      2.090     4.85     864.1874     55.86422     131.6328         7     1.291     0.516  44.67   0
       542    128.9922    151.0414 307.8849346  +6.6148040     4386.232     7527.083     8476.556     78.81409     158.3236     316.6471      1.815     4.45      867.269     55.86422     591.5657        33     1.829     0.944  44.23   0
       543    657.2007    148.2432 307.6656122  +6.6336733     851.0575     1232.233     1133.623     78.81409     158.1974     316.5525      1.618     5.26     852.9763     55.86422     144.6141        10     1.029     0.796  58.27   0
       544    591.6686    149.3433 307.6927980  +6.6310266     638.8701     992.2026     688.2041     79.57073     158.4497     316.8678      1.399     3.76      852.542     55.86422     116.4122         5     0.905     0.448 -45.18   0
       545    467.9976    147.9081 307.7442201  +6.6274777     1180.257     1977.907     1807.419      78.9407     158.1974     316.6786      1.739     5.64     853.5073     55.86422     200.4034        14     1.625     0.642  56.28   0
       546    399.7605    147.1289 307.7725922  +6.6255120     3630.187     6403.343     6436.351     79.31932     158.5127     316.9939      1.889     4.85     856.2956     55.86422     503.0142        31     1.725     1.023  47.26   0
       547    364.0005    145.8392 307.7874903  +6.6248452     2769.067     4644.465     3963.636     78.56026     158.3236     316.6471      1.712     5.01     858.5299     55.86422     363.0488        25     1.687     0.852  45.68   0
       548    118.4104    145.8105 307.8895070  +6.6166081     1632.049     2720.617     2874.052     79.06712     158.3236     316.8678      1.804     4.78     867.4041     55.86422     233.5743        20     1.476     0.886  39.79   0
       549    576.7989    145.0310 307.6991202  +6.6323097      532.265     1094.531     865.0209     78.81409     158.3236     316.7417      1.861     3.98     852.3331     55.86422     76.93433         6     0.945     0.480  53.45   0
       550    680.2011    144.0694 307.6561979  +6.6361660     730.4604     1141.051     1253.367      78.9407     158.0711     316.7733      1.632     4.11     852.8769     55.86422     148.7701         7     0.955     0.505  48.46   0
       551    168.1525    143.1216 307.8689359  +6.6193908     406.8203     518.8613     989.7015     79.44512     158.5757     316.8678      1.479     3.80     866.1529     55.86422     81.57007         5     1.311     0.317  58.98   0
       552     57.2483    142.4140 307.9150275  +6.6159530     600.7926     699.6374     125.1078     78.81409     158.4497     316.6156      1.597     5.47     870.1101     55.86422      92.8689         6     1.298     0.651  69.74   0
       553   1011.1629    140.2368 307.5188372  +6.6487959     1374.425     2281.936      2100.95     79.19331     158.3866     316.7417      1.682     5.22     847.9326     55.86422      197.476        16     1.463     0.776  42.27   0
       554    216.0098    134.9554 307.8493325  +6.6243711     4879.398     8389.032     8814.793      78.9407     158.3866     316.6471      1.790     4.64     866.0207     55.86422      683.978        35     1.789     0.982  46.01   0
       555    677.7982    133.8285 307.6575406  +6.6403145     5923.829     9488.401     10063.78      78.9407     158.2605     316.7102      1.661     4.14     852.4203     55.86422     918.7629        30     1.661     0.882  47.42   0
       556     98.5334    134.6205 307.8981421  +6.6205601     1959.748      3417.22     4008.843     79.06712     158.5127     316.8363      1.804     4.94     867.6105     55.86422     265.0265        21     1.666     0.797  41.95   0
       557    826.1331    133.8055 307.5959197  +6.6452802     885.4589     1409.397     1585.229      78.9407     158.1974     316.7417      1.689     4.12     849.8943     55.86422     167.2681        11     1.332     0.595  40.52   0
       558    629.9730    131.0177 307.6775026  +6.6398756     8756.218     14302.47      15609.3     79.06711     158.3236     316.8363      1.685     4.44     852.1281     55.86422     1284.488        40     1.743     0.964  45.79   0
       559    264.5631    131.2388 307.8292892  +6.6275366     764.5873     1392.482      1606.08     79.19331     158.3866     316.8048      2.125     6.91      864.412     55.86422     114.1117        13     1.685     0.794  32.55   0
       560     28.5985    130.4720 307.9273322  +6.6199198      756.418     1222.967      773.432      78.9407     158.0711     316.7733      1.627     3.43      871.478     55.86422     111.6335         5     1.104     0.309  68.95   0
       561    357.1184    126.7384 307.7909937  +6.6325015      3299.29     6038.461      6570.57     79.57073     158.5127     316.9308      2.023     4.61     858.9429     55.86422     449.6169        32     1.607     1.252  44.45   0
       562    633.4882    122.5362 307.6763277  +6.6434955     50547.28     80603.73     85499.36     79.31932     158.7016     316.9308      1.739     4.27     851.8367     55.86422     7851.837        72     1.840     1.049  42.98   0
       563    539.0036    126.1041 307.7154582  +6.6388598     1579.781     2576.979     2699.615     79.19331     158.1974     316.6156      1.672     4.46     851.7567     55.86422     243.0959        17     1.462     0.761  46.11   0
       564   1003.2014    125.5563 307.5226369  +6.6545928     729.1743         1311     896.8306     78.81409     158.1974     316.5525      1.637     4.58      847.266     55.86422     136.3021         9     1.429     0.480  54.43   0
       565    312.6675    116.2875 307.8098115  +6.6353253     3240.428     5626.596     6583.368     79.57073     158.7645     316.9623      1.853     4.51     861.8953     55.86422     453.0746        27     1.684     0.912  38.09   0
       566      9.9601     99.1612 307.9361343  +6.6322210     717057.2      1650988      1851090     79.19331     158.5757     316.8048      2.318    10.36     872.1249     55.86422     61130.59       428     2.416     1.779  46.66  28
       567    712.5128    110.8236 307.6438930  +6.6509745     988.7089     1488.558     1555.177     79.44512     158.3236     316.8048      1.623     5.17     850.7267     55.86422     164.0026        10     1.314     0.574  39.58   0
       568    684.1174    109.8178 307.6557230  +6.6504406     1278.513     1900.166      1759.48     79.06711     158.1974     316.8993      1.480     4.18      851.188     55.86422     182.0683        13     1.271     0.661  49.48   0
       569    697.9577    106.5075 307.6500847  +6.6522703     2942.292     4439.594     4702.385     79.44512     158.5127     317.0254      1.640     4.30     850.7751     55.86422     467.9014        20     1.537     0.749  43.90   0
       570     70.4358    104.8516 307.9108207  +6.6319069     558.0573     605.6875      275.691     79.31932     158.5127     316.8678      1.254     4.15     868.5162     55.86422     98.55621         5     0.873     0.565  43.63   0
       571    439.6589     97.4586 307.7576930  +6.6473599     3894.912     6522.269      6577.25     79.44512     158.5127     316.9623      1.793     4.17     853.9948     55.86422     591.2738        32     1.719     0.957  44.22   0
       572    894.2526     93.9160 307.5689598  +6.6640255     1947.984     2940.695     3288.457     79.44512     158.4497     317.0254      1.647     4.35     847.2144     55.86422     299.5522        18     1.455     0.756  42.69   0
       573    912.1641     92.8199 307.5615554  +6.6650756      3742.37     6058.332     6638.739      78.9407     158.3236     316.7102      1.692     4.51     847.0863     55.86422     547.5817        27     1.661     0.854  39.52   0
       574    592.1968     93.3507 307.6944635  +6.6541654     736.9241     1223.167     1225.142     78.81409     158.2605     316.5209      1.954     5.95     850.7834     55.86422     112.5716        10     1.503     0.662  52.24   0
       575    604.4761     91.7286 307.6894169  +6.6552462     1679.507     2396.499     2241.535     79.69614     158.7645     316.9308      1.619     4.11     850.7542     55.86422      258.684        15     1.368     0.738  42.07   0
       576    403.1313     89.3073 307.7731421  +6.6495011     1738.194     2895.364     2803.178     79.31932     158.6386     316.9308      1.742     4.64      855.901     55.86422     249.0031        17     1.577     0.759  43.59   0
       577    250.1602     90.7822 307.8366387  +6.6437583     797.1928     1278.265     1598.008     79.06711     158.3236     316.7102      1.693     4.19     864.4632     55.86422     123.1764         7     1.296     0.386  32.86   0
       578    151.0409     86.3599 307.8779630  +6.6422535     2861.016     4917.871     5497.238     79.19331     158.5757     316.8048      1.887     4.93     864.5999     55.86422     407.1027        26     1.760     0.846  44.90   0
       579     32.7604     83.9447 307.9271784  +6.6392716     11224.66     18894.25     20530.12     79.44512     158.5757     316.8993      1.816     4.38     869.2977     55.86422     1699.556        47     1.879     1.020  44.81   0
       580    299.1949     84.5535 307.8164795  +6.6479768     1122.634     1950.972     2452.685     78.81409     158.3236     316.6156      1.793     5.94     862.8792     55.86422     159.9353        13     1.519     0.654  45.58   0
       581    953.5076     83.2612 307.5447002  +6.6704016     572.0445     915.7223     765.6589     79.31932     158.5127     317.0254      1.770     3.52     845.8203     55.86422     134.6584         5     0.944     0.495  85.20   0
       582    572.5436     83.6855 307.7029535  +6.6574986     639.9471     1032.667     1016.863     79.44512     158.5127     317.0883      1.852     4.40     850.5908     55.86422     93.30048         7     1.285     0.429  49.48   0
       583    767.4381     80.9493 307.6220793  +6.6651461     688.3587     1735.436      2109.66     79.19331     158.4497     316.8678      2.627     8.79     848.3513     55.86422     144.1511        15     2.413     0.895  78.08   0
       584    559.7358     83.4031 307.7082837  +6.6571865     716.1532     928.7372     1118.629     78.81409     158.3236     316.7102      1.404     3.95      850.579     55.86422     119.8112         6     0.906     0.493  42.72   0
       585    834.6036     78.7629 307.5942493  +6.6682920     5858.652     9204.388     9967.265     78.56026     158.3236     316.7417      1.685     4.32      847.207     55.86422     992.7599        33     1.740     0.866  43.82   0
       586    779.6584     79.1049 307.6170645  +6.6663159     3079.755      4798.71     4682.887     79.31932     158.5127     317.0569      1.626     4.57     848.0947     55.86422     494.9717        21     1.616     0.768  45.89   0
       587    424.9692     79.6762 307.7643950  +6.6542103     1034.945     1642.778     1331.899     79.31932     158.5757     316.8993      1.662     6.04     854.5804     55.86422     142.3212        14     1.445     0.711  49.10   0
       588    901.2172     79.3735 307.5665545  +6.6702629     536.4841      1081.88      895.345     79.06712     158.2605     316.8363      1.577     3.44     846.5254     55.86422      109.338         5     1.731     0.198  39.53   0
       589    925.0515     78.0093 307.5566983  +6.6716213      425.808     559.0891     278.2036      78.9407     158.3866     316.6471      1.223     3.69     846.3961     55.86422     74.71594         5     1.012     0.387  31.66   0
       590    542.0919     76.9088 307.7158323  +6.6592774     963.5712     1535.323     1413.608     79.44512     159.0159     316.9939      1.608     5.39     850.5183     55.86422     170.7063        12     1.445     0.581  53.71   0
       591     57.5886     76.6582 307.9171115  +6.6431160     916.6448     1514.807       1683.7     78.81409     158.4497     316.6471      1.840     6.07     867.4897     55.86422     111.3026        12     1.312     0.789  45.73   0
       592     73.1326     75.8157 307.9106830  +6.6439870     3008.049     4743.204     5007.674      78.9407     158.3866     316.8363      1.642     4.12     866.7775     55.86422     442.8402        23     1.641     0.786  42.61   0
       593    434.4653     75.4205 307.7605936  +6.6562859      940.467      1404.04     1005.482     79.06712     158.5127     316.8048      1.683     6.13     854.0865     55.86422     132.8387        13     1.600     0.661  41.81   0
       594    597.0038     72.7135 307.6931613  +6.6628480     1204.881     1886.803     1660.434      78.9407     158.1342     316.6471      1.541     4.73     850.3166     55.86422     170.6271        16     1.529     0.694  50.58   0
       595     15.4905     71.3153 307.9347799  +6.6439051     2440.628     4285.041     4969.395     79.19331     158.8274     317.0569      1.937     4.31      868.614     55.86422     380.9255        25     1.693     0.898  45.08   0
       596    774.3027     66.6050 307.6197095  +6.6712987     1869.465     2993.698     3219.556     79.19331     158.1974     316.6471      1.697     4.41     847.5921     55.86422     304.8955        17     1.496     0.714  42.70   0
       597    415.2658     66.8919 307.7688572  +6.6591639     981.6751     1349.517     871.9665     79.44512     158.7016     316.9308      1.576     5.35     855.1166     55.86422     154.4551        10     1.345     0.601  59.54   0
       598     88.1983     67.1298 307.9047185  +6.6480804     797.3387     1235.939     780.8409      78.9407     158.0711     316.7417      1.556     5.49     865.6928     55.86422     103.3488        10     1.465     0.581  41.81   0
       599    666.6727     67.2394 307.6644024  +6.6674393     517.1569     781.9353     569.1532     79.31932     158.5127     316.9939      1.776     4.47     850.1271     55.86422     97.98511         5     0.831     0.683  14.63   0
       600    112.0017     65.3856 307.8948895  +6.6496014     888.2573     1553.136     1615.531     79.06711     158.1974     316.7102      2.065     5.83     865.0061     55.86422      141.787        11     1.664     0.575  47.65   0
       601    100.8808     60.1630 307.8996858  +6.6513838     8662.227     14498.03     15650.64     79.31932     158.5757     316.8993      1.767     4.51     865.0303     55.86422     1229.264        43     1.805     1.023  45.77   0
       602    429.9882     59.9283 307.7629759  +6.6625330     2447.117     3942.687     4427.583      78.9407     158.1342     316.7417      1.684     4.73     854.2111     55.86422     352.9475        22     1.714     0.767  47.34   0
       603    252.1945     59.7214 307.8368429  +6.6566523     554.8987     644.2703     1028.413     79.06711     158.0079     316.7102      1.565     4.32     863.9623     55.86422     87.65424         6     1.505     0.353  44.73   0
       604    643.6561     52.2596 307.6744685  +6.6728550      17160.5     27864.43     29594.63     79.57073     158.5127     316.9623      1.740     4.48     849.7952     55.86422     2669.974        50     1.813     0.982  44.24   0
       605    267.6895     54.2012 307.8305924  +6.6594521     1214.711     2202.459     3281.008     78.68729     158.0711     316.6786      2.057     5.61      863.741     55.86422     185.4519        18     1.628     0.765  44.57   1
       606    673.6180     53.5368 307.6619780  +6.6733297     605.2803     730.4723     725.4239     79.06712     158.4497     316.7733      1.373     4.00     849.7964     55.86422     103.2775         6     0.905     0.736 -64.74   0
       607    700.3496     53.5477 307.6508721  +6.6742191     434.7096     731.5948     1523.135     79.57073     158.3866     316.9623      1.345     3.35     848.9025     55.86422     92.41528         5     1.049     0.311  22.84   0
       608    261.8539     48.7204 307.8332018  +6.6615192      1713.51     3168.523     4694.271     79.44512     158.5127     316.9939      2.536     5.09     863.7375     55.86422     228.3389        24     1.682     0.954  41.40   1
       609    543.4253     48.2446 307.7162438  +6.6711583       4813.5     7774.882      8141.75      78.9407     158.5757     316.8048      1.730     4.44     849.8702     55.86422     757.0923        30     1.747     0.859  45.77   0
       610     10.7860     46.8058 307.9375640  +6.6538669     1092.408     1788.825     1626.767     79.06711     158.2605     316.7733      1.787     5.05     865.7449     55.86422      179.801        16     1.540     0.744  42.15   0
       611    629.9789     42.7297 307.6804713  +6.6763326     3034.184     5434.809     6727.624     79.06711     158.3866     316.8993      2.121     5.73     849.5905     55.86422     434.1356        35     2.144     0.998  58.05   0
       612    448.9828     43.9015 307.7556253  +6.6697876     20869.81      34653.8     36659.25     79.44512     158.3236     316.7102      1.740     4.32     852.8505     55.86422     3014.427        53     1.791     1.068  44.88   0
       613    329.3403     44.5615 307.8053065  +6.6655022     892.5205     1548.802     1929.871     79.44512     158.5757     316.9623      2.005     6.78     860.8181     55.86422     136.6346        11     1.748     0.737  35.29   0
       614    269.5721     44.2765 307.8301455  +6.6636134     8577.918     14306.38     16125.69     79.31932     158.5127     316.8993      1.828     4.35      863.649     55.86422     1262.469        43     1.787     1.019  42.44   0
       615    927.0021     44.0843 307.5570264  +6.6856953     1808.674     2633.546     2569.272     78.81409     158.1342     316.6156      1.462     3.85     844.9669     55.86422     303.2921        18     1.406     0.818  51.35   0
       616     35.0375     43.9429 307.9275867  +6.6558656     2282.488     3526.731     3434.179     79.44512     158.5757     316.9308      1.616     4.35     865.1088     55.86422     361.9391        22     1.472     0.881  41.91   0
       617    562.4537     44.1023 307.7084781  +6.6735059     594.5118     682.0369     873.8389     79.31932     158.5127     317.1513      1.349     2.25     849.7173     55.86422     128.7818         5     0.702     0.462  69.57   0
       618    534.0552     44.1023 307.7202761  +6.6725550      573.797     780.5136     703.9866     79.31932     158.5127     317.1198      1.803     4.04     849.9186     55.86422     87.62457         6     1.488     0.313  25.43   1
       619    257.5911     40.8544 307.8352384  +6.6646241     2714.467     4584.745      5600.23     78.81409     158.4497     316.6471      1.932     4.08     863.6645     55.86422     422.0805        27     1.634     0.951  42.48   0
       620    311.0946     39.5567 307.8130553  +6.6669564     877.6911     1604.231     1887.254     79.44512     158.4497     317.0569      1.924     5.29     862.0547     55.86422     128.8788        10     1.416     0.559  56.17   0
       621    947.6883     34.3764 307.5487577  +6.6903939     988.9272     1610.771     1517.165     79.44512     158.3236     316.8048      1.671     4.37     843.1647     55.86422     186.2016        11     1.258     0.611  61.99   0
       622    698.9385     33.5450 307.6521310  +6.6824316     1744.492     2628.987     2626.477     79.57072     158.4497     316.8993      1.660     4.84     848.3431     55.86422     272.1588        17     1.474     0.769  47.53   0
       623    104.5000     34.6517 307.8990454  +6.6620395     576.2127     739.1439     830.5617     79.44512     158.5127     317.1513      1.440     3.73     864.0081     55.86422     110.2092         5     0.955     0.510  45.45   0
       624    264.7627     28.8149 307.8326657  +6.6698363     664.2038     1086.207      1536.72     79.06711     158.3236     316.7102      1.989     4.25     863.5281     55.86422     87.28735         7     1.158     0.445  59.62   0
       625    210.1303     29.0532 307.8553536  +6.6679026     672.2631     865.8004     559.6402     79.31932     158.3866     316.8678      1.567     4.74     863.4753     55.86422     105.1212         9     1.274     0.499  33.22   0
       626    186.9981     26.2563 307.8650578  +6.6682801     9608.046      16103.9     16922.65     78.81409     158.1974     316.6471      1.760     4.45     863.4359     55.86422     1344.942        37     1.730     0.976  44.72   0
       627    724.7940   1020.7251 307.6082224  +6.2756497     2482.956     4209.066     4822.148     79.06711      157.438     281.2007      1.808     4.45     880.9968     55.86422     346.9331        24     1.606     0.921  39.07  16
       628      1.2777     26.9386 307.9421866  +6.6617502     742.3495     1062.975     853.0135     68.51057     125.1358     237.5379      1.319     3.06      863.171     55.86422     185.8083         6     0.981     0.385  75.35  24
       629    531.3031     24.5447 307.7220783  +6.6805387     2798.245     4605.823     5008.708     79.31932     158.5127     317.1198      1.725     4.30     849.5262     55.86422     445.1725        25     1.697     0.794  46.88   0
       630    733.3003     22.5338 307.6382255  +6.6881271     1827.666     2915.716     2952.471     79.44512     158.6386     316.8993      1.734     6.29     846.5568     55.86422     318.6414        20     1.797     0.721  35.07   0
       631    469.4097     22.9506 307.7478454  +6.6791234     1622.479     2615.074     2501.398      78.9407     158.3866     316.6156      1.675     4.62     851.0289     55.86422     245.1628        17     1.477     0.729  49.13   0
       632    997.3854     20.4640 307.5285769  +6.6977956     1816.022     3033.931      3026.94      78.9407     158.3866     316.8048      1.799     4.61     838.1979     55.86422     313.7514        17     1.485     0.724  49.68   0
       633    740.6586   1020.0048 307.6016608  +6.2764771     944.2338     1565.876     1614.518     78.81409     158.3866     289.9434      1.762     4.21      880.663     55.86422     143.3905        10     1.259     0.600  60.10  16
       634    447.2809   1021.2022 307.7234072  +6.2661706     733.4149     1377.112     1289.252     78.81409     154.6864     275.1697      1.921     4.60     885.1673     55.86422     113.9365         8     1.178     0.559  27.43  16
       635    339.2414     15.6138 307.8021704  +6.6777876     865.5127     1382.411     1717.644      78.9407     158.3236     316.6471      2.084     5.44     860.1311     55.86422     148.8716        10     1.311     0.638  46.91   0
       636    371.2291   1018.2346 307.7550769  +6.2648478     1610.653     2701.882     3230.415      78.9407     158.2605     307.2999      1.764     4.35     884.7661     55.86422     225.9243        19     1.417     0.887  51.23  16
       637    981.3584   1015.8512 307.5018781  +6.2862214     696.5581     1299.765     1343.096     79.44512     158.5127     316.9308      1.896     5.84     874.1719     55.86422     110.4562         8     1.303     0.737 -19.15  16
       638    523.7519   1009.8549 307.6920447  +6.2734165     1161.971     1775.608     1913.045     79.44512     158.5127     317.0254      1.844     4.67     884.8475     55.86422     205.1873        13     1.409     0.702  60.43   0
       639    758.1387   1007.7689 307.5948150  +6.2821135     7190.412     12040.12      12622.1     79.19331     158.5757     316.8678      1.758     4.30     879.6995     55.86422     966.0128        39     1.761     1.009  41.93   0
       640    553.6577   1008.3773 307.6796799  +6.2750275     3919.852     6621.102       7341.8     79.06712     158.5127     316.7417      1.836     4.28     884.5067     55.86422     521.7708        31     1.733     0.916  46.39   2
       641    550.7896   1000.5129 307.6811350  +6.2781790     8090.035     12907.04     13879.71     79.06712     158.2605     316.7733      1.712     4.18     884.3614     55.86422     1131.247        34     1.650     0.946  42.31   2
       642    303.6883   1007.0628 307.7834901  +6.2671964     14169.52      23184.1     25920.46     79.31932     158.7016     316.9623      1.757     4.30     884.5961     55.86422     2084.473        52     1.795     1.083  40.62   2
       643    308.4379   1004.6180 307.7816009  +6.2683652     981.5283     1506.424       2386.6     79.06712     158.3866     316.6786      1.940     5.27     884.5941     55.86422      132.877        10     1.252     0.626  60.97   3
       644    819.1806   1007.0391 307.5694990  +6.2844525     903.2426     1611.143     1851.122     79.06711     158.3236     316.6471      1.974     6.18      877.892     55.86422     129.1524        12     1.481     0.724  42.87   0
       645    428.5901   1007.5097 307.7316269  +6.2711986     1098.527     1723.338     1569.604     79.19332     158.1974     316.7102      1.695     5.03      884.881     55.86422     179.1328        13     1.296     0.740  35.79   0
       646    275.1708   1004.4033 307.7954176  +6.2673380      900.349     1575.833     1591.419      78.9407     158.2605     316.7733      1.877     4.99     884.6355     55.86422     131.6923         9     1.308     0.538  37.06   0
       647    919.4286   1001.1776 307.5280790  +6.2902168     7947.903      13557.3     14749.82      78.9407     158.3236     316.8048      1.839     4.40     876.7748     55.86422     975.3271        42     1.827     1.078  45.77   0
       648    637.7687   1002.4711 307.6449620  +6.2802795     520.6644     767.1555     516.1509     79.31932     158.5127     316.8993      1.637     4.64     882.0313     55.86422     82.26959         6     0.982     0.623  69.00   0
       649    893.1616    997.4556 307.5391082  +6.2908780     11027.95     19120.38     21122.55     79.44512     158.5757     316.9623      1.906     4.34     877.0176     55.86422      1435.29        55     1.927     1.184  36.90   0
       650   1014.8584    996.8655 307.4886066  +6.2951775      4169.64     7423.408     7954.379     79.57072     158.4497     316.9623      1.948     4.79     872.3719     55.86422     473.6826        39     1.915     1.098  41.20  16
