#   1 NUMBER                 Running object number                                     
#   2 X_IMAGE                Object position along x                                    [pixel]
#   3 Y_IMAGE                Object position along y                                    [pixel]
#   4 ALPHA_J2000            Right ascension of barycenter (J2000)                      [deg]
#   5 DELTA_J2000            Declination of barycenter (J2000)                          [deg]
#   6 FLUX_APER              Flux vector within fixed circular aperture(s)              [count]
#   9 FLUXERR_APER           RMS error vector for aperture flux(es)                     [count]
#  12 FLUX_RADIUS            Fraction-of-light radii                                    [pixel]
#  13 FWHM_IMAGE             FWHM assuming a gaussian core                              [pixel]
#  14 BACKGROUND             Background at centroid position                            [count]
#  15 THRESHOLD              Detection threshold above background                       [count]
#  16 FLUX_MAX               Peak flux above background                                 [count]
#  17 ISOAREA_IMAGE          Isophotal area above Analysis threshold                    [pixel**2]
#  18 A_IMAGE                Profile RMS along major axis                               [pixel]
#  19 B_IMAGE                Profile RMS along minor axis                               [pixel]
#  20 THETA_IMAGE            Position angle (CCW/x)                                     [deg]
#  21 FLAGS                  Extraction flags                                          
         1    177.6192     20.1644 307.8654001  +6.6680782     4956.294     13862.99     16974.82     89.88207     180.2676      360.607      2.718     6.44     1160.539     63.60712     524.3954        67     2.173     1.807  79.68   0
         2    923.2993     17.5358 307.5553350  +6.6940342     2559.348     5619.873     5748.599     90.45641     180.5546     360.8941      2.220     5.39     1132.811     63.60712     250.8271        38     1.658     1.496 -58.55   0
         3    522.2488     18.5903 307.7221142  +6.6802467     1563.014     3717.218     4691.582     89.88207     180.2676     360.4992      2.590     6.50     1141.911     63.60712     187.1973        27     1.474     1.417 -40.47   0
         4    460.3263     16.5734 307.7479378  +6.6790129     830.7473     2065.955     3069.065       90.026     180.4112     360.8223      2.917     9.07     1145.087     63.60712     109.8962        14     1.558     1.474   4.68   0
         5    723.7241     16.9571 307.6383677  +6.6876358     1008.532     2127.832     2431.671     90.31316     180.5546     360.8941      2.160     6.15     1137.594     63.60712     130.4995        13     1.323     0.805  54.67   0
         6    987.7704     13.9087 307.5286397  +6.6976732     1340.206      2874.65     2856.113     90.59942     180.1957     360.7864      2.170     6.84     1128.542     63.60712     136.6595        21     1.380     1.263 -42.79   0
         7    707.4008     10.3226 307.6453806  +6.6898320     3782.789     9444.537     10691.55     89.59353     179.8362     360.5711      2.500     5.78     1138.086     63.60712     347.8423        50     1.821     1.677  87.40  16
         8    627.7737      9.7076 307.6785217  +6.6874334     1819.775     4811.623     5460.288     90.59942     180.1957     360.6788      2.608     7.55      1139.67     63.60712     182.0303        39     1.923     1.513  57.43  16
         9    427.8533      6.1571 307.7617957  +6.6822300      2690.42     7606.064     9780.535     90.45641     180.4829     343.9964      2.791     7.47     1148.197     63.60712     299.1182        50     2.100     1.627  87.46  24
        10     28.8796      5.8587 307.9277462  +6.6690014     4286.447     11066.54     13275.87     90.59942     180.4829     340.8203      2.592     6.23     1162.361     63.60712     468.6279        59     2.072     1.690  80.21  24
        11    324.4848      2.5190 307.8049125  +6.6802783     5551.525     11514.24     12708.63     90.16969     162.5159     292.9797      2.143     6.77     1158.575     63.60712     623.8494        40     1.837     1.317  -4.63  24
        12     98.5035      2.2786 307.8989104  +6.6728137     1263.973     2466.589     2930.626     89.30405      158.972     288.9304      2.186     7.56     1161.283     63.60712     165.4625        19     1.379     1.159  23.20  24
        13    514.7800   1002.9472 307.6920568  +6.2735023     965.4363     1716.412     1589.403     89.88207     180.4829     360.6429      1.693     6.21     1190.544     63.60712     141.2106        11     1.168     0.927  -9.99   0
        14    748.1875   1021.8336 307.5944156  +6.2734753     1045.386     1672.865     1316.225     89.88207     169.9918     303.5706      1.764     6.61     1190.387     63.60712     144.7659        16     1.349     0.910 -62.67  24
        15    716.1176   1023.7245 307.6076807  +6.2716275     1176.467      1571.76     2170.414      78.0063     142.6616     270.5091      1.175     3.04     1191.157     63.60712     303.1342         9     1.147     0.432  -6.08  24
        16    572.0340   1023.4193 307.6675729  +6.2669564     1289.696     2044.121     2126.409     81.57599     147.4808     276.0051      1.639     4.89     1190.815     63.60712     254.4338        12     1.387     0.737  14.12  24
        17    810.3979   1000.6422 307.5692715  +6.2842951     937.3537     1673.502     1412.713     89.73792     180.1239     360.5352      1.841     5.58     1186.986     63.60712     148.5726        10     1.155     0.781  87.37   0
        18    419.4733   1000.5951 307.7317459  +6.2712949     890.9182     1668.755     1296.729       90.026     179.9801     360.7505      1.867     6.45     1191.801     63.60712     127.4996         9     1.424     0.819  49.66   0
        19    910.3290    994.4830 307.5279444  +6.2901588     7480.226     12978.73     14653.07     90.74221     180.8412     360.8941      1.939     3.87     1186.567     63.60712     892.1718        49     1.760     1.314  80.19   0
        20    266.4174    997.9778 307.7954436  +6.2672646     638.8716     967.3368     299.7858     90.16969     180.3394     360.7864      1.622     3.91     1191.449     63.60712     104.1761         5     0.752     0.637  -4.67   0
        21    884.0165    990.6401 307.5390095  +6.2908718     10392.71     19003.56     21155.29     89.88207     180.3394     360.6429      1.996     3.92     1186.476     63.60712     1282.836        57     1.709     1.467  79.94   0
        22   1005.7417    990.0970 307.4884351  +6.2951370     4230.386     7140.166     7653.722     90.31316     180.4829     361.0375      1.834     3.91     1184.044     63.60712     573.4695        30     1.508     1.083  85.15   0
        23    596.5513    991.6849 307.6584509  +6.2808782     903.0013     1727.207     1972.422     90.45641     180.4829     360.8941      2.206     3.91     1189.621     63.60712     122.3441         9     1.020     0.710  22.72   0
        24    528.2585    989.8615 307.6868956  +6.2793555      2940.24      6072.46     6975.073     90.59942     180.4112     360.8941      2.241     4.80     1190.028     63.60712     333.7522        35     1.638     1.370  77.11   0
        25    637.7068    989.0629 307.6414342  +6.2833316     918.4811     1708.066     1755.717     90.45641     180.4829       360.93      1.963     4.91     1189.396     63.60712     131.1176         9     1.113     0.614  76.33   0
        26    481.3979    986.0425 307.7064999  +6.2793702      1529.66     2714.418     2472.434     89.73792     180.1239     360.5352      1.800     4.50     1190.209     63.60712      194.329        17     1.192     0.994  83.74   0
        27    915.7383    978.1450 307.5262440  +6.2970855     37359.98      65313.2     71174.25     90.59942     180.4112     360.8223      1.903     3.84     1185.515     63.60712     4244.775        76     1.745     1.417  87.38   0
        28    223.1844    976.9264 307.8141216  +6.2745126     1206.863     2374.423     2400.633     89.88207     180.1957     360.7864      2.021     6.88     1190.109     63.60712     152.0375        19     1.371     1.126 -86.07   0
        29    813.6401    972.2085 307.5688784  +6.2961450     1714.683     3159.764     3124.428     89.73792     180.2676     360.5352      1.925     4.70     1185.795     63.60712     214.0979        21     1.365     1.124  74.44   0
        30    761.8413    969.8866 307.5904855  +6.2953816     4948.865     9472.294     10687.35     90.45641     180.4112     360.8941      2.038     4.36     1187.046     63.60712     591.9901        39     1.596     1.323  81.66   0
        31    231.3954    969.9012 307.8109463  +6.2776882     983.6189     1900.972      1498.71     90.16969     180.1239     360.4633      1.936     6.44     1190.021     63.60712     114.9694        14     1.307     1.051 -49.30   0
        32     56.3594    967.4771 307.8837719  +6.2728325     1988.099     3891.884     4300.903     90.31316     180.4829       360.93      2.090     5.82     1186.609     63.60712     237.4209        27     1.626     1.216  81.25   0
        33    950.0067    964.8854 307.5124454  +6.3036990     5655.878     9707.202     10006.03       90.026     180.1239      360.607      1.858     3.99      1184.23     63.60712     682.5695        35     1.567     1.169  79.51   0
        34    923.7736    956.2316 307.5236390  +6.3064018     1693.359     2974.185     3186.684     89.88207     180.1957     360.6788      1.737     5.70      1184.03     63.60712     264.9656        18     1.586     0.833 -85.03   0
        35    256.7433    952.9062 307.8009853  +6.2855535     2871.262      5894.53     6194.316     90.31316     180.4829     361.0734      2.142     5.14     1189.889     63.60712     307.3379        34     1.615     1.389  82.68   0
        36    783.4247    953.2482 307.5820735  +6.3029704     943.8843     1773.512     2350.849       90.026     180.4829     360.7505      2.399     7.07     1185.641     63.60712     124.3221        12     1.541     0.908  86.23   0
        37    644.5223    952.5623 307.6398288  +6.2986319     3240.183     6403.202     6926.475     90.31316     180.5546     360.8582      2.081     5.19     1187.755     63.60712     379.5303        35     1.752     1.280 -89.10   0
        38    993.8033    952.4451 307.4946586  +6.3102900     808.7651     1270.876      1076.92     89.73792     180.1239     360.4633      1.717     3.53     1183.025     63.60712     140.5071         7     0.928     0.561 -56.77   0
        39     25.3483    950.5166 307.8972335  +6.2787975     1539.613     3091.104     3600.541     90.45641     180.4112     360.9658      2.169     5.92     1186.235     63.60712      186.287        22     1.410     1.181  61.31   0
        40    467.3752    951.5224 307.7134906  +6.2931578     772.9323      1418.73     1635.497       90.026     180.3394     360.8223      1.676     4.24     1189.386     63.60712     108.1935         6     1.079     0.475  -9.26   0
        41    876.2693    948.8999 307.5436296  +6.3078518     824.7248     1228.043     1371.588     90.45641     180.6263     360.8223      1.719     3.76     1184.018     63.60712     140.4286         8     1.108     0.705 -63.36   0
        42   1000.1546    945.4697 307.4922524  +6.3133813     680.8068     1425.763     1618.183     90.45641     180.4112     360.8582      2.005     5.78      1182.73     63.60712     100.4348         8     1.618     0.581  87.86   0
        43    947.6158    945.9770 307.5140730  +6.3114282     682.6291     1305.168       1212.8     90.16969     180.2676     360.7505      2.024     3.94     1183.176     63.60712     109.6677         5     0.917     0.485 -87.14   0
        44    569.3622    944.8114 307.6713282  +6.2993292     1110.643     2224.558     2421.861     89.88207     180.2676     360.4992      2.084     6.89     1188.263     63.60712     147.3134        16     1.390     1.063  64.24   0
        45    608.2718    941.6399 307.6552630  +6.3019352     695.3095     1281.027     741.1368     90.31316     180.4829       360.93      1.874     6.57     1188.106     63.60712     113.9288         9     1.254     0.965  20.97   0
        46    288.8658    939.8051 307.7880770  +6.2920372     1095.128     2380.734     3183.069     89.88207     180.1239     360.6429      2.329     7.09     1190.129     63.60712     127.7344        17     1.561     0.934  34.81   0
        47    892.6815    931.8914 307.5373785  +6.3154210     5636.238     10529.47     11174.96     90.16969     180.7696       360.93      1.998     4.16     1182.814     63.60712     611.0959        42     1.690     1.288  85.07   0
        48    755.6465    935.0096 307.5942316  +6.3095785     803.2766     1033.652     1375.396     89.88207     180.3394     360.4633      1.566     4.43     1185.385     63.60712     102.9607         6     0.863     0.646  54.58   0
        49    428.6006    929.1476 307.7303600  +6.3011041     1388.262     3211.512     3944.792     89.59352     179.9801     360.3556      2.427     7.23     1189.165     63.60712     173.2719        23     1.474     1.265 -72.88   0
        50    330.3841    927.5519 307.7712347  +6.2984841     6191.074     13197.84     14569.11     89.88207     180.4829      360.607      2.234     4.96     1189.491     63.60712     631.4683        55     1.902     1.519  77.26   0
        51    250.5259    926.5419 307.8044592  +6.2962329      4775.26     10046.23     11300.12     90.45641     180.4829     360.8582      2.209     4.98     1188.972     63.60712     542.6472        47     1.899     1.404  82.03   0
        52    908.8667    917.1664 307.5311450  +6.3220395     895.0222     1837.156     1842.705     90.31316     180.5546     360.8223      2.202     6.76     1181.821     63.60712     118.9835        11     1.264     1.014 -71.91   0
        53    744.9968    909.9620 307.5994995  +6.3195681     1222.357     2070.578     1588.297      89.4489     180.1957      360.607      1.814     6.46     1184.008     63.60712     151.1897        15     1.368     0.923 -66.68   0
        54    975.9907    905.7805 307.5036263  +6.3289699     1098.498     1916.677     2213.692       90.026     180.1957     360.6788      2.187     5.25     1180.336     63.60712     129.3348        10     0.993     0.784  88.20   0
        55    531.3145    906.2598 307.6884396  +6.3139814     637.0312     1332.277     1581.153     90.45641     180.5546     360.9658      2.387     4.43     1187.257     63.60712     99.51501         5     1.121     0.498 -33.04   0
        56    663.4226    903.2566 307.6336309  +6.3196225      1850.47     3752.943     4240.035       90.026     180.4112     360.6429      2.242     5.60     1184.782     63.60712     206.0245        24     1.486     1.148  54.62   0
        57     59.9441    899.7103 307.8845740  +6.3009364     1930.254     4035.324     4006.492     90.31316     180.4112     361.0017      2.248     5.95     1185.645     63.60712      215.839        31     1.676     1.259  73.11   0
        58    203.9020    898.8320 307.8247725  +6.3061168      1520.03      3097.69     3300.473     90.45641     180.3394     361.0017      2.226     5.17     1187.955     63.60712     202.4824        19     1.448     1.052  81.88   0
        59     77.7928    899.2902 307.8771701  +6.3017076     1176.525     2550.407     2787.224       90.026     180.1239      360.607      2.189     8.02     1185.855     63.60712     132.4791        20     1.450     1.298  86.50   0
        60    657.9559    892.5975 307.6362615  +6.3238424     4656.351     9553.411     11165.25     89.73792     179.9801     360.4633      2.228     4.72     1184.353     63.60712     496.6892        47     1.753     1.462  81.58   0
        61    795.5676    893.3255 307.5790383  +6.3281202     620.9429     1027.005     716.6987     90.31316     180.5546     360.8223      1.563     3.45     1182.236     63.60712      83.0863         5     1.077     0.319  68.40   0
        62     17.9875    891.5050 307.9022891  +6.3029193     787.2084     1443.497     1128.279     90.16969     180.1957     360.6788      1.906     6.06     1184.855     63.60712     94.65588        10     1.136     0.909 -50.73   0
        63    895.7390    888.7269 307.5375555  +6.3333480     2056.476     4151.801     4024.514     90.59942     180.4829     360.8941      2.029     5.66     1180.692     63.60712     218.9574        25     1.543     1.172 -86.66   0
        64    341.1122    885.9123 307.7681803  +6.3160376     9970.195     21837.01     25337.74     90.16969     181.0559     360.9658      2.321     4.88     1188.757     63.60712     966.0112        66     1.952     1.600  84.28   0
        65     31.5814    889.5394 307.8967058  +6.3041864     828.1221     1702.477     1609.546       90.026     180.4112     360.6788      2.147     5.22      1185.01     63.60712      112.907         8     1.046     0.737 -28.37   0
        66     75.8183    886.5907 307.8784202  +6.3068856     911.0246     1954.468     2427.084     90.16969     180.1957     360.6788      2.256     7.50     1185.677     63.60712     108.6918        14     1.479     1.064  61.19   0
        67    212.3801    884.9225 307.8217186  +6.3121443     727.6011     1556.343     1788.651     90.02599     180.1957     360.8223      2.380     4.39     1188.057     63.60712     138.3029         5     1.198     0.462  59.45   0
        68    104.6026    876.8860 307.8667850  +6.3118569     1151.219     2536.561     2588.833     89.73792      180.052     360.5352      2.228     6.37     1186.055     63.60712     181.4933        17     1.333     1.151 -78.51   0
        69    886.2678    870.4211 307.5421064  +6.3405931     1488.353     2619.822     2608.053       90.026     180.4112     360.7505      1.837     4.04     1180.089     63.60712     232.9199        19     1.375     0.945  88.71   0
        70    856.9384    869.9742 307.5543127  +6.3398033     1482.085      2919.07     2782.765       90.026     180.4112     360.7505      1.963     5.48     1180.734     63.60712     166.6674        20     1.437     1.053  85.83   0
        71    820.0910    869.2294 307.5696539  +6.3388863      2304.64     4422.243     4751.079     90.59942     180.1957     360.7864      2.026     5.28     1180.741     63.60712     252.0055        25     1.514     1.178 -79.06   0
        72     88.0443    870.2196 307.8738924  +6.3140553     1498.979     2998.116      3785.65     89.88207     180.3394     360.6788      2.184     5.74     1185.742     63.60712     199.0277        25     1.612     1.139  74.82   0
        73    556.1363    860.9685 307.6796471  +6.3335122     207556.8     452929.2     519197.2     90.16969     180.5546     360.8223      2.305     4.85     1185.257     63.60712     20999.28       197     2.125     1.857  81.39   0
        74    400.4933    863.6424 307.7442501  +6.3272168     4723.937     10480.03     12024.21     90.59942     180.4112     361.0017      2.337     5.23     1187.032     63.60712     467.3262        52     1.860     1.575  78.02   0
        75    343.6318    862.0730 307.7679371  +6.3259663     7423.701     16795.02     19669.59     90.31316     180.4829     360.8941      2.387     5.14     1188.248     63.60712     713.1801        64     1.911     1.699  77.27   0
        76    643.9788    863.5411 307.6430482  +6.3353762      819.023     1442.787     1318.538     90.02599     180.3394     360.6788      1.940     5.59     1182.926     63.60712     106.7651         9     1.095     0.804 -70.74   0
        77    894.1925    857.1253 307.5392584  +6.3463471     4001.612     7981.686     9148.939     90.02599     179.9801     360.7147      2.129     5.27     1179.203     63.60712     477.6267        44     1.753     1.608 -42.09   0
        78    661.7916    857.9188 307.6358332  +6.3382911     2325.057     5076.055     5718.653     90.02599      180.052     360.7147      2.271     5.38     1182.399     63.60712     241.3397        34     1.615     1.404  84.65   0
        79    636.9257    852.2354 307.6463601  +6.3398101     2100.997      4380.76     5052.376     90.31316     180.5546     360.8582      2.169     5.56     1182.258     63.60712     264.3323        29     1.667     1.200  82.08   0
        80    825.2418    851.0090 307.5681245  +6.3465819     1193.189     2205.239     2078.613     89.73792     180.2676     360.5711      1.902     6.99     1179.777     63.60712     143.4357        18     1.468     1.018 -79.78   0
        81    629.3926    848.0231 307.6496330  +6.3412988     1393.237     3609.688     5631.507     89.88207     180.2676     360.6429      3.180    11.29     1182.078     63.60712     168.1136        37     2.605     1.369 -66.74   0
        82    913.3554    844.8295 307.5317053  +6.3520613     2475.008     4839.797     5543.819       90.026     180.4829     360.7147      2.100     4.91     1178.111     63.60712     271.8022        30     1.579     1.224 -82.59   0
        83    323.2132    845.7857 307.7769734  +6.3320102      634.503       1353.5     1816.042     90.31316     180.1239     360.7864      1.706     3.73     1188.029     63.60712     89.40222         5     1.187     0.337  11.84   0
        84    371.5793    841.0901 307.7570285  +6.3355645     1629.224     3691.574     4597.769     90.31316     180.2676     360.7147      2.432     7.36     1186.706     63.60712     169.6748        26     1.574     1.369 -68.84   0
        85    507.8370    830.4939 307.7007491  +6.3444869     1898.141      4153.29     3954.005     90.59942     180.3394     360.9658      2.223     5.91     1184.117     63.60712      202.835        29     1.587     1.327  70.11   0
        86    852.5154    828.9617 307.5575276  +6.3565931     745.9494     1191.271     1735.975     90.45641     180.4112     360.7864      2.257     5.67     1178.423     63.60712     113.9268         8     1.332     0.679 -65.78   0
        87    554.5258    826.7224 307.6814692  +6.3476008     3894.823     8547.646     10794.01     90.74221     180.7696     360.8941      2.435     5.20     1183.114     63.60712       382.53        44     1.766     1.512 -88.82   0
        88    889.9954    824.6071 307.5420940  +6.3596367     1117.981     2057.906     2277.748     89.73792     180.1239     360.6788      1.917     6.01      1177.64     63.60712     137.0529        11     1.103     0.920  84.31   0
        89    114.7346    824.5483 307.8643432  +6.3338086     867.7869     1776.874     1793.995     90.45641     180.4112     360.8582      2.073     7.09      1184.76     63.60712     143.2444        10     1.295     1.089  82.21   0
        90    525.2448    820.7307 307.6938421  +6.3490990      11885.3     26395.21     30393.34     90.45641     180.4112     360.8582      2.326     5.03     1183.355     63.60712      1154.14        71     1.949     1.668  81.12   0
        91    938.7390    818.8082 307.5220265  +6.3636502     2819.676     5596.909     5836.342     89.73792     180.2676      360.607      2.058     4.61     1176.167     63.60712     313.5116        35     1.680     1.259  87.78   0
        92    318.1452    809.4568 307.7803056  +6.3468430     1825.116     4336.944     4478.324     90.59942     180.5546     360.8941      2.455     6.44     1186.825     63.60712      231.121        31     1.655     1.342  89.50   0
        93     35.8079    811.2732 307.8975971  +6.3366474     1148.302     2192.235     2236.891       90.026     179.9801     360.7147      1.899     6.55     1182.823     63.60712     152.8999        13     1.267     0.950  24.47   0
        94    783.3491    805.0831 307.5870805  +6.3641550     37144.99     75890.88     86049.44     90.45641     180.4112     360.9658      2.191     4.49     1177.646     63.60712      4028.63        95     1.968     1.651  85.76   0
        95     18.0494    807.4691 307.9051069  +6.3376233     1202.044     2883.735     3109.318     90.45641     180.4112     360.8582      2.308     7.93     1182.472     63.60712     140.8073        19     1.813     0.971  70.49   0
        96    240.1461    781.7714 307.8136612  +6.3556689     773580.9      2451998      3037276     90.16969     180.5546     360.7505      2.830     5.73     1185.567     63.60712     63349.64       656     2.893     2.303  84.11   4
        97    711.5890    799.6339 307.6170931  +6.3640181     13789.37     30980.35     36055.36     89.88207     180.2676     360.6788      2.347     5.08     1178.145     63.60712     1422.309        61     1.886     1.567  88.03   3
        98    705.3505    796.2672 307.6197995  +6.3652008     55818.36     120703.9     140968.6     90.31316     180.3394     360.8941      2.319     4.83     1178.056     63.60712     5645.502       114     2.044     1.770  83.02   3
        99    908.5888    800.3274 307.5351794  +6.3702810     6163.474     11811.26     13103.71     89.88207      180.052     360.6788      2.053     4.26     1176.117     63.60712     676.5607        44     1.679     1.368  82.61   2
       100    905.4342    791.6697 307.5367812  +6.3737516     5066.123     9720.395     10441.88     90.31316     180.4829       360.93      2.049     4.37     1175.721     63.60712     591.1792        43     1.702     1.388  89.50   2
       101    350.2714    797.2453 307.7673639  +6.3529589     11821.18     27669.26     32578.27     90.31316     180.4829     360.8582      2.412     5.23     1184.986     63.60712     1129.479        79     2.042     1.737  78.75   0
       102    412.0856    795.0604 307.7417435  +6.3559250     12539.96     29518.42     33712.96     90.59942     180.6263     360.9658      2.406     5.25     1184.165     63.60712     1166.503        76     2.070     1.693  77.40   0
       103    399.6696    797.3898 307.7468259  +6.3545486     832.8301     1738.281     2368.016     89.88207     180.2676     360.6788      2.275     8.17      1184.41     63.60712      106.993        13     1.675     1.115  67.56   0
       104    949.1161    793.6835 307.5185553  +6.3743705     1716.734     3144.755     2999.409     90.16969     180.7696     360.9658      1.879     5.02     1174.456     63.60712     198.2947        22     1.547     1.041  83.20   0
       105    646.1178    790.9512 307.6446003  +6.3654243       3777.1     8383.862     9097.419     90.45641     180.4829     360.8941      2.268     5.12     1178.691     63.60712     418.4227        45     1.746     1.520  89.73   0
       106    435.5602    789.0540 307.7321883  +6.3591888     876.6488     1886.343     1844.277     90.31316     180.4829     360.8582      2.269     8.06     1183.204     63.60712     134.5867        14     1.994     0.911  71.04   0
       107    681.2046    780.9935 307.6303501  +6.3707046     1557.627     3552.775     3700.741     89.73792     180.1239     360.7147      2.207     7.15     1177.797     63.60712     185.8163        28     1.574     1.332  69.68   0
       108    415.0399    777.7802 307.7410980  +6.3631596     29522.95     70464.86     83508.52     90.02599     180.2676     360.5711      2.461     5.28     1183.048     63.60712     2810.463       107     2.113     1.855  82.99   0
       109    532.8006    776.8829 307.6921777  +6.3674583     4049.155     9492.917     11194.07     89.59352     179.9081     360.4992      2.382     5.52     1180.658     63.60712     437.5532        49     1.821     1.610  83.61   0
       110    778.0092    773.2549 307.5903692  +6.3771213     7342.895        15810     17811.97     89.73792     180.4112     360.5352      2.246     4.72     1175.698     63.60712      748.049        60     1.876     1.569  83.57   0
       111    449.7954    775.3363 307.7267333  +6.3653286     2662.063     6092.053     7487.003     89.59353     180.1957     360.6429      2.440     5.72     1182.016     63.60712     264.4174        35     1.611     1.453  25.28   2
       112    446.3265    769.3438 307.7283773  +6.3676875     1356.421     3472.773      4693.19     90.31316     180.3394     360.8223      2.848     8.77     1181.769     63.60712       149.41        28     1.751     1.436  60.71   3
       113    144.1898    765.5922 307.8540931  +6.3591402     1631.392     4035.432     5295.467     89.88207     180.2676     360.7505      2.761     6.89     1183.746     63.60712     170.1428        35     1.680     1.572  86.50   3
       114    135.8803    765.5720 307.8575477  +6.3588705         6396     15274.22     19005.41     90.31316     180.2676     360.8582      2.564     5.42     1183.548     63.60712     676.9611        64     1.983     1.743  71.07   3
       115    128.2398    762.3832 307.8608313  +6.3599315     1747.849     4679.852     8114.295       90.026     180.3394      360.607      3.662    14.74     1183.213     63.60712     174.0376        58     4.034     1.497  87.07   2
       116    799.4227    767.0391 307.5816765  +6.3804003     1042.947     1982.103     2066.388     90.02599     180.1957     360.6429      1.981     6.77     1175.259     63.60712     129.7582        15     1.306     0.984  49.64   0
       117    923.4203    761.8689 307.5303040  +6.3866557     4625.027     8983.144     9857.485       90.026     180.3394     360.7505      2.029     4.31     1173.799     63.60712     541.8162        41     1.647     1.354 -88.59   0
       118    972.7479    761.7550 307.5098020  +6.3883404     1204.297     1812.017     2578.533     90.45641     180.4112     360.8582      1.850     6.05      1171.88     63.60712     145.7644        14     1.323     0.854 -73.53   0
       119    678.4784    759.4092 307.6322090  +6.3795274     1065.284     2418.678     3109.787       90.026     179.9801     360.6788      2.418     8.29     1176.752     63.60712      140.718        20     1.749     1.098  69.17   0
       120    565.7366    758.9477 307.6790905  +6.3759627     1325.474     2700.922     3165.147     90.45641     180.4112     360.8223      2.166     6.46     1179.012     63.60712     161.0753        21     1.339     1.178 -15.03   0
       121    978.2437    753.1653 307.5078053  +6.3920701     1517.692     2807.819     3406.979     90.16969     180.4829     360.7147      2.058     4.79     1171.336     63.60712     193.7831        20     1.389     1.093  70.41   0
       122    947.0194    753.2018 307.5207843  +6.3910185     2228.732     4285.858     4760.643       90.026     179.9801     360.5352      2.072     4.45     1172.509     63.60712      279.082        24     1.378     1.157 -81.39   0
       123    917.5970    753.7361 307.5329975  +6.3898209     2122.842     4266.712     5042.711     89.73792     180.2676      360.607      2.212     4.37     1173.423     63.60712     258.2977        29     1.400     1.310 -57.75   0
       124    670.3376    753.0736 307.6358061  +6.3818727     830.9299     1801.064      2318.47     90.59942     180.4829     360.8582      2.363     7.62      1176.67     63.60712     108.0609        13     1.306     1.245  35.47   0
       125    817.3184    751.1680 307.5747702  +6.3875495     794.8247     1291.007     1869.547     90.31316     180.3394     360.7864      2.040     5.42     1174.232     63.60712     104.0688         7     1.007     0.823   6.55   0
       126    243.1854    748.0781 307.8135356  +6.3696842     1065.427     2230.009     3009.449     90.02599     180.1957     360.6788      2.501     7.14     1183.854     63.60712     138.3798        12     1.337     1.102   7.72   0
       127    961.9268    741.0399 307.5149950  +6.3965359     1684.724     3341.458     3830.839     90.31316     180.5546       360.93      2.056     5.67     1171.413     63.60712     209.0864        24     1.526     1.288 -66.54   0
       128    935.5533    742.6567 307.5259046  +6.3949926     744.6833      1404.54     1347.797     90.45641     180.4829     360.9658      1.868     4.15     1172.378     63.60712     102.1598         7     1.012     0.485 -82.83   0
       129    908.9308    742.3329 307.5369827  +6.3942422     950.2744      1676.28     1455.196     90.45641     180.5546     360.8582      1.840     5.05     1172.902     63.60712     132.2925        10     1.204     0.968 -83.23   0
       130    680.2380    740.8636 307.6321011  +6.3872446     635.6262     1300.461      1594.92     90.45641     180.4112       360.93      2.759     4.81     1175.763     63.60712       112.84         5     1.174     0.667 -67.09   0
       131   1003.8101    734.4996 307.4978027  +6.4006269     1294.818     2410.038      2691.94     90.16969      180.052      360.607      1.975     6.91     1169.866     63.60712     137.4012        19     1.416     1.042 -89.40   0
       132    804.9310    732.4454 307.5805484  +6.3948694     929.3979     1720.545     1507.205     90.45641     180.4112     360.8582      1.978     6.12     1173.202     63.60712     118.7603        12     1.161     0.907  85.24   0
       133    890.8219    730.7040 307.5449009  +6.3984431     1029.734     2232.619     2749.344     90.31316     180.2676     360.6429      2.357     6.95     1172.602     63.60712      132.257        15     1.413     0.959  64.54   0
       134    848.2716    721.6025 307.5628952  +6.4007879     1191.379     2255.613      2532.65     89.88207      180.052     360.6788      1.972     4.42     1172.609     63.60712     158.5216        14     1.232     0.914 -88.12   0
       135     48.3836    721.2761 307.8954149  +6.3742323     1439.655     3179.524     3771.148     89.88207     180.1957     360.7147      2.422     6.11     1181.242     63.60712     175.0737        24     1.575     1.352 -77.51   2
       136    111.9792    719.1141 307.8690532  +6.3772550      620.343     1313.905     1565.077     90.31316     180.1957     360.7505      2.653     4.81     1181.535     63.60712     102.4679         5     0.969     0.675  28.91   0
       137    660.1329    709.2979 307.6415204  +6.3996107     3662.218     8416.288     9459.468     90.45641     180.5546     360.8941      2.380     5.47     1174.055     63.60712     365.7876        45     1.842     1.509  77.49   0
       138    123.2018    705.2534 307.8648569  +6.3833544      2004.27     4920.407     6105.241     89.73792     180.1957     360.3915      2.533     7.17     1181.101     63.60712     213.6226        39     1.909     1.537  70.08   0
       139    634.0350    705.1732 307.6525084  +6.4004449     1255.276     3129.171     4210.197     89.88207     180.1957      360.607      2.798     8.18     1174.623     63.60712     137.4554        25     1.583     1.432  11.52   0
       140    996.9684    704.1268 307.5016649  +6.4129429     1904.922     3632.739         3826     90.31316     180.4829     360.8941      2.094     4.97     1169.389     63.60712     222.0033        24     1.542     1.096 -84.39   0
       141    776.9641    701.2452 307.5932226  +6.4068240     12296.79     27138.72     30822.95     90.16969     180.4112     360.7864      2.311     4.92     1171.963     63.60712     1245.078        70     1.916     1.656  83.84   0
       142    906.7593    700.9515 307.5392737  +6.4112593     2522.041     5174.378     6586.149     90.31316     180.4112     360.7864      2.364     5.05     1170.617     63.60712     266.6133        34     1.659     1.324  87.62   0
       143    475.7551    700.8118 307.7184533  +6.3969701     756.1025     1384.133     940.0091     89.88207     180.2676     360.5352      2.052     5.03      1178.37     63.60712      104.454         8     1.168     0.613  79.17   0
       144    250.5947    695.0990 307.8122447  +6.3918096     3429.666     8143.422     9950.477     90.16969      180.052     360.4633      2.521     5.68     1180.688     63.60712     339.4803        47     1.880     1.540  68.36   0
       145    657.3667    694.1191 307.6431809  +6.4057868     3768.024     9076.424     11096.49     90.31316     180.4112     360.8582      2.527     5.58     1173.045     63.60712     408.4264        56     1.984     1.642  85.64   0
       146    729.0851    682.7419 307.6137486  +6.4128725     2168.291     4969.557     6321.959     90.45641     180.4829     360.9658      2.529     6.10     1171.283     63.60712     255.2175        37     1.873     1.378  68.90   0
       147    995.4266    679.0569 307.5031463  +6.4232449     6731.666     12857.04     13792.28     90.02599     180.5546     360.6429      2.032     4.22     1168.823     63.60712     728.2384        47     1.703     1.385  79.48   0
       148    934.0072    679.2548 307.5286738  +6.4211243     1632.509     3563.495     3911.104     89.88207     180.2676     360.5352      2.150     6.14     1169.001     63.60712     189.8381        25     1.473     1.317  75.62   0
       149     15.2547    679.1647 307.9106108  +6.3905119     1159.059     2744.665     3563.165     90.31316     180.4829     360.8941      2.653     7.55     1179.996     63.60712     137.1929        23     1.582     1.253  63.70   0
       150     72.9679    674.2195 307.8867878  +6.3944876     13504.37     33197.72     39853.94     89.88207     180.2676     360.6788      2.515     5.45     1179.873     63.60712     1486.306        84     2.168     1.756  78.82   0
       151    534.0594    674.9989 307.6950851  +6.4095742     1146.589      2840.92     3434.476     89.73792     180.1957     360.4992      2.518     7.67     1175.547     63.60712     128.1726        22     1.579     1.285 -54.18   0
       152    504.0381    671.9720 307.7076674  +6.4098231     774.7578     1695.822     1554.653     89.88207     180.1957     360.6788      2.232     6.48     1176.579     63.60712      105.309        10     1.294     0.912  72.22   0
       153    718.7167    666.2307 307.6186141  +6.4193460     2017.165     4637.738     5766.897     90.45641     180.2676     360.7147      2.452     6.01     1170.468     63.60712     232.0905        30     1.690     1.266  77.94   0
       154    740.8322    664.3269 307.6094840  +6.4208681     2437.282     5305.311     5735.699     90.31316     180.4829     360.8582      2.244     5.44     1170.365     63.60712     260.5387        37     1.771     1.389  67.65   0
       155    572.1226    662.5023 307.6796823  +6.4160036      1682.65     4316.476     5090.719     90.02599     180.7696     360.8941      2.486     7.04     1173.866     63.60712     173.8218        34     1.616     1.563 -81.98   0
       156   1013.6001    660.3896 307.4962165  +6.4315569      3586.05     6547.892     6686.172       90.026     180.1239     360.6429      1.947     4.22     1167.693     63.60712      404.658        32     1.528     1.188  89.58   0
       157    979.1403    659.2661 307.5105806  +6.4308773      5918.09      11353.4      12589.1     90.59942     180.4112     360.8582      2.060     4.41      1167.78     63.60712     608.6255        45     1.729     1.334  77.54   0
       158    232.7421    662.1031 307.8207803  +6.4048383     933.2123     2499.417     2630.268     90.31316     180.4829     361.0375      2.392     8.10     1178.693     63.60712     114.1007        16     1.708     1.073 -35.65   0
       159    316.6482    660.2268 307.7859635  +6.4084179     792.3472      1548.62     1694.998       90.026     180.5546     360.7864      2.105     5.45     1178.218     63.60712     88.58057         8     1.150     0.730 -43.35   0
       160    137.7131    653.0820 307.8605886  +6.4053841     12367.89      30892.5     36832.69     90.16969      180.698       360.93      2.557     5.67     1179.111     63.60712     1323.882        86     2.190     1.814  72.90   0
       161    426.2578    653.5287 307.7406234  +6.4148443     1193.123     1913.601     2956.015     90.59942     180.4829     360.8223      2.187     7.41     1176.776     63.60712     135.5983        17     1.693     0.909 -86.02   3
       162    423.3811    653.6701 307.7418145  +6.4146899     1147.537     2842.947     3298.558       90.026     180.3394     360.7505      2.820     7.82     1176.795     63.60712     136.8351        18     1.965     0.871 -78.14   3
       163    804.9910    654.1896 307.5831516  +6.4271884     603.8553     1025.547     1304.204       90.026     180.2676     360.7505      2.090     4.84     1169.793     63.60712     76.34583         5     0.896     0.742   4.60   0
       164    973.9900    642.2617 307.5132920  +6.4377287     4855.611     10046.24     11593.35     89.73792     180.2676      360.607      2.265     4.55     1166.738     63.60712     569.7351        49     1.794     1.512  53.53   0
       165    567.5801    637.7272 307.6824048  +6.4260833     24555.31     61378.57     73538.68       90.026     180.4112     360.8223      2.546     5.61     1172.709     63.60712     2216.392       102     2.162     1.874  77.63   0
       166     19.7248    641.6086 307.9100238  +6.4061702     764.1007     1435.132     1223.002       90.026     179.9801     360.6429      2.052     5.47     1178.571     63.60712     101.2532         8     1.406     0.600  78.91   0
       167    175.3978    634.9146 307.8455371  +6.4141475     1407.304     3373.071     3326.622     89.73792      180.052     360.5352      2.357     7.53     1178.319     63.60712     156.4781        26     1.708     1.285  54.23   0
       168     67.9626    630.0618 307.8903624  +6.4125546     654.5723     1462.984     1990.091     90.45641     180.5546     360.8582      1.891     4.82      1178.08     63.60712     112.0626         5     1.292     0.509 -29.00   0
       169    464.9057    621.5828 307.7256334  +6.4293263     31295.35     80596.38     97030.05     90.31316     180.2676     360.6788      2.604     5.81      1174.71     63.60712     2870.123       115     2.206     1.942  82.75   0
       170      9.2431    623.1385 307.9150063  +6.4134459     1035.798     2240.034     2400.339     90.45641     180.4829     361.0017      2.359     6.48     1177.793     63.60712     132.1875        12     1.525     0.773 -52.59  16
       171    140.6544    616.6709 307.8605969  +6.4205184     891.0623     1610.062     1743.462     90.31316     180.3394     360.8223      1.912     5.41     1177.634     63.60712     129.4235        10     1.290     0.641  71.07   0
       172    310.3308    611.5817 307.7902316  +6.4282949     1098.953     2791.085     3918.084       90.026     180.3394     360.8223      2.988     8.19     1175.519     63.60712     126.8696        20     1.491     1.256   6.28   0
       173    736.9086    604.9396 307.6131112  +6.4452624     2928.196      6454.78     7795.598     90.31316     180.5546     360.9658      2.367     5.48     1167.328     63.60712     343.5586        38     1.790     1.369 -81.57   0
       174    790.4420    600.2499 307.5910121  +6.4489798     8253.417     18548.32     21205.74     90.59942     180.4829     360.8582      2.352     5.20     1166.986     63.60712     793.1078        63     1.911     1.655  87.10   0
       175    614.5111    598.2560 307.6642224  +6.4439472     1482.055     3819.901     4645.691     90.45641     180.3394     361.0375      2.586     7.90     1168.864     63.60712     180.9626        31     1.698     1.420 -55.44   0
       176    866.3217    583.3636 307.5600316  +6.4584758      1682.19     3618.549     4157.706     90.31316     180.5546     360.8582      2.264     6.34     1165.604     63.60712     179.2848        25     1.462     1.230  74.90   0
       177    824.9759    580.4446 307.5773196  +6.4583070     1359.399     2976.042     3604.882     89.88207     180.4829     360.7147      2.390     7.34     1165.616     63.60712     159.6663        19     1.491     1.200  78.46   0
       178    253.3714    576.1694 307.8151068  +6.4410144     3812.779      10006.3     12354.41     89.88207     180.1957     360.5711      2.692     6.49     1174.263     63.60712     393.4302        59     2.230     1.666  72.85   0
       179    805.6818    572.1542 307.5856199  +6.4610892     91433.59       209126     243888.1     90.45641     180.4829     360.8582      2.404     5.15     1165.209     63.60712      9399.74       176     2.274     2.038 -53.54   0
       180    187.4994    570.6956 307.8426767  +6.4410715     28516.67     75202.48        93360     90.45641     181.0559     360.6788      2.692     5.98     1175.073     63.60712     2893.075       122     2.307     1.990  83.92   0
       181    111.4761    567.0775 307.8744039  +6.4400209     3108.258     7857.877     9227.675      90.7422     180.7696       360.93      2.559     6.01     1175.226     63.60712     349.6327        49     1.889     1.656  76.10   0
       182    976.2487    564.1548 307.5149720  +6.4700593     911.1135     1709.428     1645.518     90.45641     180.3394     360.8941      1.962     4.85      1161.62     63.60712     133.6643        10     1.078     0.796  68.12   0
       183    573.4479    564.2899 307.6824378  +6.4566055      2707.47      2623.57     2509.555     90.45641     180.3394     361.0375      0.754     1.46     1168.258     63.60712     1204.473         5     0.646     0.348 -32.33   0
       184    842.1683    559.5408 307.5708736  +6.4675110     2705.885     5943.604     6501.848     90.16969     180.5546     360.8223      2.252     5.50     1164.271     63.60712     336.8015        40     1.833     1.424  69.16   0
       185    360.8785    557.7170 307.7710349  +6.4522272     7867.767     21073.41     25542.37     90.59942     180.7696     361.0017      2.642     6.12     1171.909     63.60712     745.1851        80     2.151     1.885  72.92   0
       186    162.7995    556.4865 307.8534254  +6.4461125     1044.137     2654.928     3883.037     89.59353     179.9081     360.4992      3.080     8.19     1174.672     63.60712     155.4686        20     1.585     1.492  27.48   0
       187    796.2647    552.9045 307.5901818  +6.4687254     3292.511     7244.398     8532.277     90.45641     180.6263     360.8941      2.322     5.20      1164.12     63.60712      365.498        39     1.679     1.457 -71.88   0
       188    527.1982    552.6143 307.7020595  +6.4598852      3041.42     8075.397     9591.966       90.026     180.1239      360.607      2.607     6.68     1169.224     63.60712     323.4449        51     2.031     1.665  76.79   0
       189    174.4257    545.9916 307.8489468  +6.4508354     3159.584      8281.01     9906.442     90.02599     180.2676     360.6788      2.602     6.50     1173.898     63.60712     346.8063        51     1.974     1.687 -88.19   0
       190    269.4877    542.3575 307.8095485  +6.4555158     40088.68     108339.9     134144.7     90.45641     180.4112     360.8941      2.712     6.15      1171.51     63.60712     4049.885       131     2.323     2.009  79.40   0
       191    571.7600    545.6755 307.6837662  +6.4642362     1411.268     3496.394     4121.221     90.31316     180.4829     360.8941      2.539     8.42     1167.174     63.60712     167.3105        24     1.553     1.293 -85.08   0
       192     46.0060    544.6886 307.9023789  +6.4470731     2528.802     6537.461     8151.082     89.88207     180.1239     360.5711      2.630     6.26     1173.673     63.60712     293.5941        47     1.922     1.598  89.61   0
       193    813.0121    545.3322 307.5834731  +6.4724094     861.7315     2212.047     2566.615     89.88207     180.3394     360.7505      2.864     7.57     1163.494     63.60712      113.697        11     1.567     1.025  28.33   0
       194    792.5505    534.5422 307.5923430  +6.4761849     8838.033     20863.09     24073.89     90.45641     180.4829     360.8941      2.436     5.45      1163.21     63.60712     882.1117        67     2.030     1.646  79.70   0
       195    496.1781    533.0349 307.7156160  +6.4669361     19405.12     53317.38     68292.36     89.88207     180.2676     360.5711      2.783     6.04     1168.522     63.60712     1741.298       115     2.266     2.127  73.48   0
       196    968.8683    535.4907 307.5190019  +6.4816517      1144.45     2401.735     2687.452     90.59942     180.6263     360.8582      2.067     7.38       1160.3     63.60712     126.6484        15     1.425     1.070 -74.28   0
       197    656.0179    528.0861 307.6493267  +6.4743072     1457.005      4012.87     5734.521       90.026     180.1957     360.7505      3.292     8.43     1164.686     63.60712     179.6421        33     1.738     1.642   9.98   0
       198    209.1206    529.8680 307.8350677  +6.4586545     776.9028     1860.824     1814.803     90.59942     180.7696     360.8582      2.209     5.95     1171.775     63.60712     133.5583         9     1.435     0.695  80.72   0
       199    140.6472    520.7712 307.8638425  +6.4601195     12281.13     32255.54     39657.21       90.026     180.6263     360.7505      2.657     6.02     1172.509     63.60712     1337.683        86     2.220     1.852  74.22   0
       200    325.4586    522.3068 307.7869557  +6.4656666     1604.641     4430.536     5224.148     90.31316     180.4112     361.0017      2.742     7.53     1169.535     63.60712     199.3223        39     1.909     1.523  68.05   0
       201    395.1633    523.8541 307.7579234  +6.4673560     677.0724     1555.175     1335.924     90.31316     180.4829     360.8941      2.512     3.97     1169.158     63.60712     81.50842         6     0.774     0.583 -50.22   0
       202    868.1931    520.9459 307.5613490  +6.4843144     925.7198     2223.554     2387.104     89.88207     180.1957     360.5352      2.365     7.05     1161.717     63.60712     144.2781        14     1.652     1.033 -61.49   0
       203    253.5127    537.3707 307.8163585  +6.4570410     788.3224     1786.717     851.1852     90.59942     180.1957     360.7147      2.234     7.42     1171.392     63.60712     94.36731        12     1.475     1.044  -8.51   0
       204    105.9552    518.5245 307.8783413  +6.4598856     1266.504     3283.715     3698.177     90.31316     180.5546     360.8941      2.641     9.71     1172.793     63.60712     138.2062        32     1.988     1.532  71.91   0
       205    966.0965    514.8943 307.5208451  +6.4900653     3335.868     6941.306     7923.165     90.45641     181.1274     360.7147      2.210     5.26     1159.501     63.60712     369.3627        40     1.896     1.318 -88.93   0
       206    539.8688    509.0000 307.6982606  +6.4783185     724.7321     1717.738      2276.98     89.88207     179.9081      360.607      2.634     4.18       1165.1     63.60712     107.0237         5     0.838     0.596   0.41   2
       207      4.9584    505.2139 307.9207800  +6.4619981     12650.92     32017.26     38302.59     89.88207     180.2676     329.5807      2.540     5.65     1171.887     63.60712     1435.294        85     2.181     1.812  78.57  24
       208    645.5942    501.4641 307.6545563  +6.4849539     5909.613     15552.52     18104.18     89.73792     180.1958      360.607      2.563     6.02     1163.229     63.60712     552.5646        65     2.063     1.749  84.57   0
       209    437.5539    501.7770 307.7410434  +6.4778880     19236.32     52671.02     64819.21       90.026     180.4829     360.7147      2.707     6.15     1166.509     63.60712      1858.05       103     2.222     1.980  84.99   0
       210    202.7982    499.4938 307.8387226  +6.4709859     8833.153     24890.35     30701.47     89.88207     180.1239     360.4633      2.720     6.36     1169.461     63.60712     831.6426        86     2.227     1.972  74.64   0
       211    167.1925    501.1057 307.8534713  +6.4691288     674.4672     1756.593     2083.705     90.02599     180.1239      360.607      2.816     7.02     1170.561     63.60712     122.7942        10     2.053     0.673  78.95   0
       212    568.6646    498.9694 307.6866259  +6.4834207     960.6602     2183.665      3104.95     90.16969     180.6263     360.7864      3.108     9.64     1163.926     63.60712     137.3807        15     2.573     1.007  61.05   2
       213    566.3095    499.7167 307.6875799  +6.4830336     1032.363     2142.939     2677.456     90.16969     180.7696     361.0017      2.440     7.31      1164.03     63.60712     155.3884        15     1.841     0.812  63.40   2
       214    614.4274    493.9933 307.6677662  +6.4870008     2866.415     7665.545     9531.893     89.88207     180.3394     360.6429      2.658     6.58     1163.216     63.60712     292.1495        49     2.039     1.565  82.78   0
       215    941.1954    495.0300 307.5318651  +6.4974418     3000.163     6388.629      7301.18     89.88207     180.2676     360.6429      2.293     5.00     1158.868     63.60712     327.2247        41     1.777     1.398  88.18   0
       216    963.6776    487.4450 307.5227716  +6.5013207     2107.656     4323.152     4314.897     90.31316     180.5546     360.8582      2.040     5.21     1158.194     63.60712     267.2557        28     1.531     1.284 -85.53   0
       217    526.6778    485.0304 307.7045525  +6.4877770     3412.841     9130.371     11783.72     90.31316     180.5546     360.8223      2.793     6.36     1163.019     63.60712     354.4728        54     2.017     1.695  83.76   0
       218    371.1447    485.7625 307.7691944  +6.4822839     905.3036     1994.275     2766.944     90.45641     180.5546     360.8941      2.568     6.12     1166.472     63.60712     117.2023        10     1.329     0.792  69.57   3
       219    373.8672    484.3594 307.7681098  +6.4829542      969.649     1899.754     2905.529     90.31316     180.4112       360.93      2.688     5.01     1166.277     63.60712      159.283         9     1.106     0.642 -86.75   3
       220    882.7974    480.7655 307.5566256  +6.5013928     1902.425     4282.663     6001.538      89.4489     180.2676      360.607      3.468     6.34     1158.945     63.60712     262.9178        34     1.850     1.411  69.55   0
       221    890.4160    475.3626 307.5536391  +6.5038771     1423.334     2919.503      4123.76     90.16969     180.2676     360.5711      2.641     5.91     1158.481     63.60712     673.4346        24     1.420     1.274  82.23   0
       222    714.4283    471.2676 307.6269517  +6.4997157     1394.423      3628.95     3955.514     90.16969     180.4112     360.7864      2.428     8.67     1161.107     63.60712     148.4946        27     1.550     1.354  82.61   0
       223    386.8855    469.5739 307.7631960  +6.4894947     1619.624     4051.159     5642.944     90.59942     180.1957     360.7147      2.902     9.92     1164.685     63.60712     169.9752        25     1.868     1.469  88.22   2
       224     76.0504    470.4521 307.8924005  +6.4787351     891.6234     2519.033     3129.404     90.59942     180.3394     360.8941      2.837     8.52      1170.56     63.60712     106.3552        14     1.551     1.309   2.85   0
       225    929.0956    474.4742 307.5375859  +6.5055289     767.7537     1383.748      1394.19     90.16969      180.698     360.8582      2.038     5.43     1157.631     63.60712     103.3367         8     1.014     0.819 -18.86   0
       226    612.9810    466.0493 307.6693082  +6.4984923     4769.096     12470.96     15879.71     89.88207     180.5546     360.6788      2.649     6.23     1161.477     63.60712     446.3068        67     2.180     1.751  83.39   0
       227    775.8038    462.3008 307.6017335  +6.5054609     8572.475     21103.12     25910.96     90.16969     180.1957     360.4633      2.561     5.56      1159.77     63.60712     835.9435        76     2.132     1.774 -85.70   0
       228    296.9275    463.2320 307.8008122  +6.4891080     1036.379     2019.769     2739.294     90.31316     180.4829     360.8941      2.606     7.01      1164.68     63.60712     132.8536        14     1.428     0.963  74.00   2
       229    294.0000    462.9969 307.8020373  +6.4891072     794.4668     1829.488      2475.46     89.59352     179.9081     360.5352      2.259     3.96     1164.686     63.60712     150.8403         5     1.392     0.322 -71.56   3
       230    961.0732    457.1472 307.5248708  +6.5137462     1098.721      2054.11     1670.304     90.31316     180.5546     360.8941      1.993     5.81     1156.515     63.60712     153.3636        12     1.173     0.970 -63.77   0
       231    113.4102    454.7628 307.8773987  +6.4864652     2111.738     5691.714     7117.214     89.88207     180.2676     360.4992      2.739     7.76     1169.176     63.60712     258.4299        43     1.936     1.661  82.58   0
       232   1014.9011    451.9985 307.5026613  +6.5176591     2734.648     5822.818     6541.234     89.88207     180.1957     360.5352      2.225     5.24     1155.282     63.60712     306.0189        38     1.730     1.397  64.71  16
       233    751.1204    453.1937 307.6123029  +6.5084006     1122.069     2741.764       2981.5     90.02599     179.9801     360.5711      2.449     8.16     1159.594     63.60712     135.0231        20     1.562     1.192  79.00   0
       234    349.2245    449.3523 307.7795369  +6.4965873     1435.969     3821.233     4610.567       90.026     180.4829     360.7147      2.521     8.90     1163.255     63.60712     183.3424        29     1.764     1.408  26.95   0
       235    269.7305    450.9739 307.8125339  +6.4932607     703.2847     1351.321     1761.147       90.026     180.3394     360.7864      2.476     5.12     1164.019     63.60712     107.6833         6     1.117     0.664 -80.96   0
       236    704.6055    447.2208 307.6318447  +6.5093192     810.7175     1887.455     2300.199       90.026     180.1957     360.6429      2.267     5.83     1159.706     63.60712     86.25671         9     1.222     0.783  -1.46   0
       237    831.1696    437.2129 307.5795551  +6.5176625     986.2817      1814.87     1900.234     89.88207     180.2676     360.7864      1.827     5.23     1157.295     63.60712     130.6704        10     1.106     0.816 -31.48   0
       238    817.0245    435.7368 307.5854863  +6.5178018     1096.625     2671.218     2791.828       90.026     180.4829     360.8223      2.330     8.09     1157.451     63.60712     132.7661        21     1.439     1.309   7.85   0
       239    714.2032    434.1088 307.6282949  +6.5150534     7636.846     18912.47     22311.03     90.02599     180.1239     360.5711      2.506     5.69     1158.821     63.60712     730.3613        64     1.979     1.717  83.66   0
       240    636.3526    429.0591 307.6608354  +6.5145464     952.0746     2711.205     3758.961     90.45641     180.4829     360.9658      3.116     7.62     1158.881     63.60712     121.5237        14     1.579     1.029  32.37   2
       241    607.5347    425.2980 307.6729446  +6.5151394     7438.221     20630.76      29740.1     90.45641     180.5546     360.8941      3.139     7.27     1158.435     63.60712     679.0776       105     2.740     1.996  41.00   0
       242    939.5411    424.1061 307.5349326  +6.5266761     2154.052     4744.758       4690.3     90.31316     180.4829     361.0375      2.208     5.79     1155.331     63.60712     229.6691        33     1.681     1.334  62.07   0
       243    378.6152    420.1859 307.7683009  +6.5096134     12517.56     35585.56     44887.68     90.16969     180.1239     360.7864      2.785     6.46     1159.551     63.60712     1239.877        98     2.309     1.971  80.46   0
       244    894.3828    418.6754 307.5538926  +6.5274188     864.2079     2217.328     2712.335     89.88207     180.1957     360.7147      2.751     7.84     1155.619     63.60712     117.4882        13     2.099     0.819  50.45   0
       245    125.1583    419.4893 307.8737074  +6.5014246     1022.405     2417.494     3245.984     90.45641     180.4112     360.8941      2.831     7.01     1166.598     63.60712     126.5952        14     1.476     0.933  38.19   0
       246    908.1976    414.2209 307.5482976  +6.5297173     2986.065     6472.218     7546.422     90.02599     180.1239     360.5711      2.372     5.19     1155.308     63.60712     327.6224        38     1.702     1.445  81.79   0
       247     58.3021    415.9259 307.9016249  +6.5006566     863.1338     2004.018     2257.361       90.026     180.6263     360.8582      2.386     5.08     1168.318     63.60712     124.2875         7     1.053     0.693  19.88   0
       248    236.2219    410.7968 307.8278234  +6.5087312     5870.688     16937.55     21275.77     90.02599     180.1239      360.607      2.798     6.89     1161.695     63.60712     640.9666        77     2.228     1.913  71.98   0
       249    136.3560    399.6711 307.8697220  +6.5099833     2205.232     6440.754     7777.223     90.31316     180.4829     360.8941      2.737     7.56     1165.229     63.60712     297.0674        48     1.992     1.713  79.55   0
       250    959.4833    402.4026 307.5273684  +6.5363011     648.4404     1375.922     1095.805     89.73792      180.052     360.4992      2.125     6.34     1153.165     63.60712     101.9375         9     1.402     0.806  30.99   0
       251    159.1880    394.2226 307.8604131  +6.5129977     1185.313     3075.837     4213.797     90.02599     180.2676     360.7505      2.819     8.86     1163.963     63.60712     145.3428        18     2.049     1.070 -16.93   2
       252    383.8831    388.9796 307.7671635  +6.5226760     832.3062     1748.042     2768.422     90.16969     180.1239     360.7864      2.507     3.96     1157.241     63.60712     111.6328         6     0.983     0.580  44.38   0
       253    971.1722    387.2651 307.5230156  +6.5429404      498.985     1317.546     1441.905       90.026     180.4829     360.7864      1.988     4.51     1151.512     63.60712     93.71838         5     1.652     0.351 -44.96   0
       254    435.8579    383.6078 307.7457334  +6.5266298     3164.468     9070.493     11445.59     89.73792     180.3394      360.607      2.775     6.99     1156.186     63.60712     323.0532        56     2.116     1.703 -85.95   0
       255     32.4321    384.6460 307.9134399  +6.5127063     1628.817     4050.956     5290.056     90.16969     180.4829     360.7505      2.656     7.93     1168.083     63.60712     184.9589        30     1.680     1.395  66.75   0
       256    776.1874    380.7260 307.6043156  +6.5391610     6731.964     16392.26     19980.33     89.88207     180.1239     360.6429      2.512     5.67     1154.583     63.60712     668.2319        65     2.053     1.686  78.09   2
       257    768.2812    382.3006 307.6075503  +6.5382477     1093.488     2841.521     3537.437     90.45641     180.9844     360.9658      2.759     9.21     1154.688     63.60712     128.6754        23     1.832     1.293  84.23   3
       258   1020.0416    375.8037 307.5030784  +6.5492956     2226.764     4538.374     5135.022     89.73792     180.1239       329.62      2.160     4.92     1148.374     63.60712      280.766        27     1.480     1.225  75.91  16
       259    483.9416    367.4246 307.7262853  +6.5349174     1306.397     3487.259     3943.953     90.02599     180.4829     360.6788      2.561     9.62     1154.769     63.60712     144.7367        32     1.839     1.405  53.34   0
       260    457.1198    368.8674 307.7373895  +6.5334265      803.043     2257.219     3201.798     90.59942     180.7696     360.8582      3.016     6.59     1155.188     63.60712     106.5665        10     1.625     0.749 -61.31   2
       261    841.6042    363.5969 307.5776888  +6.5484101     18735.07      43969.2     52270.79     89.73792     179.9801     360.6429      2.482     5.33     1153.394     63.60712       1956.9        91     2.123     1.772  85.69   0
       262    614.7527    355.7780 307.6722836  +6.5440887     1075.435     2294.436     2860.888       90.026     180.4829     360.7147      2.679     6.40     1153.479     63.60712     158.0388        13     1.872     0.614  33.22   3
       263    698.1238    349.7160 307.6378194  +6.5493690     39200.35     99854.38     121326.4     90.59942     180.8412       360.93      2.589     5.83     1152.569     63.60712     3624.408       128     2.264     1.950  82.50   0
       264    612.6882    357.9891 307.6730676  +6.5431068      1015.81     1845.741     2795.896     90.02599     180.1957     360.7147      2.686     8.07     1153.638     63.60712     136.1168        14     1.646     1.106  32.51   2
       265    561.0803    347.1265 307.6948934  +6.5458724     1120.464     2803.342     3795.084      90.7422     180.7696       360.93      2.922     7.91     1152.759     63.60712     125.0959        19     1.493     1.171 -58.69   0
       266     98.0224    345.5507 307.8874916  +6.5310481     2734.282     7744.724     9666.188     90.02599     180.5546     360.7505      2.730     6.99     1164.512     63.60712     302.5829        51     2.036     1.688  81.98   0
       267    543.9201    342.8476 307.7021732  +6.5470673     3083.134     8702.122     10699.11     90.45641     180.4829     360.8223      2.733     6.82     1152.399     63.60712     301.3022        55     2.027     1.759  81.44   0
       268    272.8719    340.6962 307.8149527  +6.5389047     1140.477     3270.365     3784.887     90.31316     180.6263     360.8223      2.711     9.84     1158.108     63.60712     122.0623        25     1.840     1.467 -70.40   0
       269    406.7885    337.9601 307.7593605  +6.5445095     10901.31     31541.97      40224.2     89.73792     180.2676     360.5711      2.804     6.58      1154.17     63.60712     1104.332        96     2.270     2.026  77.25   0
       270    387.5673    337.1078 307.7673818  +6.5442196     673.1115      1712.03     2818.404     90.59942     180.3394     360.8941      3.320     5.82     1154.226     63.60712     96.93848         8     1.184     0.805 -62.84   0
       271    495.8249    328.1990 307.7226662  +6.5515122     3704.979     10627.45     13204.02     90.02599     180.1239      360.607      2.745     6.84     1151.536     63.60712     370.6285        63     2.129     1.844  76.35   0
       272    765.0578    326.7478 307.6107581  +6.5610816     1587.967     4166.963     5678.042     90.45641     180.4829     360.8582      2.873     8.11     1151.572     63.60712     164.0312        36     1.887     1.519  51.52   0
       273    385.8406    312.6298 307.7689258  +6.5542701     3085.263     9073.358     11167.94     89.88207     180.2676     360.7147      2.773     7.09     1153.229     63.60712     309.9464        57     2.113     1.758  88.76   0
       274    241.2958    313.5034 307.8290012  +6.5490778     952.2501     2434.386     2920.499     90.45641     181.1274     360.6788      2.627     7.94     1158.248     63.60712     111.6859        19     1.653     1.066  22.73   0
       275    753.5826    308.2138 307.6161531  +6.5683536     27392.98     68435.72     81569.38     90.16969     180.1239     360.7505      2.540     5.72     1150.665     63.60712      2568.27       103     2.153     1.876  76.49   0
       276    425.4787    308.4575 307.7525839  +6.5573167     1039.731     2879.248     2571.235     90.45641     180.4112     360.8223      2.530     8.89     1152.204     63.60712     127.5569        22     1.575     1.402  29.73   0
       277    929.3727    304.6537 307.5431698  +6.5756679     1471.817     3117.865     3621.421     90.16969     180.6263     360.7505      2.321     6.71     1147.876     63.60712     186.1837        23     1.589     1.130  83.05   0
       278    988.2522    305.3614 307.5186604  +6.5773308      1019.36      2012.77     1622.388     90.16969     180.4829     360.8582      1.756     4.74     1146.267     63.60712     135.1125         9     1.277     0.499  51.06   0
       279    409.8845    304.3958 307.7592055  +6.5584733     682.3476       1929.1     3062.585     89.88207      180.052     360.4992      3.097     6.71      1152.44     63.60712      94.5282         9     1.326     0.953  64.14   2
       280    751.9289    292.7881 307.6173595  +6.5746687     3090.405     7561.825       9289.9     89.88207     180.1239     360.6429      2.538     6.57     1149.957     63.60712     316.9425        54     2.144     1.628  65.46   0
       281    188.7785    294.9262 307.8514668  +6.5549919      1021.58     2576.737     3161.351     90.02599     180.3394     360.7864      2.622     8.94     1160.528     63.60712     126.0802        21     1.578     1.414  29.65   0
       282    768.3286    290.7335 307.6106087  +6.5760629     1320.903     3342.178     4234.677     90.45641     180.5546     360.8941      2.763     9.35     1149.864     63.60712     156.0466        32     1.904     1.605 -76.89   0
       283    357.8816    286.1685 307.7814451  +6.5642632     965.4997     2493.086     3904.196     90.31316     180.3394     360.8223      3.186     8.03      1152.77     63.60712     140.6012        16     1.501     1.267  21.44   0
       284   1006.6455    281.6069 307.5118081  +6.5877510     3814.565     7544.141      8425.23     89.88207     180.2676     360.4633      2.088     4.53     1144.889     63.60712     417.2169        35     1.626     1.288  68.19   0
       285    485.1212    283.8198 307.7286131  +6.5694816      935.396     2262.133     3212.667     90.02599     180.1239     360.8223      2.714     7.96     1147.908     63.60712     137.8029        15     1.620     1.094  13.39   2
       286    247.3874    277.6550 307.8276796  +6.5640849     2548.939     7112.362      8566.72     89.73792     180.4112     360.5352      2.698     6.71     1156.937     63.60712     267.4945        49     1.877     1.735  51.49   0
       287    381.2087    268.4770 307.7723419  +6.5723482     873.8338      2120.83     2564.817       90.026     179.9081     360.6788      2.702     5.84     1151.591     63.60712     96.83472         9     1.085     0.885 -67.02   0
       288    151.0132    263.7760 307.8682240  +6.5665909     794.1302     2032.783     2435.135     90.16969     180.2676     360.7864      2.817     7.16     1161.958     63.60712     102.5996        11     1.668     0.862 -76.49   0
       289    560.7794    259.7052 307.6979634  +6.5819634     998.5289     2480.971     3324.612     90.31316     180.2676     360.6429      2.777     9.04     1146.307     63.60712     114.2756        21     1.737     1.313 -15.19   0
       290    903.9919    259.3517 307.5552455  +6.5935328     1008.241     1644.087     2006.323     89.88207     180.3394     360.4633      2.264     5.13     1146.528     63.60712     129.0049        10     1.102     0.676  63.40   0
       291    725.7551    257.5430 307.6294294  +6.5883524     1885.936     3769.686     4469.761     90.45641     180.4829     360.8941      2.229     7.41     1148.186     63.60712     243.5789        22     1.962     0.843 -66.86   3
       292    723.6441    256.6804 307.6303363  +6.5886384     2085.216     4418.404     5620.984     90.45641     180.4829     360.8223      2.461     6.19     1148.093     63.60712     224.4434        23     1.709     1.130 -86.78   3
       293    664.9133    257.4537 307.6547343  +6.5863635     1031.745     2583.246     3163.589     90.45641     180.3394     361.0375      2.678     8.68      1146.72     63.60712     115.5814        19     1.577     1.334  42.51   0
       294    920.1226    249.0727 307.5488823  +6.5983136     718.2709         1417     1370.953      90.7422     180.7696     360.8582      2.155     4.36     1145.778     63.60712     104.8068         5     1.051     0.514 -35.83   0
       295    224.8196    242.8784 307.8382394  +6.5776907     922.5243     2344.351      2472.52     90.02599     180.1239     360.8223      2.475     8.48     1157.696     63.60712     109.4489        19     1.663     1.208  71.79   0
       296    867.2084    241.3323 307.5711479  +6.5997518     752.0698     2012.587     2203.717     89.88207     180.1957     360.7505      2.540     8.70     1146.288     63.60712     88.72083        13     1.694     1.248 -73.75   0
       297    756.5285    240.8845 307.6171919  +6.5962559     831.8463     1792.558     1905.233     90.59942     180.7696     360.8941      2.413     6.58     1147.753     63.60712     95.32373        11     1.526     0.797  62.14   0
       298    458.0662    232.2244 307.7416037  +6.5898851     9528.677     28008.77     36116.68     90.02599     180.4829     360.7864      2.834     6.83     1146.495     63.60712     950.8584        96     2.322     2.092 -77.86   0
       299    783.9243    231.2878 307.6061214  +6.6011304     6954.694     17296.54     21221.63     90.45641     180.8412     360.9658      2.591     5.77     1147.334     63.60712     680.3936        76     1.992     1.943 -76.44   0
       300    147.3601    226.5862 307.8710010  +6.5818257     1117.598     2671.784     3715.475     89.88207     180.2676     360.5711      2.911     7.69     1161.331     63.60712      128.282        14     1.757     0.941 -48.40   2
       301    121.4935    225.3207 307.8818002  +6.5814820     657.2749     1322.729     2290.168     90.16969      180.698       360.93      2.447     5.12     1162.767     63.60712     96.11841         6     1.508     0.491  86.19   0
       302    919.5959    220.9511 307.5500454  +6.6099092     895.6171      1908.76     2550.397     89.73792     180.2676     360.4633      2.350     5.69     1144.664     63.60712     106.6216        10     1.114     0.818 -30.82   0
       303    583.5582    218.4107 307.6898817  +6.5997756     1903.747     4102.248     5096.428     89.73792     180.2676     360.5711      2.541     8.61     1144.888     63.60712      214.922        29     2.043     1.178  80.47   2
       304    580.7761    219.0157 307.6910183  +6.5994330     1733.721     3787.568     5158.495     90.16969     180.2676     360.7864      2.433     7.52     1144.905     63.60712     217.2328        16     1.875     0.845  80.77   3
       305    544.9114    218.0471 307.7059659  +6.5986371     1031.383     2803.052     2814.087     90.45641     180.3394     360.9658      2.484     8.13     1144.847     63.60712     125.6105        17     1.789     1.032  31.51   0
       306    387.6016    217.5940 307.7714006  +6.5935738      752.511     1850.221     1804.292     89.73792     180.1239     360.6429      2.589     6.21     1149.554     63.60712     113.0443         8     1.141     0.949 -28.04   2
       307    975.6699    212.1930 307.5270188  +6.6153882     6098.602     12886.78     15148.79     89.88207      180.052     360.7505      2.234     4.77     1142.196     63.60712     674.0981        55     1.904     1.506  81.79   0
       308    942.7252    215.1243 307.5406218  +6.6130837     1550.991     3334.042     3445.124      90.7422     180.7696     360.9658      2.177     7.19     1143.645     63.60712     201.1008        23     1.575     1.203 -89.40   0
       309    888.9755    214.3520 307.5630015  +6.6116170      6364.76     14683.93      16548.6     90.02599     180.4829     360.7505      2.352     5.35     1144.408     63.60712     665.4821        59     1.912     1.648  75.23   0
       310     15.2649    211.4399 307.9264438  +6.5836538     12315.77     32755.94     40771.29     90.45641     180.4112     361.0017      2.702     6.04     1168.048     63.60712     1244.431        90     2.250     1.893  82.32   0
       311    687.0058    212.4469 307.6470613  +6.6056851     1433.304     3699.212      5447.79     89.73792     180.2676     360.4633      2.955     8.07     1145.426     63.60712     169.9535        32     1.854     1.505  55.73   0
       312    494.7917    207.6054 307.7271611  +6.6012771     877.5695     2056.247     2023.664     89.73792     180.1957     360.6788      2.250     5.03     1144.658     63.60712     111.5454         8     1.174     0.611 -44.40   0
       313    879.3575    202.7095 307.5673926  +6.6161052     1093.835     2684.108     3661.322     90.45641     180.4829       360.93      2.756     9.32     1143.771     63.60712     136.2406        17     1.948     1.244 -87.34   0
       314    827.0417    203.8709 307.5891111  +6.6138865     1181.099      2776.85     3245.158     90.31316     180.4829       360.93      2.422     7.59     1145.057     63.60712     147.3453        19     1.503     1.073 -84.25   0
       315    739.1306    200.4241 307.6257880  +6.6123853     20197.23     50811.27     60708.74       90.026     180.3394     360.7864      2.544     5.69     1145.784     63.60712     1871.549       100     2.179     1.878  75.62   0
       316    509.2403    203.7857 307.7212811  +6.6033365     928.4929     1693.989     2169.876     89.88207     180.2676     360.5711      2.102     5.53     1144.583     63.60712      119.903         9     1.560     0.552 -76.65   3
       317    506.7023    203.6520 307.7223411  +6.6033071     907.0352     2046.546     2396.386     90.31316     180.4829     361.1093      2.267     5.81     1144.583     63.60712     117.0292        11     1.895     0.501 -70.81   3
       318    342.3354    200.0919 307.7908159  +6.5992888     3117.601     9461.463     13351.12     90.45641      180.698       360.93      3.057     7.94     1152.196     63.60712     277.5695        75     2.508     1.931  89.28   0
       319    972.8903    199.0426 307.5286161  +6.6207265     1796.824     3895.487     4554.453     90.45641     180.4829       360.93      2.353     5.43     1141.704     63.60712     226.5413        31     1.659     1.389  68.34   0
       320    907.0693    197.3880 307.5560461  +6.6192236     4364.185     10113.46     11757.26     89.88207     180.2676     360.6788      2.411     5.45     1143.162     63.60712     441.0437        54     1.913     1.608  74.66   0
       321    450.5883    196.8466 307.7459067  +6.6042447     2111.931     6006.464     7300.212     89.88207     180.2676     360.5352      2.727     7.74      1145.67     63.60712     238.4464        46     2.039     1.624  69.03   0
       322   1011.3044    199.6180 307.5126205  +6.6217641     684.1766     1138.791     1586.917     90.31316     180.2676     360.6429      1.638     4.10     1140.509     63.60712     117.3091         5     1.447     0.332  41.85   2
       323   1010.7361    196.4375 307.5129635  +6.6230586     941.3375     1789.891     1860.836     90.45641     180.4829       360.93      2.096     4.41     1140.394     63.60712      171.873         8     1.100     0.733 -89.67   2
       324    108.2083    188.2751 307.8885784  +6.5963345     2224.762     6146.943     7777.856       90.026     179.9081     360.6429      2.724     7.19     1163.476     63.60712     246.2057        48     2.009     1.656  85.49   0
       325    253.8259    185.9194 307.8281023  +6.6021819     2715.679     7674.605     8818.833     90.31316     180.2676     360.8941      2.624     6.93     1157.427     63.60712     275.5515        50     1.974     1.700  78.54   0
       326    927.4772    186.9046 307.5479106  +6.6242309      728.897     1290.591     1637.988     90.16969     180.6263       360.93      1.889     5.36     1142.328     63.60712     119.3738         6     1.206     0.673  27.10   0
       327    402.3490    180.2585 307.7665277  +6.6094840      21535.8     61827.26     77895.77     90.45641     180.4829     360.8582      2.804     6.60     1147.564     63.60712     2180.955       114     2.356     2.034  80.31   0
       328    158.3115    181.6843 307.8679659  +6.6007342     1902.512     5295.868     6397.629     90.16969      180.698     360.9658      2.750     9.31     1160.586     63.60712     181.5604        47     2.262     1.614  63.43   0
       329    306.8165    178.0527 307.8063312  +6.6072025     7797.959        22500     30656.55     89.88207     180.5546     360.5711      2.959     6.90     1154.714     63.60712     823.4739       102     2.564     2.166   4.10   0
       330    741.5390    176.2783 307.6255985  +6.6224366     17042.52     42072.44      50766.3     90.59942     180.5546     360.8223      2.561     5.73     1144.518     63.60712     1621.144        90     2.164     1.821  79.60   0
       331     58.5528    173.9581 307.9097123  +6.6005826     4488.627     11660.58     14050.51     90.45641     180.4829     360.7147      2.609     6.24     1166.164     63.60712     506.7782        61     2.062     1.765  77.02   0
       332    278.3295    184.8711 307.8179476  +6.6034343     14534.14     41901.07     52395.22     90.45641     180.6263     360.7864      2.793     6.54     1156.311     63.60712     1531.395        97     2.248     2.022  81.21   0
       333   1000.7045    156.4329 307.5184777  +6.6392460     1634.793     3056.384     3391.734     90.59942     180.3394     360.9658      2.027     5.58     1139.194     63.60712      180.674        19     1.426     1.005  87.47   0
       334    277.2207    151.1431 307.8195483  +6.6173250     12985.36      38116.3     49060.68     90.02599     180.4829     360.6429      2.842     6.62     1157.131     63.60712      1306.43        99     2.309     2.045  80.68   0
       335    591.1898    153.6259 307.6888900  +6.6267830     979.2817     2226.021     3596.029       90.026     180.2676     360.7147      2.895     6.01     1143.525     63.60712     127.5608        10     1.285     0.790  74.12   2
       336     22.5771    149.9397 307.9254863  +6.6092945     2208.451     6269.713     7707.105     90.02599     180.4112     360.7505      2.717     7.71     1168.175     63.60712     253.8416        48     2.059     1.650 -76.51   0
       337    708.9017    147.4624 307.6401416  +6.6332498     4148.098     10537.22     12828.86     90.16969     180.6263       360.93      2.635     5.84     1143.242     63.60712     416.4585        56     1.953     1.692  82.71   0
       338    119.6172    145.0425 307.8852970  +6.6145690     2112.986     5928.499     7197.256     89.88207     180.2676     360.5711      2.773     7.76     1162.321     63.60712     218.5819        49     2.012     1.731  75.02   0
       339    390.3106    141.8499 307.7728305  +6.6249425     1668.993     4641.162     5322.363     90.45641     180.2676     361.0017      2.664     9.35     1148.507     63.60712      195.005        37     2.035     1.444 -54.26   2
       340    388.7014    138.6555 307.7736075  +6.6262079     908.5483     1385.143     2158.442     90.31316     180.4829     361.1093      1.419     3.46     1148.674     63.60712     162.3805         5     0.921     0.375 -48.72   3
       341    354.9988    140.0159 307.7875780  +6.6245200     1369.917      3696.63     4089.332       90.026      180.052     360.5711      2.519     8.38     1152.041     63.60712     154.0969        28     1.698     1.370  65.58   0
       342    457.9937    143.9493 307.7446112  +6.6263357     546.7846     1191.683      1148.98     89.88207     180.1957     360.4633      1.878     3.75     1144.408     63.60712      94.0896         5     1.005     0.403  61.40   0
       343   1001.7637    133.8642 307.5187942  +6.6486012     929.9049     1975.928     1792.136     90.31316     180.4829     360.8941      2.131     6.56     1137.692     63.60712     131.0687        11     1.476     0.819 -73.87   0
       344    206.7487    128.8725 307.8496086  +6.6241637     2481.295     6844.713     8185.206     90.45641     180.4829     360.8941      2.681     7.04     1160.128     63.60712     241.7076        52     2.072     1.692  78.10   0
       345     90.9905    128.1610 307.8977733  +6.6205809      936.122     2472.442     3847.805     89.73792     180.2676     360.5352      3.180     8.54     1163.087     63.60712     125.9506        15     1.866     1.091  73.11   2
       346    668.1542    127.3720 307.6577647  +6.6401892     3034.513     8157.686     9522.923     89.88207     180.5546     360.7505      2.596     6.46      1142.47     63.60712     296.3496        51     1.975     1.638  81.59   0
       347    620.4743    124.5923 307.6776885  +6.6397486     4506.689     12074.14     14937.78       90.026     179.9801     360.7147      2.712     6.34     1142.494     63.60712      411.604        53     1.898     1.756 -82.59   3
       348    624.0407    116.1578 307.6764893  +6.6433504     25175.28     67501.77     84005.41     90.16969     180.4829     360.7147      2.679     6.10     1142.157     63.60712     2261.381       112     2.281     2.002  86.14   3
       349    347.7144    120.8540 307.7912545  +6.6321894     1687.733     4855.002     5963.028     90.45641     180.4112     361.0375      2.738     8.70     1153.202     63.60712     182.7819        38     1.883     1.532  86.99   0
       350    528.9968    119.3754 307.7159100  +6.6388528      684.335     1764.318     2443.735     90.02599     180.1239     360.6788      2.855     8.20       1142.5     63.60712     83.91443         9     1.604     1.172 -19.49   0
       351    303.8859    110.6713 307.8098261  +6.6349292     1596.545     4404.179     6595.776     90.59942     180.7696     360.8941      3.231     7.98     1156.181     63.60712     183.8423        37     1.994     1.396 -49.72   2
       352      2.3767     93.3379 307.9358045  +6.6319898     678889.8      1313388      1477405     89.59353     160.1081     290.3608      2.105    10.98     1169.199     63.60712     63828.41       255     2.470     1.409 -85.82  28
       353    688.4763     99.8273 307.6502396  +6.6522407     1585.266     4047.464     4842.817     90.31316     180.4829     360.8223      2.567     7.16     1141.333     63.60712     209.1879        31     1.656     1.498  57.33   0
       354    430.2996     91.2201 307.7579079  +6.6471854     1941.583     5146.349     6333.039     90.45641     180.3394      360.607      2.696     7.13     1145.947     63.60712     218.8673        42     1.932     1.565 -82.59   0
       355    884.8361     87.1296 307.5689961  +6.6640170     1227.805     2976.566     2847.523     90.31316     180.4829     360.8941      2.411     7.64     1138.094     63.60712     145.5166        21     1.555     1.377 -74.18   0
       356    902.7319     86.4277 307.5615763  +6.6649015     2463.367     5332.299     5831.596     90.16969     180.4112     360.7505      2.246     5.36     1137.544     63.60712     304.2531        33     1.656     1.306  72.95   0
       357    594.9260     85.5984 307.6896277  +6.6549996     910.4825     2274.501     2519.278     89.88207     179.8362     360.7147      2.455     6.82     1141.311     63.60712     105.9773        11     1.314     0.993   5.62   0
       358    142.0045     80.3604 307.8781755  +6.6420285      1525.55     3962.781     4660.003     89.59352     180.1957     360.4992      2.711     8.67      1160.74     63.60712     197.9038        37     2.110     1.384 -79.93   0
       359    395.9507     83.0204 307.7724704  +6.6494243     705.9955     1301.249       2061.8     89.88207     180.5546     360.7147      2.021     3.65     1149.219     63.60712     97.19775         5     0.999     0.384  59.14   0
       360     23.5538     78.0308 307.9275160  +6.6390208     6136.973     16196.53     20302.36     89.88207     180.4829     360.7505      2.705     6.03     1166.521     63.60712     649.3826        69     2.056     1.862  84.02   0
       361    289.8254     77.4572 307.8167960  +6.6481745     651.3025     1820.426     2924.422       90.026     180.4829     360.7147      3.336     6.96     1158.231     63.60712     88.37183         8     1.632     0.832 -10.98   0
       362    825.0673     72.2940 307.5943542  +6.6681564      3555.41     8273.048     9461.732     90.31316      180.698     360.8941      2.379     5.54     1138.365     63.60712     382.1702        45     1.808     1.523 -89.18   0
       363    770.0686     72.7949 307.6172130  +6.6661200     1754.603      4270.78     5020.887     89.88207      180.052     360.6429      2.546     7.02     1139.442     63.60712     181.7852        33     1.702     1.535 -55.44   0
       364     64.7908     69.9611 307.9106397  +6.6437355     1486.366     3918.097     4980.308     89.73792     180.2676     360.5352      2.720     8.47     1163.394     63.60712     174.6293        28     1.783     1.234 -77.09   2
       365      6.3961     65.9562 307.9350607  +6.6434313     1362.319     3711.256     5376.669     89.73792      180.052     346.2098      3.097     9.38     1166.959     63.60712     145.5161        32     1.791     1.518 -57.80  16
       366    764.5542     60.2788 307.6199275  +6.6711051     1025.065     2499.786     3016.431     90.45641     180.4829     360.8223      2.476     8.12     1138.645     63.60712     130.2306        18     1.434     1.284   4.42   0
       367     91.6319     54.1450 307.9000123  +6.6511661     4620.047      12101.6     15002.89     90.31316     180.4829     360.8223      2.672     6.04     1161.571     63.60712     473.4309        65     2.134     1.753  88.53   0
       368    420.7650     53.7924 307.7631364  +6.6623226     1190.368     3417.331     3908.654     89.88207     180.2676      360.607      2.706     9.75     1147.484     63.60712     154.7362        30     1.806     1.468  84.37   0
       369    634.1489     45.8132 307.6746541  +6.6727361     9019.529     23441.04     28613.81     89.73792     180.4112     360.5711      2.610     5.95     1140.394     63.60712     843.7732        78     2.168     1.814  77.41   0
       370    533.9641     42.1875 307.7164460  +6.6708931      2242.56     6255.414     7094.803     89.88207     180.2676     360.5352      2.632     7.45     1141.574     63.60712     251.5869        47     1.952     1.698  65.43   0
       371    259.4164     38.5159 307.8307593  +6.6632378      3822.65     11565.97     17211.51       90.026     180.1239     360.7505      3.887    11.27     1160.358     63.60712     449.4342        87     3.234     2.095 -26.91   2
       372    248.1960     35.2360 307.8355368  +6.6642167     1378.611     3967.162     5595.192      89.4489     180.3394     360.6429      3.481    10.55     1160.486     63.60712       145.59        33     1.958     1.583  62.09   2
       373    439.5484     37.6512 307.7558687  +6.6696153     10153.83     28410.07     34901.75     90.59942     180.3394     360.8582      2.734     6.41     1146.447     63.60712     934.6385        88     2.184     1.989  68.28   0
       374      2.3792     41.3279 307.9375658  +6.6534663     618.7469     904.3433      759.933     89.59353     160.0272     290.4054      1.716     5.35     1165.363     63.60712     84.63196         5     1.004     0.805 -89.33  24
       375     25.8513     37.9373 307.9279189  +6.6556536     1234.911      3178.45     3274.293     90.45641     180.4112     360.8223      2.462     8.02     1164.173     63.60712     171.6426        24     1.744     1.362  89.01   0
       376    917.0945     37.4769 307.5572462  +6.6855933     1158.449     2311.642     1942.708     90.16969     180.6263       360.93      2.083     5.83     1134.068     63.60712     165.2721        15     1.329     0.936  75.15   0
       377    620.3388     36.2213 307.6807212  +6.6762369     1694.646     4536.307     5855.843       90.026     180.4829     360.7864      2.727     8.13     1140.209     63.60712     169.6831        40     1.976     1.514  74.97   0
       378    937.3180     28.4670 307.5491369  +6.6899858     695.4736     1318.161     1238.989     90.59942     180.7696       360.93      2.031     5.28     1132.868     63.60712      95.9115         6     1.322     0.595  67.75   0
       379    689.3474     26.8430 307.6523337  +6.6824087     1089.641     2416.983     2450.136     90.45641     180.4829     360.8941      2.245     7.54     1139.383     63.60712     130.9041        15     1.358     1.172  89.14   0
       380    955.8054   1015.9023 307.5083252  +6.2828231     5884.362     10100.86     10965.69     90.16969     180.1239     360.4992      1.851     3.97      1186.86     63.60712     687.1497        35     1.530     1.165  88.33  16
       381    240.2652   1016.2225 307.8056964  +6.2588563     879.2035      1812.15      1784.93       90.026     180.4829     360.7505      2.173     7.19     1191.772     63.60712     128.3962        12     1.260     1.149  48.02  16
       382    715.5746   1014.0847 307.6082302  +6.2755904     2384.477     4257.901     5716.913     90.59942     180.1957     360.7147      2.109     4.64     1190.566     63.60712      294.098        23     1.444     1.088  79.63   0
       383    438.9137   1014.7918 307.7231881  +6.2660809     864.6225     1299.199     1107.775     90.02599     180.1239     360.6788      1.514     4.64     1191.901     63.60712     109.0536         8     0.860     0.711 -44.56   0
       384    362.5665   1011.5528 307.7550268  +6.2648704     1552.745     2920.571     2787.673     90.16969     180.4829     360.7864      1.870     5.24     1192.248     63.60712     192.0043        21     1.440     1.039  86.77   0
       385    731.4663   1013.1108 307.6016582  +6.2765212     913.8356     1580.493     1346.506     90.45641      180.698     360.8223      1.868     5.06      1190.43     63.60712      99.9939         9     1.111     0.651 -22.53   0
       386    972.8104   1009.6292 307.5014678  +6.2859781     531.4597     711.3689     1029.714     89.88207     180.2676     360.6788      1.543     5.16     1185.896     63.60712     71.20215         5     1.022     0.737  78.10   0
       387    544.6736   1001.8351 307.6796703  +6.2749580     2954.455     6043.919     6681.636     90.31316     180.4829     360.8223      2.171     4.91     1190.348     63.60712     318.8652        34     1.747     1.241 -85.90   3
       388    541.7563    993.9550 307.6811480  +6.2781149     5797.283        11472     13429.02     90.45641     180.4829     360.8223      2.145     4.58      1190.08     63.60712      590.675        47     1.787     1.386  81.91   3
       389    294.7844   1000.6081 307.7835658  +6.2671262     10274.45     21210.72     24942.15       90.026     180.1957     360.6788      2.220     4.60     1191.807     63.60712     1082.203        66     1.872     1.602 -83.57   0
       390    749.0156   1000.9770 307.5947720  +6.2821158     6105.173     11682.06     12613.23     90.16969     180.2676     360.7505      2.029     4.33     1189.175     63.60712     676.5522        45     1.647     1.399  68.67   0
