#   1 NUMBER                 Running object number                                     
#   2 X_IMAGE                Object position along x                                    [pixel]
#   3 Y_IMAGE                Object position along y                                    [pixel]
#   4 ALPHA_J2000            Right ascension of barycenter (J2000)                      [deg]
#   5 DELTA_J2000            Declination of barycenter (J2000)                          [deg]
#   6 FLUX_APER              Flux vector within fixed circular aperture(s)              [count]
#   9 FLUXERR_APER           RMS error vector for aperture flux(es)                     [count]
#  12 FLUX_RADIUS            Fraction-of-light radii                                    [pixel]
#  13 FWHM_IMAGE             FWHM assuming a gaussian core                              [pixel]
#  14 BACKGROUND             Background at centroid position                            [count]
#  15 THRESHOLD              Detection threshold above background                       [count]
#  16 FLUX_MAX               Peak flux above background                                 [count]
#  17 ISOAREA_IMAGE          Isophotal area above Analysis threshold                    [pixel**2]
#  18 A_IMAGE                Profile RMS along major axis                               [pixel]
#  19 B_IMAGE                Profile RMS along minor axis                               [pixel]
#  20 THETA_IMAGE            Position angle (CCW/x)                                     [deg]
#  21 FLAGS                  Extraction flags                                          
         1      2.8629     23.7645 307.9360379  +6.6320169     724398.6      1452870      1550309     79.96145     147.5792      264.474      2.070     7.22     894.9703     56.31646     64200.18       251     2.095     1.511  83.94  28
         2    432.1658     21.8679 307.7577410  +6.6472482     4320.512      6550.41      7018.98     79.96145     159.8594     319.5918      1.594     3.72     875.6337     56.31646     607.4348        25     1.376     0.934  82.30   0
         3    886.6812     18.2962 307.5690123  +6.6639500     2274.429     2922.155     3173.471     79.83443     160.1132     319.5601      1.332     3.01     866.7673     56.31646     380.4764        16     1.221     0.731  68.64   0
         4    904.5431     17.2155 307.5616268  +6.6649930     4059.023     6075.466       6781.1     79.45213     159.7324     319.2423      1.620     3.52     866.0592     56.31646     665.6174        25     1.487     0.913  65.64   0
         5    596.7631     15.7377 307.6895596  +6.6553015     1915.091     2656.953     2342.664     80.08827     159.8594     319.4966      1.504     3.63     872.5654     56.31646     272.2178        16     1.183     0.844  66.63   0
         6    395.5949     13.8158 307.7732074  +6.6493438     2058.523     3280.225     3546.749      79.7072      159.478     319.3377      1.670     4.05     878.2348     56.31646     296.5005        21     1.402     0.944  75.84   0
         7    242.5624     14.9666 307.8367499  +6.6437237     924.4394     1091.108     1440.229     79.83442     159.6053     319.2741      1.375     3.96     885.8585     56.31646     133.9782         8     1.110     0.461  79.48   0
         8    143.4990     10.6357 307.8780541  +6.6421766     3629.898     5287.204     5391.485     80.08827     159.6688     319.6871      1.576     3.47     884.0666     56.31646      472.304        22     1.289     0.938  80.92   0
         9     25.4015      8.4839 307.9271919  +6.6390847      13221.9     19391.14     20441.95      79.3243     159.3507     319.2105      1.596     3.37     892.7252     56.31646     1751.078        44     1.530     1.058  76.47  16
        10    291.7981      8.9856 307.8164959  +6.6478488      1319.31     1722.125      1540.19      79.7072      159.478     319.3059      1.446     3.43     885.8537     56.31646     221.8607        13     1.126     0.736  73.96   0
        11    565.0172      8.0264 307.7030096  +6.6574203     819.3174     1257.548     1299.968      79.7072     159.5417     318.0958      1.528     5.49     872.5922     56.31646     133.4916        10     1.220     0.698  58.44  16
        12    552.4672      7.7791 307.7082324  +6.6571015     761.0147     1001.155     937.0178      79.7072     159.7959     316.8491      1.375     4.42     872.6407     56.31646     122.5092         7     1.125     0.494  86.06   0
        13    946.2198      7.5496 307.5446343  +6.6703757      564.706     586.2427     1454.911     79.57977     159.8594     315.4366      1.347     3.71     864.3005     56.31646     102.7844         5     0.990     0.399  83.02   0
        14    760.4919      7.7533 307.6217991  +6.6640817     791.6353     1110.915     1445.935     80.08827     159.7324     316.8811      1.433     4.08     869.3762     56.31646     127.2665         7     1.020     0.466 -78.53   0
        15    827.1542      3.1145 307.5942564  +6.6682270      6710.89     9030.267     9344.674     80.08827     150.2373     268.0948      1.407     3.32     868.6312     56.31646     1044.832        27     1.306     0.926  83.90  24
        16    772.2486      3.5876 307.6170542  +6.6661949     3364.638     4770.981     5024.355     79.45213     154.6315     274.5287      1.485     3.36     869.3735     56.31646     488.3717        20     1.215     0.835  75.85  24
        17    417.2483      3.4568 307.7645603  +6.6543474     1128.512     1661.808     1616.358     80.08827     153.5778     273.0832      1.563     4.85     876.2005     56.31646     161.1883        11     1.145     0.679  83.83  24
        18    917.5511      2.5141 307.5567156  +6.6714967     547.0898     766.1777     1227.325     80.08827     143.4645     259.2418      1.606     3.99     864.8665     56.31646     110.2094         5     0.956     0.493  85.21  24
        19    758.9981      2.8307 307.6225854  +6.6660639     571.6514     975.2086     1157.571     79.45213      147.028     263.7054      1.633     4.34      869.218     56.31646     99.30371         6     1.285     0.417  55.35  24
        20    534.8196      1.9136 307.7157626  +6.6589309     1197.196     1311.787     1466.914     75.92495     135.2346     249.8725      1.216     3.44     872.7508     56.31646     177.8035         9     0.813     0.728  75.52  24
        21     65.7320      1.5709 307.9106704  +6.6432981     1844.798     2121.267      1937.97     72.50622     130.4987     244.2863      1.052     2.02     887.2021     56.31646     507.9975        10     0.865     0.681 -16.69  24
        22     50.3656      1.6669 307.9170513  +6.6427405     864.8701     1068.464     1057.498     73.89269     132.1986     245.9837      1.150     3.30     889.4039     56.31646     132.4159         8     0.885     0.672  14.13  24
        23    234.4300    985.3774 307.8073453  +6.2428584      1406.62     2002.318     2263.793     79.45213     159.5417     319.3059      1.580     4.22     904.9403     56.31646     182.4402        15     1.186     0.870  67.60   0
        24    968.9958   1022.1583 307.5011426  +6.2522800     3476.182     5735.723      5950.22     79.45213      147.028     263.8978      1.713     4.00      893.875     56.31646     415.9286        28     1.396     1.171  53.88  24
        25   1010.7512    984.4104 307.4850712  +6.2692567     616.1116     1006.442     1313.103     79.57977     159.6053     319.1787      2.029     5.99      892.554     56.31646     79.11047         8     1.235     0.817 -36.41   0
        26    799.6850    977.3663 307.5729394  +6.2651155     14262.63      21617.3     23115.31     80.08827     159.6688     319.4648      1.658     3.45     898.2585     56.31646     1928.121        44     1.560     1.076  76.50   0
        27    714.8272    980.2450 307.6080741  +6.2610889     790.1808     1034.934     1221.654     79.57977     159.8594     319.4012      1.386     4.45     899.6543     56.31646     166.3083         7     1.036     0.543  75.75   0
        28     70.2496    977.5581 307.8757682  +6.2405628     8099.264     11796.71     12265.05     80.21489     159.7959     319.4648      1.605     3.47     903.8967     56.31646     1042.696        30     1.458     0.958  84.77   0
        29    991.6193    976.3600 307.4932843  +6.2719418      824.887     1130.095     1288.323      79.7072     159.6053     319.2105      1.522     5.08     892.6158     56.31646     122.8763         9     1.094     0.667  46.04   0
        30    583.0848    968.1556 307.6631770  +6.2616687     166382.6     244812.3     259331.6     80.08827     159.7324     319.4966      1.565     3.47     902.8539     56.31646     24066.43       109     1.646     1.184  75.98   3
        31    584.8169    961.0120 307.6626982  +6.2646757     77910.38     114683.6     121799.6     79.83443      159.478     319.4012      1.550     3.31     902.5257     56.31646     11609.59        74     1.599     1.108  72.10   3
        32    216.8761    970.9729 307.8151191  +6.2482146     3949.497     5876.497     5647.321     79.96145     159.7959     319.4648      1.559     3.40     904.7056     56.31646     541.5272        26     1.351     0.991  70.34   0
        33    400.5421    970.8188 307.7388737  +6.2544480     641.4772     812.6448     645.3997      79.7072     159.6688     319.3059      1.598     4.61     904.1871     56.31646     113.4133         8     1.130     0.617  73.13   0
        34    758.6913    970.1934 307.5902001  +6.2667058     873.2495     1218.306      825.166      79.7072      159.478     319.2741      1.612     5.15     898.7613     56.31646     145.8595        10     1.277     0.588  68.94   0
        35    965.1609    967.8423 307.5045551  +6.2745751     592.0672     1246.783     1461.144     79.83442     159.8594     319.3695      2.181     4.65      892.912     56.31646     73.31537         7     1.466     0.418 -58.64   0
        36    794.0065    965.1312 307.5757077  +6.2699766     6881.555     10410.96     11157.73     79.57977     159.4144     319.3377      1.607     3.59     898.1079     56.31646     944.4026        32     1.451     1.019  76.42   0
        37    493.2866    967.8716 307.7004685  +6.2587760     634.0565      907.649     736.8022     80.21489     160.0498     319.4966      1.747     5.11     903.6644     56.31646     105.7128         7     1.172     0.630  30.27   0
        38    891.9694    961.8892 307.5351433  +6.2745888     1500.188     2371.022     2522.948     80.21489     159.6053      319.433      1.801     4.53     895.0892     56.31646     232.4795        17     1.516     0.721  69.40   0
        39    214.6319    960.2879 307.8164116  +6.2525500     2359.708     3559.114     3450.071     80.21489     159.6053     319.4966      1.613     4.08     904.4894     56.31646     313.4567        19     1.309     0.896  78.97   0
        40    751.0345    959.6364 307.5937337  +6.2708079     815.3833     1270.833     1323.891     79.83442     159.5417     319.2423      1.862     5.53     898.7302     56.31646     127.7558        11     1.295     0.666  66.95   0
        41    979.3749    960.1498 307.4989113  +6.2782252     514.7728     758.4062     936.6221      79.7072     159.7959     319.4012      1.473     4.19     892.4756     56.31646     88.97162         6     0.754     0.663 -47.00   0
        42    717.8790    957.5515 307.6075695  +6.2705594     7742.106      11534.3     12590.64     80.08827     159.8594     319.4648      1.594     3.52     899.2281     56.31646     1114.167        34     1.445     1.046  74.11   0
        43    432.6331    957.6461 307.7259944  +6.2609628     4164.017     6219.055     6898.284     79.83443     159.7959      319.433      1.600     3.56     903.7928     56.31646     604.8383        27     1.370     1.034  78.78   0
        44    573.7898    956.5837 307.6674254  +6.2661344     4310.823     6234.342     7537.796     79.83443     159.5417     319.3695      1.587     3.58     902.5062     56.31646     670.1073        25     1.453     0.890  70.86   0
        45    709.7962    956.5654 307.6109584  +6.2706960     1298.162     1916.533     2953.784      79.3243     159.6688     319.2741      1.818     4.13     899.3327     56.31646     212.9849        14     1.102     0.946  40.99   0
        46    749.8812    952.9288 307.5944378  +6.2735384     1349.142     2126.216     1663.823     80.34132     160.1132     319.5283      1.705     5.16     898.6375     56.31646     196.9594        18     1.518     0.860  76.89   0
        47    957.4456    947.1424 307.5084523  +6.2828630     6704.149     10723.96     11616.52     80.08827     159.7959     319.5918      1.746     3.75     892.7284     56.31646     792.4753        39     1.567     1.191  79.85   0
        48    241.8673    947.2371 307.8055452  +6.2588531     1313.179     2061.035     2205.137     79.96145     159.7959     319.5918      1.663     4.64     904.3049     56.31646     191.5864        14     1.395     0.639  79.57   0
        49    712.0134    947.2173 307.6103520  +6.2746293     928.0412     1564.222     2836.419     79.83442      159.478     319.4012      2.253     3.74     899.1255     56.31646      124.766        10     1.005     0.745  88.65   2
        50    717.1564    945.0019 307.6082911  +6.2757160     2718.649     4168.693     5117.216     79.45213     159.4144     319.1469      1.624     3.87     899.0222     56.31646     369.2136        19     1.242     0.937  70.41   2
        51    440.2775    946.0248 307.7232122  +6.2660168     1065.494      1420.04     1209.888      79.7072     159.6688     319.4648      1.558     5.32     903.5215     56.31646      154.296        15     1.208     1.005  79.79   0
        52    732.7932    944.6035 307.6018122  +6.2764037     1118.348     1597.727     1326.412     79.45213      159.478     319.3377      1.444     4.31      898.805     56.31646     184.6552         9     1.254     0.492  78.47   0
        53    363.7577    942.6576 307.7550948  +6.2648385     1935.009     2924.113     3121.014     79.96145     159.7959     319.5601      1.678     3.13     904.0638     56.31646     351.3931        18     1.290     0.858  59.29   0
        54    974.4028    940.8098 307.5016238  +6.2860433     467.5141     707.0836     1100.622     79.57977      159.478     319.3059      1.919     3.41      892.188     56.31646     81.86438         5     0.767     0.438 -69.42   0
        55    614.0415    936.4709 307.6513901  +6.2757857     451.2224     666.2755     1024.457     79.96145     159.7959     319.5601      1.859     4.19     900.9171     56.31646     77.03961         5     1.135     0.442  63.60   0
        56    296.1862    931.4851 307.7835253  +6.2671811     16214.68     23380.27     24695.99      79.7072     159.5417     319.4012      1.556     3.49     903.9774     56.31646     2277.607        48     1.510     1.094  81.21   2
        57    300.5800    928.7887 307.7817921  +6.2684419     1125.404     1909.816     2718.883      79.7072      159.478     319.4012      1.977     3.82     903.9692     56.31646     180.3099        11     1.212     0.646  68.24   3
        58    750.6807    932.2164 307.5948016  +6.2821157     8441.888     12540.51     13379.34      79.7072      159.478     319.3377      1.596     3.47     898.2894     56.31646     1198.313        36     1.466     1.039  75.24   0
        59    546.1907    932.7791 307.6796851  +6.2750364     4372.137     6711.827     8197.579      79.7072      159.478     319.3059      1.716     3.48     901.9756     56.31646     654.0095        31     1.472     1.025  78.36   3
        60    543.2974    924.8974 307.6811517  +6.2781932     8763.168     12971.33     14604.33     80.08827     160.3032     319.3377      1.589     3.45     901.7393     56.31646     1178.007        35     1.522     0.959  79.68   3
        61    516.3713    933.8747 307.6920288  +6.2735846     1247.374     1832.437     1883.997     79.96145     159.7959     319.4648      1.576     5.29     902.3976     56.31646     163.4976        14     1.390     0.750  82.69   0
        62    122.4249    932.5494 307.8556291  +6.2608988     636.6982     817.3004     1231.704      79.7072     159.7959     319.4012      1.884     5.45     903.3321     56.31646     94.69269         6     1.619     0.518  65.40   0
        63    811.4448    931.3458 307.5696016  +6.2845070     1228.452     1766.523     1456.267     80.08827     159.7959     319.5283      1.581     6.37     896.7616     56.31646     178.5428        15     1.579     0.754  41.81   0
        64    420.5894    931.8856 307.7318627  +6.2711930     1054.799     1549.364     1829.087      79.7072     159.5417     319.3377      1.603     4.00     903.4773     56.31646     189.1533         8     1.142     0.432  77.11   0
        65    267.3992    928.7408 307.7955695  +6.2673467     1064.311     1573.439     1912.087      79.3243     159.5417     319.1787      1.550     5.14     904.0112     56.31646     137.4407        13     1.237     0.833 -88.58   0
        66    911.9949    925.6584 307.5280438  +6.2902146     9049.784        13919     14430.22     79.57977     159.6688     319.2741      1.624     3.59     893.3758     56.31646     1338.682        34     1.508     1.008  71.38   0
        67    629.2570    927.2078 307.6453843  +6.2801193     455.2015     614.1713     384.0158     79.45213     159.6688     319.2423      1.123     3.78     900.2173     56.31646     88.38763         5     0.961     0.428  43.98   0
        68    885.6650    921.8615 307.5391035  +6.2909027     12429.34     19526.17     21681.91     80.08827     159.7959     319.5283      1.731     3.50     893.5499     56.31646     1540.759        57     1.610     1.313  63.06   0
        69   1007.3723    921.2653 307.4885896  +6.2952121      4983.81     7866.284     7989.407      79.7072     159.7959     319.4012      1.711     3.63     890.8307     56.31646     587.4202        32     1.512     1.044  69.27   0
        70    598.2639    922.2872 307.6584179  +6.2811125      1464.75     2210.078     2156.466     80.08827     159.9229     319.5283      1.559     4.31     900.7414     56.31646     198.1005        14     1.384     0.681  76.81   0
        71    529.7096    920.7547 307.6869326  +6.2794479     4318.938     6558.566     7200.558     80.08827     159.7324     319.6236      1.651     3.43     901.7936     56.31646     654.4421        27     1.409     0.985  79.86   2
        72    639.3667    920.2417 307.6414211  +6.2833336     1477.739     2191.048     1962.661     79.83443     159.7959     319.3377      1.615     4.59      899.836     56.31646     177.6262        14     1.256     0.780  79.61   0
        73     64.6414    919.8766 307.8800468  +6.2641850     923.8099     1546.993     1330.915     79.96145     159.7959     319.5283      1.816     5.45     903.5471     56.31646     130.5554        10     1.174     0.715  70.25   0
        74    482.8623    917.2502 307.7065011  +6.2793238      2304.98     3199.287     3081.936     80.08827     159.7324     319.5601      1.482     3.67      902.335     56.31646       333.58        17     1.305     0.770  74.88   0
        75    917.3616    909.3764 307.5263615  +6.2971155     45229.08     68663.38     73021.66      79.7072     159.5417     319.3059      1.649     3.47     893.1559     56.31646     5722.141        70     1.612     1.189  73.42   0
        76    322.9188    911.6617 307.7730954  +6.2762625     477.8057     821.7605      996.026     80.21489     159.7959     319.4648      1.826     4.16     903.9001     56.31646     87.09314         5     0.813     0.608  79.20   0
        77    224.8067    907.6279 307.8139654  +6.2746305     1809.346     2567.177      2570.48     79.57977     159.6688     319.3059      1.521     3.61      903.806     56.31646     248.0563        14     1.137     0.771  78.03   0
        78    623.5164    905.6086 307.6484942  +6.2888437     869.0575     1348.361     1070.643      79.7072      159.478     319.3377      1.583     5.06     899.8618     56.31646     140.6049         9     1.376     0.527  72.00   0
        79    112.5931    906.3653 307.8605959  +6.2713768     658.1605     1112.341     1228.932     79.57977     159.6053     319.2741      1.589     4.18     903.2607     56.31646     100.3745         7     1.076     0.464  80.43   0
        80    815.3522    903.3098 307.5689204  +6.2962116     2637.641     3874.836     3997.982     80.08827     159.6688     319.6553      1.605     3.50     895.3134     56.31646     341.4301        21     1.397     0.875  89.34   0
        81    763.5312    901.1086 307.5905108  +6.2953876     7201.613      10875.2     12106.58     80.08827     159.9229     319.4966      1.662     3.54     896.9037     56.31646     936.5256        34     1.605     1.012  84.01   0
        82    550.3026    900.3235 307.6790703  +6.2885725     1089.178     1558.974     1210.571      79.7072     160.0498     319.5601      1.427     3.59     900.8466     56.31646     179.0021        10     1.097     0.640  88.00   0
        83    233.0990    900.1506 307.8107751  +6.2779960     1721.231     2574.472     2641.577     80.08827     159.7324     319.6871      1.610     4.17     903.7312     56.31646     263.3326        16     1.305     0.793  85.92   0
        84    197.4737    898.9945 307.8256049  +6.2772753      907.116      1573.56      2012.12      79.7072     159.3507     319.4012      2.271     4.40     903.4957     56.31646     166.0433        12     1.175     0.839 -71.53   0
        85    951.6923    896.2216 307.5125480  +6.3036925     6953.872     10571.67     10839.39     80.08827     159.6053     319.3059      1.625     3.61     892.1693     56.31646     866.9644        33     1.461     1.045  71.00   0
        86     57.9408    898.1035 307.8835650  +6.2729473     2933.881     4198.661     4275.033     79.96145     159.7959     319.5918      1.502     3.33     903.5986     56.31646     422.1064        19     1.273     0.858  77.82   0
        87    633.6627    890.4250 307.6447920  +6.2954516     375.7856     453.9105     788.5519      79.7072     159.7959     319.4648      0.900     4.00     899.2889     56.31646     126.5494         7     1.011     0.453  81.29   0
        88    925.3912    887.7968 307.5237511  +6.3062923     2291.654     3331.799     3342.074     79.45213      159.478     319.3695      1.579     3.67     892.8543     56.31646     283.0679        18     1.180     0.895  73.87   0
        89    995.4782    883.4797 307.4947943  +6.3104141      823.103     1412.769     1592.498     80.34132     160.0498     319.6553      1.752     7.01     890.5906     56.31646     126.7042        14     1.790     0.770  89.74   0
        90    785.1670    884.3112 307.5820915  +6.3030455     1315.028     2097.628     2245.886     80.21489     159.6688     319.4966      1.755     4.01     895.3952     56.31646     204.9073        14     1.372     0.692  87.10   0
        91    646.2599    883.6462 307.6397895  +6.2986718     4989.349     7297.401     7562.875     79.96145     159.7959     319.5601      1.546     3.61     898.9018     56.31646     668.4365        27     1.419     0.951  77.61   0
        92    258.3886    883.8010 307.8008273  +6.2855954     4606.899     6545.432     7062.353      79.7072      159.478     319.3059      1.522     3.35     903.7321     56.31646     624.5481        27     1.335     1.023  72.97   0
        93    468.5052    882.2725 307.7136401  +6.2932816     1100.633     1804.874     2011.252     79.96145     159.8594     319.5283      1.748     5.42     901.5836     56.31646     157.4009        11     1.380     0.601 -89.33   0
        94     26.9734    881.3660 307.8969878  +6.2788135     2241.562     3396.465     3422.424     79.57977     159.5417     319.2741      1.608     3.58     903.8748     56.31646     315.7025        18     1.243     0.919  78.70   0
        95    877.8812    880.2449 307.5437315  +6.3078230     1108.598     1603.675      1615.51     80.08827     159.7959     319.4648      1.590     3.37     893.2556     56.31646     185.3955        11     1.009     0.726 -81.52   0
        96    969.9857    878.9924 307.5055297  +6.3114158     648.5014     1022.313     677.9886      79.7072     159.5417     319.3377      1.559     4.28     891.3555     56.31646     102.9758         8     0.933     0.694  84.97   0
        97    949.6425    877.1952 307.5140369  +6.3114787      835.915     1266.255     1247.712     79.45213      159.478     319.1787      1.712     3.87     891.9928     56.31646       151.54         6     1.033     0.416  75.37   0
        98    294.5826    877.3997 307.7860160  +6.2894543     843.3029     1151.094     1472.242      79.7072     159.3507     319.1787      1.430     3.79     903.9319     56.31646     117.4362        10     0.973     0.804  69.08   0
        99   1002.3316    875.8888 307.4922029  +6.3137766     798.9975     1510.691     1613.787     80.21489     159.9863     319.4648      1.908     4.44     890.2464     56.31646     123.0811         8     1.138     0.664 -86.37   0
       100    570.9805    876.3198 307.6712925  +6.2991747     1710.522     2400.358     2690.072      79.7072      159.478      319.433      1.540     3.91     899.8864     56.31646     265.3766        15     1.269     0.786  68.53   0
       101     59.9082    873.0732 307.8835947  +6.2833461      746.467     1167.628     1326.828     80.08827     159.9229     319.5283      1.528     4.88     903.5709     56.31646     114.9529         9     0.990     0.683 -78.81   0
       102    610.0832    872.5482 307.6551837  +6.3020417     1248.035     1457.903     1159.922     80.08827     159.7959     319.5918      1.366     3.40     899.4152     56.31646     209.3959        11     1.044     0.689  76.46   0
       103    289.9816    870.2074 307.7881690  +6.2922687     1524.442     2238.062      2766.31      79.7072      159.478     319.3377      1.513     4.12     903.9622     56.31646     222.6447        14     1.211     0.750  74.45   0
       104    558.4020    869.1725 307.6767558  +6.3017037     601.1109     745.6266     1211.503     79.57977     159.5417     319.3059      1.619     3.42     899.8062     56.31646     91.52289         5     0.803     0.421  68.42   0
       105    756.9070    866.7225 307.5944162  +6.3093614      793.436     1205.813     994.6159     79.83442     160.0498     319.5283      1.713     4.14     895.9323     56.31646     141.3154         7     1.220     0.416  62.83   0
       106    894.3581    863.0190 307.5374678  +6.3154848     7294.229      11010.6     11893.06     79.57977     159.6053     319.2741      1.585     3.44     892.9101     56.31646     933.9333        32     1.433     1.009  76.43   0
       107    430.2896    860.3301 307.7302465  +6.3010576     2217.453     3262.073      3558.65     80.08827     160.0498     319.4966      1.587     3.88     901.7853     56.31646     288.0814        15     1.344     0.664  75.02   0
       108    331.9197    858.4411 307.7711535  +6.2985349     10323.38     14898.15     15574.58     80.08827     159.7959      319.433      1.553     3.34     903.5429     56.31646     1530.333        37     1.442     1.041  75.18   0
       109    599.4500    860.1782 307.6600149  +6.3067921     587.6349     810.9775     933.9609     79.57977     159.8594     319.3695      1.225     2.76     899.1564     56.31646     96.79871         5     0.720     0.459  69.70   0
       110    252.0516    857.4466 307.8043480  +6.2962617      7589.81     11127.34     10974.61     80.21489     159.6688     319.5601      1.555     3.48     903.4584     56.31646     1047.768        31     1.399     1.017  73.73   0
       111    764.5574    851.7089 307.5917439  +6.3158153     770.6259     1032.337     1202.466     80.08827     159.7959     319.5918      1.290     4.05     895.1451     56.31646     125.3423         7     1.145     0.409  74.73   0
       112    580.1754    851.7120 307.6683028  +6.3096414     1217.268     1859.443     2070.208     80.21489     159.6053     319.3695      1.681     4.36     899.0608     56.31646     183.2062        11     1.172     0.701  70.01   0
       113    910.0853    848.4486 307.5314261  +6.3220252     1070.977     1408.764     1720.759     80.08827     159.7324     319.4966      1.402     4.29     892.3331     56.31646     145.5144        12     1.224     0.682  46.30   0
       114    866.5201    847.4419 307.5495495  +6.3209854       862.68     1107.138     922.1509     80.08827     159.7959     319.4648      1.421     4.38     893.1066     56.31646      122.944         8     1.108     0.493  85.35   0
       115    409.2642    846.5590 307.7394405  +6.3060370     640.7997     1094.507      1029.37     80.08827     159.7324     319.5918      1.665     4.59     901.7783     56.31646     84.50928         8     0.997     0.600  70.65   0
       116    839.7376    842.1608 307.5608476  +6.3222705     601.9974     859.3439     634.4941     80.08827     159.7959     319.5601      1.249     3.23      893.268     56.31646     102.3373         5     0.917     0.349  43.58   0
       117    746.5182    840.9586 307.5995953  +6.3196498     1794.939     2576.816     2465.606     80.08827     159.7959      319.433      1.528     3.99     895.5546     56.31646     243.4733        17     1.297     0.813  82.57   0
       118    570.1320    841.6594 307.6728113  +6.3134547     702.2321     787.3085     667.9432     80.21489     159.7324     319.4966      1.354     2.90     898.8393     56.31646     162.0675         7     1.033     0.466  68.45   0
       119    978.0904    837.0354 307.5035707  +6.3290074     1298.375     1967.188     2884.112     80.21489     159.7324     319.4966      2.305     4.71     889.4445     56.31646     178.4149        16     1.418     0.769  85.91   0
       120    610.8974    837.9251 307.6560103  +6.3163621     877.0486      1247.49     408.4494      79.7072     159.9229     319.5283      1.508     4.69     898.2047     56.31646     146.2637         9     1.131     0.561  75.08   0
       121    621.9866    837.6897 307.6514137  +6.3168308     711.1134     823.8406     267.1461     79.83442     159.5417     319.3695      1.351     4.55     898.0188     56.31646     102.9761         8     0.994     0.593  66.96   0
       122    531.8458    836.7625 307.6888732  +6.3141930     1207.014     1777.221     1511.566     79.83442     159.7324     319.4012      1.572     3.47     899.2571     56.31646     172.0864        10     1.123     0.616  78.94   0
       123    665.0508    834.5786 307.6336371  +6.3195572     2771.006     3855.901      4030.01     79.57977     159.8594     319.3695      1.491     3.31     897.2021     56.31646     416.4283        18     1.248     0.829  81.59   0
       124   1016.2284    833.7784 307.4878435  +6.3316246     818.6824     1083.838     1305.944     79.45213     159.6053     319.4012      1.422     3.02      887.562     56.31646     135.8091         8     0.874     0.636  79.59   0
       125    205.1706    829.5370 307.8247552  +6.3062068     2298.305     3458.488     3414.269     79.83443     159.7959      319.433      1.550     4.16      903.035     56.31646     303.1034        17     1.428     0.778  78.79   0
       126     61.7961    830.4413 307.8842528  +6.3010082     3007.406     4985.258     5062.869     79.45213      159.478     319.2741      1.717     3.67     903.3374     56.31646     438.5594        27     1.491     0.986  72.40   0
       127    943.2755    829.9599 307.5182644  +6.3307661     892.2217      1174.98      1396.97     79.96145     159.7959     319.5283      1.467     4.76     890.7272     56.31646     124.0865         9     1.135     0.589  83.58   0
       128    825.5938    831.0230 307.5670944  +6.3263958     887.6327     1192.496     1652.285     79.57977     159.6053     319.3695      1.432     3.23     893.2766     56.31646     170.9229         8     0.961     0.801  54.29   0
       129    561.9450    831.2893 307.6765596  +6.3174613     591.7043     983.8954     1251.578     80.08827     159.6688     319.6236      1.869     4.02     898.5873     56.31646     116.5487         5     0.748     0.711   8.15   0
       130     79.1875    829.8003 307.8770537  +6.3018585     2016.886     2709.823     2909.756      79.7072      159.478     319.3059      1.492     3.62     903.0544     56.31646     300.1384        15     1.233     0.783  85.69   0
       131    239.5028    826.3749 307.8106072  +6.3086666      1232.93     2143.478     3154.076     80.21489     159.5417     319.4012      2.249     4.42     903.0974     56.31646     192.1295        13     1.332     0.737 -84.74   0
       132    659.6514    823.6412 307.6362468  +6.3238916      7594.82     10639.44     11539.95     80.08827     159.7959     319.4966      1.534     3.40     896.9474     56.31646     1116.713        28     1.375     0.889  71.32   0
       133    344.2129    825.5883 307.7671574  +6.3125099     1017.278      1363.61     1773.117     79.96145      159.478      319.433      1.577     3.63     903.0325     56.31646      153.621        11     1.045     0.726  52.98   0
       134    797.2874    824.7145 307.5790600  +6.3280538     889.2128     1059.459     1490.209     79.83443     159.9863     319.5601      1.297     4.55     893.5106     56.31646     123.2895         8     0.955     0.614  81.54   0
       135     19.7085    822.0103 307.9020123  +6.3030709     1271.133     1730.924     1529.193     79.83442     159.4144     319.2423      1.516     4.09     904.0582     56.31646     217.7166        12     1.183     0.677  69.84   0
       136    897.5791    820.0047 307.5375732  +6.3333498     2768.184     4086.648      4444.56      79.7072     159.5417     319.3059      1.570     3.60     891.9707     56.31646     376.1393        23     1.368     0.977  73.58   0
       137    771.9998    821.5826 307.5896654  +6.3285010      563.812     750.0132      481.827      79.7072     159.3507     319.1787      1.390     4.07     894.2016     56.31646     115.7927         5     0.813     0.581  89.98   0
       138     33.0658    820.4404 307.8965196  +6.3041689     1027.415     1341.186     1197.831     80.08827     159.7324     319.5918      1.407     4.50     903.8201     56.31646     190.3881         9     1.162     0.601  56.60   0
       139    342.6708    816.7242 307.7680967  +6.3161173     17642.04     25238.26     27131.08     80.34132     159.9863     319.4966      1.542     3.33     902.9182     56.31646     2612.224        46     1.511     1.043  79.30   0
       140     77.4270    817.8171 307.8781899  +6.3067459     1392.207     2134.628     2344.993      79.7072     159.5417     319.4012      1.632     3.26     902.9777     56.31646     236.7754        13     1.129     0.742  81.41   0
       141    213.6870    816.2913 307.8216665  +6.3119611     1426.048     1941.964     1616.948     79.83443     160.2399     319.6236      1.452     3.74      902.968     56.31646      215.335        14     1.136     0.878 -67.24   0
       142    393.3166    815.8756 307.7470965  +6.3181682     691.4185     939.8181      706.459     80.21489     160.1132     319.5918      1.385     4.33     901.3435     56.31646     109.7971         7     0.779     0.686 -79.67   0
       143    671.9597    808.7721 307.6316360  +6.3304420     582.9141     758.7024     547.3486      79.7072     159.6053     319.3377      1.404     3.80     896.3318     56.31646     97.82166         5     0.830     0.498  60.41   0
       144    105.9919    807.3126 307.8666851  +6.3120440     1797.586     2738.406     3040.598      79.7072      159.478     319.2741      1.659     3.91     902.5073     56.31646     233.2552        18     1.332     0.853  71.47   0
       145    420.3737    807.6116 307.7361405  +6.3224879     1075.897     1292.224     1289.344      79.7072     159.6053      319.433      1.190     4.36     900.1258     56.31646      184.984         8     1.075     0.555  71.58   0
       146    674.3355    803.8047 307.6308165  +6.3325721     932.1598     1415.348     1312.177     79.45213      159.478     319.2741      1.554     4.87     896.1485     56.31646     135.8741         9     1.127     0.610 -83.15   0
       147    501.2903    804.7565 307.7026382  +6.3263811     614.7286     912.1089     1092.315     80.08827     159.7324     319.5918      1.531     4.56     899.1985     56.31646     102.6519         8     0.947     0.623  77.54   0
       148    887.8523    801.4866 307.5422334  +6.3406697     2134.761     3043.382     3097.824     80.08827     159.6688     319.5601      1.527     3.63     891.9525     56.31646     323.3689        16     1.194     0.879  81.65   0
       149    858.5610    801.2365 307.5544049  +6.3397942      2237.11     3051.442     3092.518     79.83443     159.6688     319.3695      1.470     3.46     892.8532     56.31646     295.5551        20     1.248     0.925  88.41   0
       150     89.5013    800.8642 307.8737500  +6.3141507     2470.757     3446.871     3890.685     80.08827     159.8594     319.5283      1.440     3.37     902.5269     56.31646     395.8209        20     1.311     0.817  78.28   0
       151    821.7769    800.4747 307.5697048  +6.3388793     3310.318      4514.32     4765.774      79.7072     159.6688      319.433      1.523     3.72     893.0492     56.31646      438.079        23     1.401     0.862  80.71   0
       152    337.4757    798.6856 307.7708623  +6.3233893     666.3294     751.2461     914.9593     80.21489     160.1132     319.5601      1.351     4.18      902.658     56.31646     133.8463         6     1.114     0.448  57.82   0
       153    557.7709    791.9929 307.6796155  +6.3335437     354326.4     511914.8     536221.1     79.57977     159.6053     319.3059      1.521     3.51     897.4871     56.31646     53639.17       155     1.639     1.206  78.22   4
       154    402.0248    794.5615 307.7441992  +6.3272593     8190.787     12003.09     12453.13      79.7072     159.6053     319.3059      1.555     3.40      900.438     56.31646     1219.061        36     1.412     1.073  77.94   0
       155    345.2376    792.9358 307.7678333  +6.3260236     13312.71     19342.08     20323.88     79.96145     159.7324     319.5601      1.519     3.37     902.3725     56.31646     1866.105        41     1.505     1.005  75.57   0
       156    645.6305    794.8187 307.6430380  +6.3353207     1328.863     1816.654     1587.827      79.7072     159.6053     319.3695      1.429     3.21     896.2875     56.31646     190.1867        14     1.084     0.808  59.26   0
       157    896.1594    788.1807 307.5392303  +6.3464402      5597.36     8233.996     8469.777      79.7072     159.6053     319.2105      1.544     3.48     891.2967     56.31646     755.0203        27     1.483     0.890  74.01   0
       158    663.5516    789.2462 307.6357839  +6.3382212      3807.82     5355.939     5369.987     80.08827     159.6688     319.5283      1.496     3.30     895.9039     56.31646     584.1509        23     1.312     0.906  66.55   0
       159    735.4877    785.6224 307.6060347  +6.3421249     851.0079     1083.983      1027.95     80.08827     159.6053     319.4012      1.352     4.47     894.0887     56.31646     125.1668         9     1.005     0.745  89.94   0
       160    638.5339    783.2751 307.6463730  +6.3398484     3585.514     5133.142     5371.741     80.21489     159.7959     319.4648      1.545     3.50     896.1567     56.31646     476.3384        24     1.436     0.876  81.86   0
       161    826.9376    782.3364 307.5681708  +6.3465398      1828.38     2539.029     2500.341     80.08827     159.7959     319.5283      1.448     3.96       892.45     56.31646      272.246        17     1.350     0.839  68.54   0
       162    747.9763    783.5347 307.6009191  +6.3434045     464.9845     698.0043     473.1053      79.7072     159.7959      319.433      1.534     4.15     893.7633     56.31646     83.83197         5     1.086     0.452 -62.75   0
       163    628.9437    782.3608 307.6503860  +6.3399047     1000.453     1316.138      1722.31     80.08827     159.8594     319.4648      1.391     3.62     896.2997     56.31646     163.1559        10     1.148     0.608  55.45   0
       164    181.3359    783.2495 307.8362150  +6.3245129     498.4229     506.1672     317.8889     79.96145     159.7324     319.5601      1.108     3.39     902.6395     56.31646     87.99957         5     0.745     0.446  74.97   0
       165    953.9496    781.4530 307.5154584  +6.3511475     818.9178     1194.606     1238.131     80.21489     159.6688     319.5283      1.399     4.09     888.6837     56.31646     134.5623         8     1.140     0.515  66.22   0
       166    631.2989    777.8968 307.6495582  +6.3418264     2427.705     3462.105     3560.688     80.08827     160.3032     319.3377      1.515     3.43     896.2001     56.31646     327.2589        15     1.182     0.760  80.65   0
       167    915.0587    775.9777 307.5317916  +6.3521092     3439.284     5158.734     4810.168      79.7072     159.7324     319.3377      1.544     3.48     890.3333     56.31646     506.2418        24     1.459     0.877  79.96   0
       168    325.3245    776.7341 307.7766483  +6.3320430     1065.016     1362.473     1320.739     80.21489     159.7959      319.433      1.394     4.30      902.115     56.31646     178.8092         9     1.125     0.552  73.03   0
       169    373.2256    771.9300 307.7569204  +6.3356350     2855.485     4016.338     4079.166      79.7072     159.6688      319.433      1.505     3.63     900.8117     56.31646       406.35        20     1.258     0.940  84.26   0
       170    509.4217    761.7401 307.7007104  +6.3444117     3200.557     4628.067      4433.71      79.7072     159.7324     319.4012      1.546     3.61     898.2388     56.31646     415.2003        21     1.388     0.825  74.18   0
       171    853.8598    760.4779 307.5577250  +6.3564634     1204.634     1722.836     2026.473     80.21489     159.7959     319.4648      1.502     3.69     891.5643     56.31646     192.2083        12     1.110     0.730  60.32   0
       172    574.6403    759.7238 307.6736968  +6.3474304     717.3727     886.7469     951.7675     79.96145     159.7959     319.5283      1.336     4.44      896.569     56.31646     117.6524         8     1.305     0.430  80.08   0
       173    556.2153    757.7323 307.6814147  +6.3476350     6434.576     9406.844     9574.142     79.57977     159.6688     319.4012      1.540     3.54     896.6331     56.31646     914.5474        30     1.453     0.921  75.66   0
       174    267.8276    758.2263 307.8011470  +6.3377511     781.5474     1175.651     1243.624     79.57977     159.6053     319.3377      1.548     5.94     902.6882     56.31646     126.0045        11     1.794     0.589  51.80   0
       175    563.0828    757.1252 307.6785834  +6.3481158     1256.662     1741.069     1625.012     80.21489     160.1132     319.5601      1.459     4.42     896.5699     56.31646     197.6563         9     1.009     0.654  77.87   0
       176    474.1266    756.6579 307.7155376  +6.3453260     1543.316     2125.664     1300.081     80.21489     159.7959     319.4648      1.452     3.64     899.3376     56.31646     221.1302        13     1.072     0.870  67.79   0
       177    891.9201    756.0074 307.5420701  +6.3595806     1340.114     1857.293     1650.521      79.7072     159.3507     319.3377      1.408     4.33     890.5427     56.31646     213.9728        12     1.277     0.593  69.33   0
       178    115.9097    756.1996 307.8642952  +6.3334776     1521.814     2214.033     2031.333      79.3243      159.287     319.1787      1.491     3.52     902.0966     56.31646     260.1354        15     1.242     0.771  76.85   0
       179    691.5646    754.2716 307.6253275  +6.3535973     765.3874     1059.106     1028.079     79.96145     159.7959     319.4966      1.520     4.08     894.3766     56.31646     123.7021         7     1.001     0.476  80.91   0
       180    526.8845    751.6692 307.6937983  +6.3491547     20806.42     29868.08     31626.02     80.34132     160.0498     319.5283      1.538     3.38     897.2957     56.31646     3177.447        50     1.546     1.060  79.90   0
       181    368.0145    754.0752 307.7596864  +6.3428307     630.1527      911.468     340.4398     79.57977     159.5417     319.3377      1.457     4.35      900.277     56.31646     130.4927         6     1.080     0.498  82.13   0
       182    940.5057    749.9738 307.5220966  +6.3636942     3931.521      5810.58     6180.723     80.21489     159.5417     319.3377      1.545     3.34     888.7866     56.31646     550.6279        27     1.485     0.904  69.56   0
       183    173.6709    751.4161 307.8404732  +6.3373961     607.1107     721.0317     1203.675     79.57977     159.7324     319.3695      1.141     4.18     902.2177     56.31646     102.2922         5     1.060     0.470 -89.30   0
       184     60.6162    747.5895 307.8875451  +6.3351700     585.0539      848.637      740.515     79.83443     159.5417     319.3695      1.272     3.92     902.2436     56.31646     118.4765         6     0.907     0.486 -88.52   0
       185    694.6279    744.5695 307.6243816  +6.3577050     564.5279     610.4239     708.4023     79.57977     159.5417     319.2741      1.347     3.77     894.0698     56.31646     101.0225         5     1.026     0.397  73.09   0
       186     37.3713    741.9195 307.8973885  +6.3367275     1599.738     2072.452      1640.61     79.96145     159.6053     319.4648      1.405     3.54     902.2629     56.31646      217.087        14     1.194     0.723  80.99   0
       187    319.5059    740.2934 307.7802938  +6.3468907     3560.692     5150.054      5339.19     80.08827     160.3032     319.4648      1.558     3.35     901.3163     56.31646     548.6655        21     1.325     0.844  71.29   0
       188    785.0224    736.2196 307.5871249  +6.3641765     58449.53      83930.7     88079.63     79.83442     159.7324      319.433      1.518     3.46     891.6109     56.31646     8667.886        72     1.563     1.104  74.38   0
       189     19.5031    738.4206 307.9049261  +6.3375699     2354.584     3432.035      3445.74     79.96145     159.6053     319.3059      1.589     3.68     902.2326     56.31646     304.0436        20     1.362     0.862  78.93   0
       190    241.7778    712.6000 307.8135043  +6.3557104     741858.1      1687119      1873380     79.57977     159.4144     319.2105      2.290     6.34     901.4616     56.31646     62875.44       581     2.833     1.963  84.66   4
       191    428.1931    734.3165 307.7353640  +6.3530076     936.6045     1445.058       1194.6      79.7072      159.478     319.3695      1.410     5.40     899.1608     56.31646     158.7601        12     1.446     0.703  67.72   0
       192    910.3913    731.4609 307.5352231  +6.3703311     9029.418     13232.67     13875.09     79.45213     159.6688     319.2105      1.582     3.42     889.3719     56.31646      1252.76        36     1.472     0.986  75.01   2
       193    907.2460    722.8717 307.5368174  +6.3737719     7088.372     10377.27     10701.77     80.08827     159.7959     319.4966      1.539     3.37     889.2615     56.31646     967.5623        33     1.484     0.956  72.79   2
       194    713.3423    730.8650 307.6170709  +6.3639890     22772.51     32750.22     35305.74     80.21489     159.7324     319.5283      1.528     3.38     893.2571     56.31646     3120.291        52     1.585     1.058  80.71   3
       195    707.0009    727.3489 307.6198224  +6.3652283     93516.03     133205.6     140364.3     79.45213     159.4144     319.0515      1.522     3.34     893.2921     56.31646     14083.13        84     1.595     1.105  75.49   3
       196    351.9015    728.1785 307.7672506  +6.3529801     21688.81     31774.41     32855.99     79.96145     159.6053     319.2741      1.544     3.27     899.6888     56.31646     3291.255        53     1.521     1.073  77.62   0
       197    413.7431    726.0355 307.7416435  +6.3559412     23071.39     33397.35     35171.89     79.96145     159.7959     319.5283      1.520     3.20     898.7592     56.31646     3493.244        48     1.509     1.042  80.17   0
       198    640.5580    727.6949 307.6474019  +6.3628609     861.8658     1072.601     1677.922     80.08827     159.7324     319.6236      1.467     4.60     894.8951     56.31646     120.0859        10     1.153     0.760 -83.50   0
       199    401.1586    728.4067 307.7467892  +6.3545399     1393.534      1760.74     1719.298     79.45213      159.478     319.2105      1.439     4.56     899.0407     56.31646     201.6561        11     1.052     0.720  76.35   0
       200    950.8290    725.1434 307.5186423  +6.3742895     2113.665     3065.932     3300.245      79.7072     159.8594     319.4012      1.621     3.38     887.9169     56.31646     336.6149        16     1.181     0.807  79.59   0
       201    880.3965    723.6936 307.5479397  +6.3725356     718.0119     890.3998     547.7808     79.83443      159.478     319.2105      1.422     4.74     890.1181     56.31646     116.9321         8     0.982     0.764  57.98   0
       202    647.8300    721.8932 307.6445773  +6.3654995     6985.402     9928.734     10399.29     80.21489     159.5417     319.4012      1.494     3.41     894.5051     56.31646     1029.579        27     1.395     0.901  75.86   0
       203    436.4869    719.9675 307.7324037  +6.3592095     1716.375     2534.644     1826.668     80.08827     159.6053     319.4966      1.506     4.41     898.2526     56.31646     238.8119        17     1.379     0.778  87.91   0
       204    387.8213    721.5522 307.7525586  +6.3569218     668.8928     724.0926     1148.075      79.7072     159.7959     319.3377      1.579     4.13     898.9821     56.31646     111.3785         7     1.130     0.561  73.12   0
       205    161.7719    719.1810 307.8465033  +6.3503026     720.0765     1021.997     1353.803      79.7072     159.6053      319.433      1.395     5.05     901.3442     56.31646     97.78894         9     1.175     0.615  81.47   0
       206    875.7839    713.8300 307.5501862  +6.3764535     823.8329     1074.384     559.3701      79.7072     159.5417      319.433      1.376     4.20     890.0859     56.31646     129.7515         7     1.095     0.459  60.65   0
       207    600.7433    713.7773 307.6644036  +6.3672727      951.925     1130.211     1071.678      79.7072     159.7959     319.3059      1.310     3.07     895.0559     56.31646     181.6868         8     0.934     0.575 -81.58   0
       208    682.8533    712.0068 307.6303659  +6.3707535     2614.822     3625.693     3784.454     79.57977     159.6053     319.2105      1.459     3.26     893.4207     56.31646     394.9554        18     1.236     0.834  75.06   0
       209    416.6894    708.6994 307.7410044  +6.3631967     55780.07     81444.84      85280.8     80.08827     160.2399     319.4648      1.585     3.29     897.6834     56.31646     8251.769        75     1.577     1.153  76.26   0
       210    152.2102    713.0522 307.8506808  +6.3525108     959.1728     1335.515     1740.861     79.45213     159.6688     319.2423      1.403     2.56     901.1429     56.31646     201.9805         6     0.863     0.443  56.79   0
       211    127.3053    712.7471 307.8610325  +6.3517986     1165.854     1744.768     1857.459     79.96145     159.6688     319.7506      1.624     4.08     901.1669     56.31646     161.1561        10     0.906     0.809  66.34   0
       212    959.6766    710.4693 307.5154602  +6.3806428     819.4697     971.4225     1251.566     80.21489     159.9229     319.4966      1.297     3.16      887.379     56.31646     146.2419         7     0.859     0.605  72.13   0
       213    534.4360    707.7335 307.6921419  +6.3675453     7454.606     10836.46     11336.38     79.96145     159.7959     319.5601      1.538     3.46     895.7085     56.31646     971.6436        32     1.420     0.967  72.61   0
       214    451.3068    706.2931 307.7267105  +6.3653518     4762.204      6874.66     6983.456     80.08827     160.3032     319.4648      1.531     3.57     897.2746     56.31646     629.2162        26     1.333     0.968  78.34   0
       215    779.6630    704.3446 307.5904212  +6.3771560     12402.32     17924.76     19182.68     80.21489     159.7959     319.4966      1.574     3.28     891.2093     56.31646     1812.211        41     1.518     1.003  70.59   0
       216    447.8418    699.6606 307.7283729  +6.3679735     2317.465     3438.087      3572.31     80.08827     159.7959     319.5918      1.599     3.62     896.9108     56.31646     367.6666        21     1.457     0.889  76.58   0
       217      8.9827    700.6041 307.9105743  +6.3528260     1234.511     1816.283     1742.072      79.7072     159.3507     319.3377      1.556     3.52     902.2226     56.31646     189.2427        13     1.157     0.749  53.44   0
       218    801.2692    698.6656 307.5816394  +6.3802230     1316.577     1800.465     1808.021     80.08827     159.8594     319.4966      1.447     3.77     890.7613     56.31646     204.3315        12     1.146     0.677  65.70   0
       219    137.3966    696.2684 307.8573993  +6.3589407     12076.36     17955.56     19450.69     79.45213     159.4144     319.2741      1.589     3.31     900.6057     56.31646     1583.596        41     1.500     1.063  78.48   0
       220    145.7936    696.6122 307.8539009  +6.3590814     3348.397     4830.207     5533.324      79.7072     159.6053     319.4012      1.588     3.34     900.6202     56.31646     463.2494        23     1.283     0.973  70.35   0
       221    129.5309    693.6412 307.8607542  +6.3597605     3068.385     4608.449     5545.602     79.96145     159.7959     319.5918      1.717     3.40      900.556     56.31646     408.4753        23     1.387     0.891  79.85   1
       222    925.1483    692.9961 307.5303851  +6.3867033     6659.854     9563.422     9881.793     79.45213     159.6053     319.0515      1.478     3.47     887.8068     56.31646     975.2593        30     1.424     0.919  69.59   0
       223    974.1014    692.7986 307.5100623  +6.3884193     1609.844     2368.003     3039.477     79.57977     159.5417     319.1787      1.491     3.97     886.8592     56.31646     265.5978        15     1.333     0.736  57.54   0
       224    680.6526    690.8712 307.6319904  +6.3794051     1808.559      2517.13      3366.97     79.96145     159.7324     319.4648      1.570     3.43     892.8408     56.31646     276.3912        15     1.153     0.814  80.28   0
       225    567.4088    689.9025 307.6790498  +6.3760116     2548.386     3534.814     3633.896     79.83442     159.4144     319.2741      1.429     3.26     894.5798     56.31646     371.5974        16     1.171     0.785  75.20   0
       226    415.5854    689.3077 307.7421166  +6.3711648     1203.173     1871.388     2650.171     79.83443     159.6053     319.3059      1.674     4.19     896.5125     56.31646     198.1895        11     1.261     0.662  73.90   0
       227    699.3820    688.1786 307.6243031  +6.3811436     655.9688     780.2026     410.4272     79.83443     159.7324      319.433      1.304     3.49     892.3818     56.31646        112.1         5     0.843     0.417  70.08   0
       228    129.7334    687.1949 307.8608881  +6.3624284     2030.268     3180.676     3377.421     79.57977      159.478     319.3059      1.700     3.43     900.3321     56.31646     332.4451        16     1.233     0.783  73.04   1
       229    919.3796    684.9467 307.5330508  +6.3898336     3228.401     4656.123     4809.701     79.57977     159.7959     319.3059      1.487     3.48     887.8213     56.31646     436.8975        22     1.385     0.879  85.49   0
       230    948.8173    684.4178 307.5208434  +6.3910350     3331.905     3759.986     3931.166     79.83443      159.478      319.433      1.219     3.40     887.1042     56.31646     496.3857        20     1.314     0.817  67.56   0
       231    979.8410    684.2068 307.5079668  +6.3921578      2043.57     2958.318     2794.659     79.45213      159.478     319.2105      1.435     3.36     886.6949     56.31646     325.7737        14     1.183     0.719  80.50   0
       232    671.8350    684.3970 307.6358698  +6.3817826     1568.042     2229.817     2606.266     79.19625     159.6053     319.2423      1.623     3.54     892.8058     56.31646     225.7238        13     1.061     0.782  72.84   0
       233    818.9531    682.5228 307.5748377  +6.3874785     1169.887     1585.184     2019.113     79.96145     159.8594     319.4966      1.599     4.17     890.4275     56.31646     177.9969        10     1.076     0.603  63.51   0
       234    894.4949    680.3195 307.5435403  +6.3909126     739.4706     1117.934     1812.167     79.83443     160.0498     319.5918      1.814     4.99      888.772     56.31646     109.1477         9     1.431     0.491 -86.09   0
       235    244.3091    679.1387 307.8135832  +6.3696086     2027.122     3166.235     3971.407     80.08827     159.9229     319.5601      1.780     3.74     900.0086     56.31646     267.2371        19     1.294     0.857  86.43   0
       236    681.6158    676.3704 307.6320780  +6.3854236     649.8174     969.9015     725.8889      79.7072     159.5417      319.433      1.563     4.68     892.3748     56.31646     139.5413         7     1.204     0.700  62.01   0
       237    937.2565    674.6141 307.5259733  +6.3946962     1060.602     1633.198     1917.043     79.45213     159.6688     319.1787      1.548     4.92     887.0182     56.31646     163.8838        12     1.294     0.801  73.98   0
       238    264.8669    674.7623 307.8051943  +6.3721064     842.8083     1201.865     1513.539     79.96145     159.7324     319.5918      1.487     5.07     899.5754     56.31646     127.4467         9     1.107     0.655  74.33   0
       239    160.2074    674.5029 307.8486629  +6.3686934     844.8503     1382.627     1260.117     79.83443     159.4144     319.2423      1.703     4.20     899.8458     56.31646     144.8981         9     1.174     0.849  67.09   0
       240    963.7286    672.1768 307.5150614  +6.3965863     2633.453     3899.854     4184.708      79.7072     159.6688     319.4966      1.582     3.62     886.7317     56.31646      402.174        19     1.312     0.848  66.78   0
       241    911.0084    673.3538 307.5369162  +6.3943399     1243.681     1559.527     1569.898     79.57977     159.6688     319.1469      1.376     4.44     887.8498     56.31646     176.7919        11     1.150     0.625  67.41   0
       242    683.3364    671.4543 307.6315287  +6.3875107     916.9453     1222.914     1056.595     80.08827     159.7324     319.4648      1.448     4.50     892.2211     56.31646     128.3192        10     1.101     0.677  58.08   0
       243   1005.5053    665.7590 307.4979270  +6.4006302     1707.878     2420.575     2137.304     80.08827     159.7324     319.6236      1.407     3.21     886.2048     56.31646     278.5279        13     1.177     0.665  78.21   0
       244    474.5782    666.6583 307.7183823  +6.3824944     642.8377     872.5018      751.098      79.7072     159.7324     319.3059      1.268     3.01     894.8039     56.31646     110.6671         5     0.709     0.465  71.89   0
       245    806.9311    664.1992 307.5804456  +6.3946409     1277.375     1749.092     1813.975     79.57977     159.3507     319.3059      1.559     4.34     890.2958     56.31646     201.1853        14     1.334     0.738  86.07   0
       246    631.8421    664.9463 307.6531322  +6.3884729     761.8614     806.6507     999.3705     80.08827     159.8594     319.4966      1.187     2.92     892.6313     56.31646     137.6323         8     0.842     0.701  79.47   0
       247    893.0649    661.4448 307.5447675  +6.3986568     1704.492     2464.782     2891.115     80.08827     159.7324     319.4966      1.493     4.06      888.324     56.31646      258.819        14     1.321     0.687  65.49   0
       248    867.6059    656.8531 307.5554946  +6.3997017     1013.386     1477.141     1659.033     79.57977     159.5417     319.2105      1.615     3.75      889.112     56.31646     184.7767         9     1.060     0.631  83.56   0
       249    736.1304    654.8276 307.6101632  +6.3961416     11584.17     12926.28     12988.57     79.83442     159.6688     319.4012      0.562     1.32     890.9506     56.31646     8210.168        12     1.048     0.362 -12.07   0
       250    850.1173    652.8636 307.5628914  +6.4007643     1689.576     2208.939     2335.589     80.21489     159.8594     319.5283      1.385     3.60     889.3311     56.31646      229.165        16     1.203     0.838  78.15   0
       251     49.1656    651.6200 307.8955465  +6.3744007     2582.233     3820.551     3364.401     79.57977     159.6053     319.2741      1.590     3.88     900.8322     56.31646     377.2961        21     1.386     0.876  78.86   0
       252    113.0940    650.4905 307.8690385  +6.3770199     1004.492     1897.472     1787.432     80.08827     160.3032     319.4966      1.996     6.70     899.7145     56.31646      156.196        15     1.751     0.719  72.42   0
       253    461.3745    650.6586 307.7244046  +6.3886564     595.1399     825.3875     502.7487      79.7072     159.7959     319.3377      1.126     3.33     894.6741     56.31646     106.6959         5     1.039     0.310  67.98   0
       254    661.8033    640.2710 307.6415198  +6.3996629     6577.878     9294.163     9499.075     79.57977     159.4144     319.3377      1.502     3.06     891.7695     56.31646      1032.64        27     1.312     0.946  71.01   0
       255    608.5829    639.4598 307.6636489  +6.3982151      1458.92     2337.136     2651.076      79.7072     159.7324     319.2423      1.837     3.90     892.2195     56.31646     213.8408        13     1.218     0.715  78.45   0
       256    530.1697    640.0060 307.6961943  +6.3953614     719.7773     1102.469      864.411     79.57977     159.6053     319.2741      1.569     3.72     893.5889     56.31646     110.0029         6     0.914     0.452  57.77   0
       257    519.6007    639.4500 307.7006021  +6.3952366     872.4653     1183.337     1151.873     79.45213     159.4144     319.0515      1.260     3.97     893.6935     56.31646      161.329         7     0.989     0.456  78.19   0
       258    635.6033    636.0209 307.6525433  +6.4005399     2356.956     3236.146     3264.827      79.7072      159.478     319.2741      1.411     3.28     891.9068     56.31646     350.4973        18     1.297     0.772  72.69   0
       259    124.7187    636.0868 307.8646984  +6.3833573     3889.717     5808.734     5645.917     79.83442     160.0498     319.6236      1.553     3.34     899.4372     56.31646     571.6299        23     1.397     0.874  74.20   0
       260    998.6870    635.4319 307.5017752  +6.4129225      2692.68     3926.152      3772.04     80.21489     159.6053     319.4648      1.564     3.69     885.4023     56.31646     437.9521        19     1.295     0.841  69.96   0
       261    311.4760    636.2339 307.7871398  +6.3895779     762.7737     908.5177     1357.808     79.96145     159.7959     319.4648      1.579     4.05     897.2172     56.31646     132.9852         7     1.014     0.462  77.94   0
       262    247.4572    636.0536 307.8137309  +6.3875004     805.5479     1142.457     1069.007     80.21489     159.7959     319.4966      1.456     4.48      898.252     56.31646     129.4377         9     1.211     0.645  85.90   0
       263    778.6527    632.3800 307.5932582  +6.4068310     21552.13     30149.77     31268.96     79.57977     159.7959     319.3059      1.487     3.15     890.2764     56.31646     3375.445        40     1.450     0.948  74.49   0
       264    908.7281    632.1016 307.5392472  +6.4112937     3970.259     5583.334     5684.246     79.83443     159.9229     319.4966      1.410     3.02      887.142     56.31646     652.2002        19     1.226     0.790  79.39   0
       265    506.4413    632.2823 307.7063085  +6.3977542     893.9824     1510.222     1573.702     80.08827     159.7959      319.433      1.865     4.90     893.7082     56.31646     119.9666        11     1.176     0.695  73.94   0
       266    478.0150    632.6218 307.7181020  +6.3966606      1571.24     2225.674     2196.919     79.83442     159.6053      319.433      1.521     3.36     894.1515     56.31646     240.9765        13     1.040     0.814  75.37   0
       267    280.1588    631.6085 307.8003011  +6.3904348     662.1135     1085.174     625.9376     79.45213     159.6053     319.2423      1.570     3.53      897.319     56.31646     92.88861         5     0.999     0.359  85.89   0
       268    252.1488    625.9375 307.8121242  +6.3918342     6389.929     9382.189     9877.443     80.08827     159.7324     319.4966      1.541     3.45     897.7318     56.31646     879.7134        30     1.401     0.979  79.03   0
       269    659.2238    625.1298 307.6431003  +6.4058271     7504.028     10554.34     10765.45      79.7072     159.6688      319.433      1.486     3.50     891.4388     56.31646     1069.256        30     1.352     0.977  78.07   0
       270    641.6754    626.5151 307.6503414  +6.4046675     1001.148     1338.929     808.1648     80.21489     160.1132     319.5601      1.337     4.35     891.6391     56.31646     164.4124         9     1.055     0.597  86.74   0
       271    354.9292    625.1167 307.7694700  +6.3956270       733.25     925.3464     341.6879     80.34132     160.0498     319.5283      1.459     4.01     896.3621     56.31646     105.9903         8     0.833     0.673  42.07   0
       272    919.2139    617.9221 307.5353681  +6.4174977     1304.732     1937.629     2022.641      79.7072      159.478     319.3059      1.552     4.24     886.7397     56.31646     186.9454        13     1.212     0.751  71.46   0
       273    730.9651    613.6324 307.6136929  +6.4129750     3858.733     6038.408     6736.778      79.7072     159.5417     319.2423      1.618     3.59       890.34     56.31646     560.9503        25     1.452     0.921  74.08   0
       274    686.2263    614.1526 307.6322554  +6.4112628     1018.643     1228.991     1066.951      79.7072     159.8594      319.433      1.299     3.70     890.8911     56.31646     174.0203         9     1.077     0.579 -86.05   0
       275    997.2411    610.1477 307.5032232  +6.4233123      9536.33     13701.34     14480.12     80.08827     159.8594     319.4966      1.508     3.39     884.7515     56.31646      1354.92        35     1.424     1.009  81.08   0
       276    935.7227    610.6499 307.5287558  +6.4210512     2636.428     3469.649     3386.137     80.08827     159.8594     319.4648      1.388     3.04     886.3742     56.31646     395.2891        18     1.191     0.802  75.73   0
       277     16.4605    610.0173 307.9105353  +6.3904723     1905.665     3125.425     3611.674      79.7072     159.7324     319.2741      1.780     4.32     900.4345     56.31646     258.5909        19     1.312     1.013  57.91   0
       278    433.6752    608.3270 307.7373344  +6.4052020     615.3433     707.1299     711.7371     80.34132     160.0498     319.5601      1.398     4.85      894.288     56.31646      112.147         6     1.426     0.468 -89.38   0
       279    549.9297    608.2997 307.6890559  +6.4091129     662.0056     927.9856     677.3818     79.96145     159.9229     319.5283      1.295     4.01     892.2009     56.31646       127.25         5     1.004     0.457  68.69   0
       280     74.5706    604.9442 307.8865762  +6.3945244     26758.85     39422.48     40986.29     79.83442     159.8594     319.4012      1.563     3.32     899.7253     56.31646     3713.211        51     1.555     1.053  77.75   0
       281    535.8111    605.8996 307.6950001  +6.4096304     2154.703     3107.383     3436.586     79.83442     159.4144     319.2741      1.546     3.27     892.4089     56.31646     336.6924        19     1.323     0.858  62.97   0
       282    504.8067    603.1559 307.7079684  +6.4097233     1461.953     1910.792     1802.424     79.57977     159.5417     319.1787      1.439     3.28      892.974     56.31646     220.5322        14     1.094     0.841  76.05   0
       283    925.6511    602.2444 307.5332206  +6.4241848     1193.386     1709.657     1822.666     80.21489     159.7324     319.5283      1.525     4.53     886.3201     56.31646     154.2569        11     1.191     0.677  87.95   0
       284    545.0308    599.6918 307.6913803  +6.4125022     1021.942     1504.919     1586.884     80.21489     159.6053     319.4648      1.635     5.07     892.0874     56.31646      162.748        11     1.247     0.591  69.96   0
       285    720.6492    597.2453 307.6185279  +6.4193948     3842.911     5218.222      5085.23     80.08827     159.6688     319.5283      1.454     3.45     889.7612     56.31646     606.7257        20     1.290     0.833  71.53   0
       286    742.5565    595.5138 307.6094879  +6.4208427     4443.541     6142.443     6217.648     80.08827     159.6688     319.4966      1.504     3.53       889.52     56.31646     629.5641        21     1.316     0.798  79.04   0
       287    574.0888    593.4166 307.6795238  +6.4160668     3500.199     4909.891     4635.269     79.83442     159.5417     319.3695      1.490     3.61      891.444     56.31646     505.2708        23     1.324     0.886  75.53   0
       288    410.1967    593.8626 307.7475724  +6.4103850     1317.976      1959.49     1822.134     79.45213     159.5417     319.2423      1.554     4.15     894.0572     56.31646     193.3923        13     1.300     0.738  86.35   0
       289   1015.5006    591.6927 307.4962584  +6.4315404     5287.036     7554.549     8229.755     80.08827     160.3032      319.433      1.509     3.28     883.3079     56.31646     732.9974        25     1.361     0.875  74.29  16
       290    980.9144    590.5415 307.5106613  +6.4308614      8759.86     12370.78     12777.19     80.08827     159.7959     319.6236      1.504     3.17     884.3148     56.31646      1400.21        35     1.485     0.973  81.30   0
       291    318.1073    592.3300 307.7858678  +6.4079248     1529.545     2173.369     2310.069     80.08827     159.9229     319.4966      1.542     3.46     895.2363     56.31646     230.0938        15     1.281     0.698  76.62   0
       292    234.8490    592.6390 307.8204331  +6.4049984     1799.435     2832.298     2969.862     80.08827     159.7959     319.3695      1.620     3.57     897.0958     56.31646     291.5607        16     1.335     0.725 -88.78   0
       293    700.7001    589.1276 307.6270859  +6.4220782      930.087     1459.688     1488.546     79.83443     160.0498     319.4966      1.723     5.84     889.5555     56.31646      141.302        11     1.122     0.855  60.39   0
       294     92.3570    587.2019 307.8797902  +6.4024475     804.0391     1057.636      1348.75     79.45213      159.478     319.1787      1.323     4.36     899.1016     56.31646     141.5349         7     1.147     0.473  85.75   0
       295    139.3717    583.8828 307.8603785  +6.4054006     24744.48     36573.46     37984.86     79.96145     159.6053      319.433      1.553     3.28     898.4304     56.31646     3210.684        47     1.513     1.050  77.82   0
       296    807.7372    584.9315 307.5827731  +6.4273916     1354.995     1786.159     2035.055     80.08827     159.7959     319.5601      1.386     2.90     888.5743     56.31646      257.574        10     0.998     0.694  41.74   0
       297    426.2751    584.8565 307.7411989  +6.4146426     2866.549     4129.549     4654.078     79.96145     159.7324      319.433      1.536     3.56     893.4958     56.31646     386.8412        21     1.296     0.901  77.77   0
       298    643.8118    584.4062 307.6508708  +6.4221225     604.2384     773.0501     373.2979      79.7072     159.6053     319.4012      1.387     3.54     889.9807     56.31646     108.8029         5     0.949     0.381  84.16   0
       299    358.8188    578.8282 307.7694164  +6.4148662     735.5803      1294.17      749.458      79.7072     159.6053      319.433      1.665     2.34     894.0919     56.31646     139.0901         6     0.721     0.546  56.75   0
       300    975.8510    573.4897 307.5133361  +6.4377318     7326.308     11156.97     11868.83     80.08827     159.6053     319.6236      1.643     3.91      883.647     56.31646     990.0267        33     1.575     0.985  62.37   0
       301    569.3400    568.7602 307.6823261  +6.4260862     50513.62     72882.65     76596.89     80.08827     159.7959     319.5918      1.550     3.35       890.83     56.31646       6658.2        73     1.587     1.115  77.39   0
       302     20.6727    572.6832 307.9100499  +6.4060258     1283.875     2103.297      1862.23     80.34132     160.1132     319.5283      1.755     4.30     900.0914     56.31646     183.1136        14     1.405     0.698  70.02   0
       303    933.5948    570.4785 307.5309871  +6.4375640     792.1002      887.874     397.7151      79.7072      159.287     319.2741      1.193     3.58     884.9573     56.31646     141.1166         7     0.963     0.466  79.43   0
       304    212.9016    570.2459 307.8303039  +6.4135043     764.4537     900.2616     1147.456     80.08827     159.6688     319.6871      1.349     4.44     896.9291     56.31646     124.0461         8     1.077     0.521 -56.42   0
       305    528.7571    568.8895 307.6991761  +6.4246723     825.8549      1265.39     1329.807     80.08827     159.6688     319.5283      1.691     4.29     891.6317     56.31646     118.1995         7     0.872     0.602 -65.12   0
       306    176.8516    565.3893 307.8454391  +6.4142962     2805.416     4297.513     4434.396     79.45213     159.6688     319.2423      1.612     3.28     897.5723     56.31646     433.3456        24     1.420     0.907  78.87   0
       307    499.5254    565.1180 307.7114433  +6.4252488     750.9055     1170.638     585.9799     80.34132     160.1132     319.5601      1.637     5.29      891.917     56.31646     108.5502         9     0.985     0.802 -88.31   0
       308    980.1950    564.9238 307.5118191  +6.4414130     580.9597     788.9614     485.3835      79.7072      159.287     319.3695      1.482     4.82     883.1412     56.31646     79.95355         5     0.946     0.697  61.40   0
       309    959.9489    560.5516 307.5203745  +6.4425421     7769.863      10783.1     10580.48     80.21489     159.6688     319.4966      1.457     4.70     883.6805     56.31646     2351.198        15     1.616     0.388  85.82   0
       310     69.5600    559.8256 307.8901834  +6.4129807     1453.172     1983.836     2394.961      79.7072     159.6053     319.2741      1.454     3.49     898.9293     56.31646      212.217        14     1.243     0.714  72.72   0
       311    466.6135    552.5234 307.7255362  +6.4293440     65274.47     94484.68     98931.74      79.7072      159.478     319.3059      1.595     3.30      891.882     56.31646     9146.493        75     1.562     1.148  76.92   0
       312     10.1096    553.9598 307.9150703  +6.4133988     1630.391     2440.293     3033.486     80.08827     159.7959     319.5283      1.588     4.33     900.2054     56.31646     251.1956        17     1.447     0.788  67.88   0
       313    652.7581    549.6182 307.6483256  +6.4367833     926.9401     1241.125     1246.876     79.57977     159.6053     319.2423      1.529     4.01     888.1372     56.31646     146.5161         8     1.011     0.639  59.30   0
       314    140.9518    547.5277 307.8609515  +6.4204614      1687.34     2490.509     2169.706     80.08827     159.8594     319.5283      1.534     3.44     897.8055     56.31646     264.2189        16     1.314     0.741  71.50   0
       315    420.2216    545.5955 307.7450366  +6.4306469     859.0299     1041.652     1517.846      79.7072     159.5417     319.2741      1.348     3.95     892.0131     56.31646     138.1479         9     1.068     0.594 -67.28   0
       316    936.2026    545.2545 307.5307502  +6.4480643     590.4797     662.8771     381.6999     79.45213     159.5417     319.1469      1.287     3.84     883.9483     56.31646     114.4681         5     0.886     0.478  46.45   0
       317    612.7057    544.1802 307.6651431  +6.4376865     957.3683     1364.989     1376.042     79.96145     159.6053     319.3059      1.470     3.97     888.7639     56.31646     147.8157        10     1.154     0.570 -84.06   0
       318     13.0778    543.3679 307.9141962  +6.4178712     686.6888     982.6188     1670.288     79.96145     159.7959     319.4648      1.341     4.91     899.9923     56.31646     118.2159         8     1.308     0.521  64.52   0
       319    494.3188    543.3629 307.7143386  +6.4340551     567.9268     732.9412     1281.365     80.08827     159.8594     319.4648      1.572     4.90     891.2748     56.31646     79.35114         6     0.925     0.736  74.67   0
       320    311.9932    541.9105 307.7901087  +6.4285330     2178.993     3266.213      3602.02     79.57977      159.478     319.2741      1.646     4.74     893.9324     56.31646     322.8442        18     1.427     0.793  82.32   0
       321    464.5698    540.6312 307.7267858  +6.4341847     858.1163     1392.398      1639.14     79.57977     159.5417     319.2423      1.744     5.12     891.4258     56.31646     120.8967         9     1.277     0.579  77.73   0
       322    738.6085    536.0505 307.6131262  +6.4452584     5584.792     7893.557     7933.532     79.57977     159.6688     319.1787      1.459     3.01      886.924     56.31646     863.3201        29     1.371     0.957  73.10   0
       323    792.1887    531.3204 307.5910317  +6.4490036     14943.04     21043.19     21752.92      79.7072      159.478     319.3377      1.516     3.53     886.6801     56.31646     2226.281        43     1.480     1.026  81.63   0
       324   1009.5737    532.0629 307.5007189  +6.4559595     1169.686     1588.079     1548.117      79.7072     159.7324      319.433      1.412     4.31     880.8696     56.31646     170.4844        13     1.357     0.647  81.79   0
       325    534.3747    531.1669 307.6981136  +6.4404332      1302.68     1918.386     2061.043     79.45213     159.6053     319.3377      1.518     4.57     890.3961     56.31646     178.9636        14     1.194     0.868  63.79   0
       326     37.1237    531.2273 307.9046214  +6.4236933     740.0862     989.8738     879.1754     79.96145     159.7959     319.4648      1.632     3.91     898.9329     56.31646     111.3242         8     1.065     0.677  74.78   0
       327    616.2773    529.3276 307.6641596  +6.4439377     3133.064     4426.964     4468.313     80.34132     160.0498     319.4966      1.530     3.33     888.2719     56.31646     456.5223        22     1.363     0.883  76.11   0
       328    933.0378    525.5098 307.5327271  +6.4561097     1199.252     1539.104      2404.13     80.08827     159.7324     319.5283      1.407     4.15     883.5173     56.31646     178.9727        11     1.154     0.648  59.05   0
       329    374.3331    523.3257 307.7648457  +6.4382994     979.6534      1365.81     1526.001     80.21489     159.9229     319.4648      1.518     4.87      891.793     56.31646     151.0687         9     1.047     0.641  77.56   0
       330    228.3758    522.8765 307.8254779  +6.4335792     1315.421     1750.502     1648.289      79.7072     159.7324     319.4648      1.491     4.27     895.3376     56.31646     183.5652        14     1.244     0.787  64.50   0
       331    192.3584    524.2552 307.8403894  +6.4317984     553.0776     493.2486     477.1367     79.96145     159.7324     319.4966      1.049     3.43     896.2922     56.31646     111.1619         5     0.731     0.464  77.79   0
       332    359.1208    522.8254 307.7711804  +6.4379949     612.4961     916.1789      684.242     79.83442     159.6688     319.4966      1.606     4.49     892.1285     56.31646     116.4949         5     1.248     0.460  65.78   0
       333    868.2443    514.5068 307.5600077  +6.4584873     3066.133     4306.454     4720.499     80.08827     159.7324     319.6236      1.545     3.53     885.3037     56.31646      423.258        19     1.291     0.782  79.68   0
       334    163.2626    514.5910 307.8527995  +6.4348088     738.6837     990.9825     765.2435     79.45213     159.6053     319.3059      1.606     5.24     896.8089     56.31646     130.7842         8     1.285     0.603  84.44   0
       335    826.9855    511.9595 307.5772297  +6.4581598     2865.702     3926.745     3492.957     79.57977     159.6053     319.2423      1.403     3.36     885.9277     56.31646     427.8236        17     1.207     0.803  77.80   0
       336    807.6019    503.2167 307.5855741  +6.4611209     169053.4     238817.8     250316.6      79.7072     159.3507     319.2741      1.520     3.19      886.088     56.31646      25256.3       116     1.607     1.155  77.14   0
       337    255.0417    506.9608 307.8149410  +6.4410461     8138.697     11992.31     12035.58     79.83443     159.8594     319.3695      1.535     3.47     894.2128     56.31646     1145.728        33     1.457     0.977  77.57   0
       338    797.9229    507.9473 307.5894353  +6.4588443     2641.968     3798.286      4942.93     80.21489     159.7959     319.4966      1.513     3.38     886.3168     56.31646     402.7313        19     1.270     0.847  75.08   0
       339    860.0508    506.1003 307.5636930  +6.4616840     504.1114     920.7894     1238.123     80.08827     159.7959     319.7188      2.259     5.83     885.1814     56.31646     94.29297         7     1.013     0.945 -60.12   0
       340    189.2224    501.4962 307.8424610  +6.4410880     60660.38     89565.15     93339.94     80.08827     159.6053     319.3059      1.617     3.42     895.7753     56.31646     8195.005        71     1.598     1.151  78.27   0
       341    737.3567    503.5306 307.6147393  +6.4586415     637.5635     859.8773     1736.788     80.08827     159.7324     319.5601      1.903     4.07     886.6445     56.31646     106.8077         6     1.034     0.459  56.31   0
       342    113.2516    497.7216 307.8741396  +6.4400889     6368.303     9677.945     9973.016     80.08827     159.8594     319.4966      1.612     3.35     896.8914     56.31646     899.4556        33     1.431     1.020  72.09   0
       343    978.4750    495.1642 307.5148728  +6.4701543     1415.376     1844.783     1468.755     79.96145     159.8594     319.5283      1.374     3.68      881.325     56.31646     212.3663        12     1.199     0.635  59.18   0
       344    999.4196    494.4120 307.5061986  +6.4711640      724.041     859.6038      452.925      79.7072      159.478     319.4012      1.337     4.37     880.7051     56.31646     111.6909         8     1.103     0.493  88.66   0
       345    227.5866    493.1094 307.8268114  +6.4458408     846.3945     1108.935     897.4979     79.83442     159.5417     319.3059      1.428     4.59     894.5726     56.31646     117.7823         8     0.952     0.628 -82.22   0
       346    844.1429    490.4385 307.5708262  +6.4676178     4699.337     6481.646     6212.238     80.08827     159.8594     319.4966      1.448     3.38      885.025     56.31646     706.7961        25     1.340     0.882  81.30   0
       347    362.5803    488.6143 307.7708979  +6.4522339     17590.56     25960.73     27315.97     79.83443     159.5417     319.4012      1.615     3.34      891.237     56.31646     2388.494        44     1.507     1.054  78.44   0
       348    452.8320    488.8032 307.7334077  +6.4551862       749.66     1105.764     1340.937      79.3243     159.6053     319.2423      1.473     2.52     888.9882     56.31646     128.8409         6     0.721     0.557  59.06   0
       349    164.3194    487.6615 307.8532710  +6.4459610     1986.831     2974.543     2930.854     80.21489     159.7959     319.4966      1.576     3.53     896.0648     56.31646     294.3289        19     1.301     0.913  67.64   0
       350    529.0137    483.4970 307.7019459  +6.4599324     6806.832     10060.78     10645.89     79.96145     159.5417     319.2741      1.557     3.31     888.4079     56.31646     1003.616        36     1.534     1.006  74.96   0
       351    239.8987    485.2430 307.8219637  +6.4495022     794.5734     1051.211     730.5577     80.08827     159.6688     319.7188      1.322     3.20     893.9916     56.31646     156.5327         7     0.940     0.554  76.46   0
       352    101.8429    484.9359 307.8793102  +6.4449827     772.3989     1326.943     1171.467     80.08827     159.7324     319.5283      1.684     4.65     896.7434     56.31646     162.4296        10     1.295     0.678  67.81   0
       353    798.1235    483.7772 307.5901640  +6.4688290     6079.382     8729.348     9628.274      79.7072     159.6688     319.4012      1.515     3.45     885.9612     56.31646     882.4026        27     1.329     0.925  71.27   0
       354    170.2041    484.9020 307.8509203  +6.4472982     670.6144     821.7206     1092.637     79.83442      159.478     319.1787      1.387     3.73     895.8353     56.31646     111.9005         5     1.155     0.346  79.17   0
       355    387.3187    480.2173 307.7609068  +6.4565312     1449.071     2291.203     2575.389      79.7072      159.478     319.4012      1.700     4.36     889.9321     56.31646     216.8865        14     1.343     0.708  74.19   0
       356    175.9923    476.7411 307.8487923  +6.4508618     6822.896     10218.72     10692.32     79.45213     159.6688     319.2423      1.568     3.49     895.4796     56.31646     1013.143        32     1.413     1.000  74.49   0
       357    573.6286    476.7316 307.6836436  +6.4642211     2421.367     3922.468     4138.176     79.83443     159.7959      319.433      1.822     3.82     887.4711     56.31646     344.6049        21     1.271     1.082 -76.54   0
       358     47.6323    475.4136 307.9021463  +6.4470873     5299.851     7760.168     8078.559      79.7072     159.5417      319.433      1.573     3.19     896.8534     56.31646     725.5583        30     1.483     0.951  77.90   0
       359    857.2559    476.5223 307.5658470  +6.4738011     597.2741     708.6989     585.4219     80.08827     159.7959     319.4966      1.435     5.27     884.3105     56.31646     102.2153         7     1.194     0.657  75.88   0
       360    814.8046    475.8271 307.5835026  +6.4726688     1387.065     2041.422     1901.401     79.57977     159.6053     319.3377      1.486     3.91     885.3553     56.31646     224.8546        11     1.179     0.639  82.75   0
       361    271.2052    473.1271 307.8093708  +6.4555565     88459.71     132556.6     139116.9      79.7072     159.3507     319.4012      1.593     3.37     892.4829     56.31646     12060.17        88     1.625     1.185  78.44   0
       362    560.7406    470.7133 307.6891991  +6.4662735     1021.845     1276.411     1503.467     80.08827     159.9229     319.6236      1.443     2.94     887.4149     56.31646     199.1703        10     1.017     0.648  72.98   0
       363    255.1112    468.2433 307.8162200  +6.4570314     1529.828     2128.017     2275.821     80.08827     159.6688     319.5283      1.447     3.64      892.856     56.31646     225.7431        15     1.274     0.710  83.68   0
       364    794.3670    465.5567 307.5923364  +6.4762252     17312.05     24136.51     25057.39      79.7072     159.7959     319.3377      1.495     3.47     885.4315     56.31646       2469.6        42     1.466     0.985  78.67   0
       365    970.6761    466.9131 307.5190596  +6.4815568     1640.857     2457.493     2592.167     80.08827     160.1132     319.5601      1.570     3.49     880.7717     56.31646     234.5061        15     1.187     0.815  81.41   0
       366    497.9476    463.9640 307.7155069  +6.4669539     40849.09     65849.06     70268.96     79.96145     159.7959     319.5283      1.713     3.64     887.6569     56.31646     5108.258        74     1.631     1.354  67.54   0
       367    648.4321    462.2032 307.6530634  +6.4727251     897.9308     1175.214     1450.283      79.3243     159.6053     319.2423      1.336     4.07     886.0916     56.31646     152.3088         7     0.980     0.482 -82.27   0
       368    210.4457    460.5610 307.8350300  +6.4587004     1991.122     3122.521     3508.053     79.83443     159.7959     319.4012      1.725     3.76     894.2125     56.31646     253.6412        21     1.363     0.917  80.91   0
       369     46.0121    460.4911 307.9033242  +6.4531927     1399.817     2011.501     1851.198     79.83442     159.5417     319.3059      1.545     3.74     896.6774     56.31646     269.0494        14     1.267     0.723  79.91   0
       370    668.0781    459.2247 307.6450037  +6.4746127     1469.167     2008.915     1603.143      79.7072     159.6688     319.4648      1.340     3.44     885.9079     56.31646     245.9832        15     1.277     0.691 -88.12   0
       371    657.8842    459.0349 307.6492441  +6.4743496     3134.812     4496.417     4435.679     80.08827     159.7324     319.4648      1.482     3.08     885.9518     56.31646     492.0582        22     1.272     0.904  77.38   0
       372     96.5956    460.8627 307.8823038  +6.4547435     538.6514     862.5056     946.7386      79.3243     159.5417     319.2741      1.438     4.34      896.097     56.31646     103.7234         5     1.111     0.484 -85.20   0
       373    720.0408    457.9922 307.6234624  +6.4768612     1386.704     2222.728     2320.597     79.45213     159.6053     319.1787      1.602     3.51     885.8139     56.31646     225.4247        13     1.189     0.671  75.14   0
       374    395.7928    454.5717 307.7582523  +6.4674026     1730.318     2669.353      2664.44     79.57977     159.6053     319.3059      1.529     3.53     888.9338     56.31646     241.2415        14     1.167     0.791  77.50   0
       375     77.3214    456.2702 307.8904640  +6.4559900     693.7979     1156.286     1923.586     80.34132     160.0498     319.4648      1.385     3.47     896.2096     56.31646     128.9706         5     0.787     0.442  76.50   0
       376    327.0817    453.0110 307.7868430  +6.4657387     3953.485     6000.383     6076.992      79.7072     159.5417     319.3377      1.584     3.43     890.2589     56.31646     538.2964        27     1.386     1.150 -85.82   0
       377    142.3025    451.4749 307.8636385  +6.4601579     26414.12      39097.9     40875.97      79.7072     159.9229     319.5283      1.613     3.40     895.3789     56.31646     3535.197        60     1.581     1.121  77.25   0
       378    870.1891    451.8607 307.5613032  +6.4844142     1618.452     2417.792     2773.989     79.45213     159.6688     319.2105      1.574     4.01     883.2213     56.31646     222.7437        14     1.247     0.788  82.41   0
       379    507.1847    452.2154 307.7120662  +6.4721138      2155.76     3083.825     3239.044     79.83442      159.478      319.433      1.511     3.63     886.9835     56.31646     284.7639        19     1.291     0.874  88.12   0
       380    107.5665    449.9976 307.8781150  +6.4595981     2670.088     4139.137     4519.248      79.3243     159.6053     319.3059      1.639     4.24     895.6545     56.31646     401.4744        24     1.596     0.860  87.13   0
       381    344.3383    447.9804 307.7798456  +6.4683952     1062.207     1551.375     1977.332      79.7072     159.7959     319.3695      1.515     3.76     889.8025     56.31646     152.2966        11     1.125     0.680  88.10   0
       382    967.8871    446.0877 307.5209166  +6.4900610     5520.194      7802.89     8172.209     79.83443     160.1765     319.5918      1.479     3.19     880.1732     56.31646     865.7172        26     1.475     0.814  70.11   0
       383    540.9879    438.5196 307.6984876  +6.4789013     1619.171     2105.817     2137.368      79.7072      159.478     319.3377      1.422     3.32     885.9799     56.31646     239.9808        11     1.027     0.696  61.02   0
       384      6.6131    435.8084 307.9205227  +6.4620538      25835.5     38454.12     40206.06      79.7072     159.6053     308.7047      1.596     3.29     897.1866     56.31646     3759.678        49     1.527     1.068  76.75  16
       385    439.3002    432.6603 307.7409208  +6.4779086     43352.14     63910.36     66643.37     79.83443     159.7324     319.6236      1.598     3.35     887.5297     56.31646      5637.03        65     1.563     1.130  78.54   0
       386    647.3644    432.3637 307.6545110  +6.4850077     12673.17     18217.43      18726.5     79.83443     159.6053     319.2423      1.541     3.33     885.1347     56.31646     1751.167        39     1.440     1.018  78.19   0
       387    204.4976    430.1653 307.8385277  +6.4710478     19044.39     29703.89     31432.24     80.08827     159.6688     319.6553      1.684     3.64     893.5585     56.31646     2524.668        53     1.620     1.148  67.54   0
       388    170.1335    431.4430 307.8527569  +6.4693640     1548.933     2202.472     1855.772     80.08827     159.7324     319.5283      1.493     3.62     894.4754     56.31646     237.6036        12     1.132     0.759  77.39   0
       389    981.3613    430.7254 307.5158350  +6.4968528     1032.066     1513.753     2015.781     79.96145     159.7959     319.5601      1.560     3.25     879.2374     56.31646     199.3719         8     0.927     0.605  86.59   0
       390    821.6544    430.3964 307.5821835  +6.4916528     1039.383     1367.496     1158.552     79.45213     159.6053     319.1469      1.369     3.29     883.6309     56.31646     152.4336        10     0.881     0.801 -89.52   0
       391    910.1290    430.0293 307.5454463  +6.4947613     679.3137     827.5093       830.09     79.96145     159.7959     319.4966      1.345     2.57     881.5081     56.31646      148.144         5     0.867     0.593  60.46   0
       392    569.0653    428.9743 307.6871471  +6.4837832     2943.487     4329.623     4461.114      79.7072     159.7324     319.4012      1.540     3.50     885.2779     56.31646     428.1764        21     1.272     0.955  66.08   0
       393    943.0439    426.2929 307.5318998  +6.4974032       4961.1     6885.621     6919.842     80.08827     159.7324     319.6236      1.472     3.26     880.4046     56.31646     741.2526        24     1.322     0.866  70.25   0
       394    616.0981    424.7176 307.6677550  +6.4871167       6732.5     9629.159     10209.51     80.08827     160.1765     319.5918      1.520     3.36     884.9363     56.31646     941.1522        28     1.397     0.923  70.70   0
       395    104.0089    424.9901 307.8804385  +6.4698014     1105.127     1511.346     1590.944     79.57977     159.6053     319.4012      1.462     3.08     894.9243     56.31646     208.4239         9     0.939     0.672  75.85   0
       396    215.7569    424.3723 307.8340471  +6.4738180     530.8965       744.95     835.2834      79.7072     159.8594     319.4012      1.430     3.83     893.0856     56.31646     85.73505         5     1.009     0.417  83.81   0
       397    965.6522    418.5208 307.5227696  +6.5013667     3605.478     4802.542     4248.267     80.08827     159.7959     319.4966      1.481     3.44     879.3676     56.31646     476.0267        17     1.188     0.807  70.38   0
       398    287.3252    432.7191 307.8040403  +6.4727792     1108.098     1638.304     1675.098     80.34132     160.0498     319.5601      1.453     5.34     889.6139     56.31646      163.652        14     1.492     0.801  83.20   0
       399    528.3381    415.8940 307.7045039  +6.4878173     7551.675     11224.81     11794.96     79.96145     159.8594     319.5601      1.566     3.34     884.8945     56.31646     1015.255        33     1.415     1.042  72.48   0
       400    744.3472    416.8446 307.6147499  +6.4946613     522.1522     424.9959     130.0121     80.08827     159.7959     319.4966      1.184     4.07     884.5436     56.31646     86.48615         6     1.100     0.431  78.44   0
       401    374.4571    416.0681 307.7684129  +6.4825808     2786.071     4126.959      4020.34     80.21489     159.7324      319.433      1.568     3.23      887.965     56.31646      393.541        22     1.261     0.932  73.23   0
       402     97.3546    415.2912 307.8835303  +6.4735810     769.9801     1101.689     1149.084     80.08827     159.7324     319.6236      1.629     5.21     894.6834     56.31646     103.0957        10     1.320     0.581  78.92   0
       403    884.8588    411.8073 307.5565545  +6.5014395     3204.743     4547.538     4972.745     79.45213     159.6688     319.2105      1.467     3.20     881.6226     56.31646     504.1093        21     1.388     0.808  75.73   0
       404    404.4194    417.5465 307.7559182  +6.4829767      918.203     1066.872     1457.647     79.57977     159.7959     319.3059      1.344     3.14     888.0438     56.31646     151.8246         9     0.994     0.752  51.18   0
       405    892.2297    406.3647 307.5536755  +6.5039327     2280.999     3185.262     3253.508      79.7072     159.5417     319.3059      1.497     3.38     881.2211     56.31646     321.1215        20     1.224     0.944  71.47   0
       406    931.5691    405.4871 307.5373642  +6.5056092     1333.039     1990.427       1900.9     80.21489     159.5417      319.433      1.474     3.38     880.0945     56.31646     235.5236        10     0.995     0.706  83.53   0
       407    111.0538    405.4056 307.8781751  +6.4781232     733.6342     1074.843     1058.627     79.57977     159.5417     319.1787      1.481     4.36     894.3905     56.31646     150.5734         8     1.271     0.672  88.39   0
       408    716.2055    402.1099 307.6269345  +6.4998022     3154.781     4226.188     4091.823     79.57977      159.478     319.2423      1.428     3.32     884.0244     56.31646     435.9127        19     1.234     0.830  60.12   0
       409     77.9902    401.2736 307.8920473  +6.4787152     1879.107     2908.876     3058.173     79.57977     159.4144     319.3695      1.617     4.10     894.8608     56.31646     258.2546        15     1.303     0.720  83.39   0
       410    427.2347    400.6278 307.7470124  +6.4907270     1056.116     1459.557     1563.129     79.57977     159.5417     319.2741      1.572     4.55     886.5283     56.31646     151.5587        14     1.349     0.731  58.61   0
       411    387.0847    400.3383 307.7636987  +6.4894984     3803.254     5553.861      5563.85     80.21489     159.9229     319.5283      1.542     3.31     886.9337     56.31646     571.3073        25     1.344     0.979  73.76   0
       412    614.8616    396.9265 307.6692041  +6.4985479     10371.84     15050.79      16213.4     80.21489     159.7959     319.5283      1.520     3.15     883.5244     56.31646     1552.154        37     1.412     1.031  75.46   0
       413    777.5341    393.5298 307.6017486  +6.5053965     17414.56     24333.58     25316.49     80.08827     159.8594     319.4966      1.510     3.24     883.0182     56.31646     2542.828        43     1.453     1.011  77.33   2
       414    781.6505    388.7686 307.6001988  +6.5074998      1445.43     2134.621     2929.124     79.96145     159.8594      319.433      1.571     3.78     882.7408     56.31646     233.1779        13     1.276     0.720  81.46   3
       415    297.1617    393.7964 307.8012692  +6.4891775     2602.893     3826.454     3906.486     79.19625     159.5417     319.2741      1.568     3.60     887.7012     56.31646     343.0415        21     1.266     0.955  70.65   0
       416    420.8662    393.5232 307.7498972  +6.4934461     652.6622     914.1409     357.6552     80.21489     159.8594     319.4648      1.624     4.16     886.2299     56.31646     93.82013         6     1.054     0.469  57.76   0
       417    806.7534    390.5701 307.5897110  +6.5075957     1375.896     1970.534     1233.904     79.57977     159.9229     319.4012      1.459     3.52     882.4112     56.31646     236.3704        11     1.146     0.624 -86.96   0
       418    380.4303    390.3749 307.7667988  +6.4933879     1733.333     2192.286     2605.097     79.57977     159.6688     319.3377      1.423     3.17     886.3446     56.31646     230.4071        14     0.998     0.872  77.62   0
       419    962.7920    388.4357 307.5249668  +6.5136911     2173.539     3072.445     3175.141     79.57977     159.6053     319.2423      1.487     3.18     878.3191     56.31646     351.5123        14     1.131     0.757  78.14   0
       420    368.9614    386.3483 307.7716983  +6.4946649     816.6201     1109.309     1474.297     79.83442     159.7959     319.4648      1.431     4.64     886.1913     56.31646     114.9821         9     1.068     0.657 -42.17   0
       421    114.9670    385.2853 307.8772304  +6.4865607     4607.508     6833.056     7041.229     80.08827     159.6053     319.4648      1.556     3.42     893.9196     56.31646     655.8217        24     1.337     0.914  72.52   0
       422    753.0572    384.4755 307.6122201  +6.5083154     2547.364     3539.716     3781.681     80.08827     159.7324      319.433      1.469     3.37     883.0045     56.31646     361.9373        21     1.315     0.852  64.16   0
       423   1016.6851    382.9882 307.5027630  +6.5177390     4185.295     6802.134     7111.933      79.7072     159.5417     318.9879      1.757     4.28     876.1813     56.31646     494.2842        31     1.551     1.059  51.73  16
       424    272.9599    382.5114 307.8117025  +6.4930223     1495.721     2280.829     2662.863     80.08827     159.7324     319.5283      1.638     4.51     888.2339     56.31646     207.1425        16     1.418     0.744  62.92   0
       425    350.8472    380.1450 307.7794315  +6.4966171     3270.705     5154.258     5485.697     80.08827     159.7959     319.5601      1.667     3.70     886.0459     56.31646     432.1133        24     1.414     0.962  74.77   0
       426    278.7514    381.7902 307.8093214  +6.4935148     567.7495     834.0974     1269.202     79.57977     159.6053     319.1787      1.327     3.77     887.9152     56.31646     94.05438         5     0.896     0.455  43.99   0
       427    706.8552    377.9322 307.6316315  +6.5094703     1551.676     2087.561      2309.15     80.08827     159.6688      319.433      1.425     3.05     883.0139     56.31646     287.4723        13     1.138     0.666  71.36   0
       428    980.5665    376.6248 307.5179797  +6.5191604     712.4142     1185.579     1234.081     79.45213     159.6053     319.2741      2.017     5.10     877.2566     56.31646     95.15094         9     0.948     0.776  79.58   0
       429    238.8027    376.0497 307.8261080  +6.4945411     795.4955     1180.517      999.887     79.45213     159.4144     319.0833      1.544     5.52     889.4322     56.31646     138.2823        11     1.442     0.596  77.82   0
       430    548.1874    370.7384 307.6977804  +6.5071239     1059.434     1504.531     1798.775     79.57977     159.6053     319.2105      1.478     3.99     882.0098     56.31646     146.1343        10     1.169     0.607  74.57   0
       431    449.9464    371.7651 307.7385522  +6.5034043      574.939     705.6259     723.6562     79.96145     159.7959     319.4966      1.207     3.90     883.9683     56.31646     92.46826         5     0.856     0.510  58.29   0
       432    470.5518    369.2095 307.7300795  +6.5051508      1446.62     2116.927     2311.424     79.57977     159.6053     319.1787      1.556     3.86     883.3025     56.31646     200.7969        14     1.215     0.777  69.42   0
       433    833.2300    367.8152 307.5794775  +6.5178748     1633.889      2293.35      2544.69      79.7072     159.5417      319.433      1.419     3.78     881.0708     56.31646     274.1592        14     1.209     0.726 -80.58   0
       434    818.8373    367.2135 307.5854763  +6.5176419     2072.157      3050.61      3530.29     79.57977     159.6053     319.2105      1.502     4.01     881.2339     56.31646      358.801        19     1.425     0.841  54.31   0
       435    715.9730    365.1648 307.6282735  +6.5150461     15520.68     22184.59     23598.85     79.57977     159.5417     319.2741      1.481     3.29     882.4667     56.31646     2388.112        39     1.447     0.998  77.88   0
       436    637.1547    361.2164 307.6611461  +6.5140366     2603.368     3631.176     4192.783     79.57977     159.6688     319.2741      1.475     3.71     881.7972     56.31646     362.1468        18     1.362     0.818  76.44   0
       437    618.1492    367.0041 307.6688458  +6.5110106     818.2733     1149.186     1190.749     79.45213     159.5417     319.0833      1.560     4.36     881.8674     56.31646     133.8898         9     1.201     0.693  64.87   0
       438    612.3810    358.2183 307.6715375  +6.5144443     5334.142     7366.541     8103.971     79.83443     159.6688      319.433      1.444     3.50     881.2778     56.31646     753.0521        19     1.236     0.875  83.92   3
       439    608.5401    355.7467 307.6732162  +6.5153359      15225.8     22848.44     24668.75     80.08827     159.7324     319.4966      1.636     3.35     881.1179     56.31646     2057.297        46     1.617     1.103  69.98   2
       440    941.2510    355.0850 307.5350338  +6.5267398     4076.402     5222.041     4907.078     80.08827     159.7324     319.5918      1.371     3.28     877.8541     56.31646     609.6226        18     1.218     0.775  73.78   0
       441    380.3773    351.0331 307.7681483  +6.5096268     28795.95     43961.09     46067.97     79.57977     159.6053     319.2741      1.621     3.44      883.985     56.31646     3622.014        59     1.556     1.170  80.72   0
       442    417.6362    352.8615 307.7526103  +6.5101233     687.3944     810.8351     659.8522     80.08827     159.7959     319.4648      1.369     4.25     883.3584     56.31646      108.754         7     0.768     0.671  68.68   0
       443    897.0120    350.6768 307.5535584  +6.5270818     1689.745     2429.147     2826.233      79.7072     159.4144     319.3377      1.471     3.47      879.058     56.31646     286.9901        14     1.259     0.710  71.21   2
       444    893.1473    346.4893 307.5553044  +6.5286813     866.4067     1536.811     1955.277     80.08827     159.6053     319.6236      1.970     6.76     878.9595     56.31646      122.073        12     1.590     0.806  82.43   2
       445    126.4058    350.5628 307.8736539  +6.5012794     2354.703     3502.009      3500.69     79.19625     159.5417     319.2423      1.565     3.34     892.9393     56.31646     332.5498        19     1.231     0.906  79.61   0
       446    910.0985    345.5314 307.5482951  +6.5296432     5451.857     7263.673     7478.497     80.08827     159.9229     319.4966      1.425     3.35     878.4851     56.31646     842.6089        22     1.262     0.842  72.97   0
       447    592.0065    346.5972 307.6803920  +6.5185588     651.5192     936.5013     1217.843     79.45213      159.478     319.3695      1.599     3.85     880.7618     56.31646     117.4847         8     1.111     0.545  68.10   0
       448     59.9127    345.8691 307.9014307  +6.5009771     1634.853     2551.376      2416.39     80.08827     160.0498     319.5283      1.773     4.02     893.7408     56.31646     219.9138        16     1.270     0.848  77.15   0
       449    237.9048    341.5298 307.8276474  +6.5087609     14105.03      20834.5     22181.18     79.96145     159.8594     319.5283      1.589     3.39     887.8043     56.31646     1971.408        42     1.542     1.040  79.07   0
       450    966.2662    343.2838 307.5250384  +6.5324470     673.4836     1070.268     1525.029     80.21489     160.0498     319.5601      1.568     4.24     876.4327     56.31646     97.84436         7     1.074     0.477  60.73   0
       451    732.3737    335.2895 307.6224655  +6.5279282     671.0352     1013.638     881.1588     80.21489     159.5417     319.3695      1.648     4.41     881.1394     56.31646     125.4469         7     1.245     0.445  65.93   0
       452    700.8321    334.5954 307.6355910  +6.5271589      711.317     844.5701     426.7106     79.45213     159.6688     319.2741      1.382     4.05     881.1394     56.31646     128.8054         8     1.096     0.769  80.44   0
       453     73.5235    335.2797 307.8961359  +6.5058070     897.4752     1340.108     1596.362     80.34132     160.0498     319.6236      1.622     4.77     893.5822     56.31646     124.5317        10     1.164     0.684  76.29   0
       454   1010.4072    335.0186 307.5069793  +6.5373326     623.4733      944.624     1156.478      79.7072      159.478     319.3377      1.528     4.28      874.282     56.31646     81.68512         5     0.823     0.634   2.29   0
       455    961.5750    334.1265 307.5272944  +6.5360707     942.8292     1535.144     1770.918      79.7072     159.6688      319.433      1.645     4.22     876.1827     56.31646     158.6375         7     0.991     0.548  66.07   0
       456    183.9288    331.7311 307.8503982  +6.5109897     829.3553       1212.5      1206.41     80.08827     159.9229     319.4648      1.568     4.40     890.1396     56.31646     132.1522        10     1.220     0.730  89.39   0
       457    138.2224    330.2138 307.8694342  +6.5100774     5337.069     7967.871     8834.104     79.83442     159.6053     319.4012      1.596     3.40     892.0741     56.31646     720.6539        30     1.415     0.991  77.66   0
       458    351.0642    331.2497 307.7809917  +6.5168089     1307.843     1945.205     1898.533     79.96145     159.7324     319.5283      1.516     4.16     884.1843     56.31646     189.0658        10     1.192     0.604  61.09   0
       459    243.1214    329.2437 307.8258958  +6.5140082     1280.018     1868.769      2074.42     79.96145     159.7959     319.5283      1.559     4.25     887.2319     56.31646     178.5251        14     1.373     0.692  77.39   0
       460    160.3877    326.1472 307.8603651  +6.5125024     2506.166     4062.094     4266.248     79.45213     159.7324     319.2105      1.748     3.82     891.1934     56.31646     346.6703        21     1.383     0.854  84.95   0
       461    824.4598    326.6408 307.5845038  +6.5345792      751.165      1115.47     1038.441     80.08827     159.7959     319.5601      1.467     4.30     879.6299     56.31646     112.1855         8     1.062     0.497  87.42   0
       462    555.9150    325.0531 307.6961095  +6.5262427     1058.692     1414.522      1622.84     80.08827     159.7324     319.6553      1.472     3.76     880.0591     56.31646     170.3436        10     1.111     0.634 -89.15   0
       463      2.2877    322.6551 307.9261512  +6.5086174     1337.322     2001.019     1962.457     79.19625     140.4619     255.9718      1.617     5.52     893.8644     56.31646     508.7942        13     1.476     0.582 -73.35  24
       464    383.7512    320.8769 307.7677644  +6.5221889     2212.249      3212.95     3013.959     79.96145     159.8594     319.4966      1.580     3.49     883.0233     56.31646      320.602        18     1.224     0.891  79.24   0
       465    271.8305    320.9487 307.8142511  +6.5183979     756.8542     1276.271     1175.775     79.83443     159.9229      319.433      1.484     4.18     886.0615     56.31646     125.6822         7     1.113     0.447  59.44   0
       466    317.4464    318.1803 307.7953970  +6.5210743      695.939      808.389     480.3394      79.7072     159.7324     319.3059      1.317     4.07     884.7599     56.31646     112.9747         7     0.990     0.617 -10.22   0
       467    590.6243    316.9960 307.6819629  +6.5307323      462.177     637.2904     751.6952      79.7072     159.5417     319.3377      1.721     3.82     879.8498     56.31646     83.75238         5     1.246     0.336  41.90   0
       468    437.5204    314.3839 307.7456487  +6.5266749     7322.724     11234.16     11818.72      79.7072     159.5417     319.3059      1.655     3.39     881.3135     56.31646     1002.818        39     1.479     1.126  76.88   0
       469     34.0472    315.0525 307.9132173  +6.5128265     3214.547     5436.777     5998.714     80.21489     159.7324     319.5283      1.815     4.00     893.6352     56.31646     464.8068        28     1.555     1.121 -63.37   0
       470    778.1875    311.7965 307.6042243  +6.5391596     13458.97     19024.32     19921.97      79.7072      159.478     319.3695      1.455     3.24     879.7868     56.31646      1996.18        38     1.434     0.958  74.06   0
       471    770.2031    313.1451 307.6074957  +6.5383358     1920.167     2663.792     3100.409     79.45213     159.6053     319.1787      1.438     3.64      879.884     56.31646     290.2424        15     1.288     0.675  83.33   0
       472    198.3612    313.3276 307.8450257  +6.5190725     446.2423     793.1769     592.7688     79.96145     159.7959     319.5601      1.598     5.78     888.7045     56.31646     68.40186         6     1.558     0.604 -73.13   0
       473    341.7083    310.1782 307.7855892  +6.5251930     1062.104     1578.895     1304.792     80.08827     159.6053     319.3377      1.582     4.72     883.9989     56.31646     140.0684        11     1.249     0.686  69.31   0
       474   1022.1490    306.9260 307.5030436  +6.5493218     3950.204     5481.524     5534.296     80.08827     147.5104     264.3972      1.455     3.39     872.0666     56.31646     577.7885        22     1.338     0.883  80.95  24
       475    953.1578    303.6620 307.5318131  +6.5483661      703.546     973.9584     872.4012     80.08827     159.7324     319.5918      1.449     3.90     875.2832     56.31646      117.869         7     1.037     0.486  69.96   0
       476    186.4599    303.1418 307.8503135  +6.5228767      857.308     1410.676      1576.89     80.08827     159.7324     319.5283      1.793     4.12     888.9659     56.31646     126.3937         7     1.006     0.482 -81.79   0
       477    903.8293    301.9101 307.5523637  +6.5474416     624.8122     736.7269     837.0568     80.21489     159.5417     319.4012      1.345     3.96     876.8672     56.31646     97.22931         6     0.752     0.595  49.80   0
       478    972.3234    320.2982 307.5232934  +6.5421382     987.3445     1485.984     1663.145      79.7072     160.0498     319.5283      1.525     4.25     875.1082     56.31646     167.6115         8     1.095     0.513  69.17   0
       479    485.7662    298.2299 307.7261525  +6.5349627     3302.814     4899.632     4600.066     79.57977     159.5417     319.2105      1.561     3.72     879.6516     56.31646     484.9631        22     1.464     0.860  77.83   0
       480    457.9776    298.8568 307.7376746  +6.5337713     2294.181     3429.863     3927.059      79.7072     159.7324     319.3059      1.602     3.39     880.2323     56.31646     309.9341        19     1.241     0.934  89.24   0
       481    914.4492    298.0970 307.5480800  +6.5493705     844.3077     1368.355     1375.374     79.96145     159.7324     319.6553      1.547     4.70     876.5245     56.31646      152.505         8     1.194     0.526  68.44   0
       482    843.5640    294.7060 307.5776406  +6.5484014     35119.82     51149.07     53675.94     80.21489     159.6688     319.5918      1.576     3.45     877.8611     56.31646     4936.831        59     1.621     1.036  83.29   0
       483    335.7860    290.2463 307.7887222  +6.5332220       820.46     938.6385      480.188     79.45213     159.6053     319.2741      1.395     4.65     883.7031     56.31646     108.8613         8     0.907     0.676  84.02   0
       484     61.4971    290.8541 307.9026349  +6.5237407      611.896     868.4714     716.7328     79.96145     159.7959     319.7188      1.581     3.75     893.3042     56.31646     92.70551         6     0.808     0.500 -88.76   0
       485    615.1385    286.9231 307.6727923  +6.5439685     2797.702     4290.375     4233.321     80.34132     159.8594     319.4966      1.592     3.54     878.9632     56.31646     381.6268        24     1.434     1.049  49.07   0
       486     23.5634    287.4662 307.9185059  +6.5238606     1091.129     1728.996     1421.128     79.96145     159.7324     319.5601      1.443     4.27     893.4883     56.31646     183.6537         8     1.169     0.460  80.02   0
       487    146.8387    285.6072 307.8673640  +6.5287813     662.3911     866.7908     549.0027      79.3243     159.5417     319.2105      1.497     4.83     890.3448     56.31646     102.3581         7     1.003     0.659  25.67   0
       488    699.9938    280.6760 307.6377530  +6.5493898     83655.82       119351     124678.1      79.7072      159.287     319.3377      1.524     3.27     878.7485     56.31646     12543.92        78     1.553     1.105  76.17   0
       489    858.3045    282.1661 307.5719384  +6.5540709     1259.434     1929.977     2029.616     80.21489     159.6688     319.5918      1.694     3.33     877.0392     56.31646     200.1508        12     1.149     0.672  63.18   0
       490     79.2298    279.9536 307.8956382  +6.5288379     1371.777     2236.733     1944.092     79.57977     159.9229     319.4012      1.772     5.31     892.9238     56.31646     188.2504        17     1.329     0.897  69.83   0
       491    562.4775    277.4236 307.6949879  +6.5461249     2930.116     4168.065     4055.953      79.7072     159.6688     319.4648      1.516     3.38     878.4789     56.31646     368.2339        21     1.289     0.868  78.70   0
       492    941.5411    277.7042 307.5375100  +6.5586942     990.7652     1345.066     1406.452     79.96145     159.7959     319.6236      1.590     5.28     874.7338     56.31646      137.236        10     1.165     0.676  72.15   0
       493     99.6840    276.1833 307.8872697  +6.5310834     6172.068     9519.381     10093.86      79.7072      159.478      319.433      1.629     3.44     892.4319     56.31646     904.8349        31     1.447     0.993  78.12   0
       494    545.7492    273.5315 307.7020680  +6.5471707     7735.318     11336.66     11768.83     79.96145     159.6688     319.4648      1.591     3.40     878.3297     56.31646     1082.076        32     1.420     0.994  81.00   0
       495    408.6628    268.7218 307.7591761  +6.5445557        26851     39999.98     41658.29     80.34132     159.8594     319.4966      1.617     3.36     880.5494     56.31646     3713.274        55     1.580     1.102  79.26   0
       496    274.6609    271.2376 307.8147547  +6.5390141     2741.272     4030.036     4164.021     80.08827     159.8594     319.4966      1.534     3.30     884.7121     56.31646     408.7806        20     1.310     0.851  74.07   0
       497    516.4408    267.3779 307.7144503  +6.5487279     1382.976     1805.079      1604.29      79.7072     159.6053     319.3059      1.409     3.96     878.1735     56.31646     202.8959        13     1.290     0.650 -86.53   0
       498    675.7232    267.4397 307.6482807  +6.5540412     638.9091      926.835     1027.192     79.96145     159.7959     319.5283      1.605     5.38     878.2655     56.31646     103.3167         6     1.042     0.785  55.53   0
       499    388.8254    266.6995 307.7674848  +6.5447243     1252.735     2002.369     2781.164     80.21489     159.5417     319.4012      1.952     3.64     881.2397     56.31646     184.2177        11     1.064     0.720  81.43   0
       500    488.0044    263.8669 307.7263812  +6.5492233     1162.919      1663.71     1752.979     79.45213      159.478     319.2741      1.450     4.19     878.1517     56.31646     186.9698        12     1.204     0.682  80.34   0
       501    803.4341    261.8768 307.5954143  +6.5606120     752.0515     1331.934     1591.439     79.96145     159.7959     319.4648      2.312     5.04     877.7537     56.31646     121.9896        10     1.514     0.475 -84.37   0
       502    497.6942    259.1539 307.7225149  +6.5514940     8821.532     13133.85     13606.21     79.96145     159.7324     319.6236      1.591     3.38     877.9046     56.31646     1307.374        36     1.464     1.033  76.97   0
       503    639.4337    260.8919 307.6635763  +6.5555287     659.5602     907.5573      692.362     80.21489     159.6688     319.5601      1.379     3.72     878.0143     56.31646     133.5044         6     0.826     0.482  80.09   0
       504    385.9394    260.9395 307.7688780  +6.5470052     737.8499     1430.748     1984.858     80.08827     159.7959     319.5283      2.355     5.19      881.175     56.31646     98.24963         9     0.986     0.771 -73.47   0
       505    766.9452    257.6922 307.6107133  +6.5611189     3139.212     4533.597     5253.119     79.96145     159.6688     319.6553      1.603     3.42     877.7532     56.31646     487.2829        21     1.263     0.953  81.12   0
       506    922.3101    257.6891 307.5461708  +6.5663145     873.6633     1147.551     840.0428     80.08827     160.3032     319.5918      1.369     4.50     874.5093     56.31646     135.8059         8     1.048     0.549  71.20   0
       507    714.7697    257.2595 307.6324026  +6.5595512     683.2818     1084.641     1236.589     79.83443     159.7959     319.4648      1.421     2.99      877.856     56.31646     133.6041         5     0.892     0.414  84.48   0
       508    324.3769    255.9758 307.7946185  +6.5469857     1101.727      1543.71     1184.426     79.57977     159.6688     319.4648      1.475     3.85     883.0496     56.31646     175.9285        13     1.228     0.752  67.60   0
       509    259.9846    250.0914 307.8215655  +6.5472498     660.7075     993.3317      669.837     79.83443     159.6053     319.4012      1.517     3.56     884.8223     56.31646     127.7173         5     1.127     0.324  66.92   0
       510    159.8128    249.6582 307.8631907  +6.5440579      1240.35     1792.449     1789.188     79.45213     159.7324     319.2105      1.462     4.53     888.6834     56.31646     212.1505        15     1.323     0.839  61.53   0
       511    387.6672    243.3681 307.7687532  +6.5543168     7763.838     11212.89     11335.92     79.96145     159.7959     319.4648      1.571     3.35     880.5858     56.31646     1037.898        33     1.475     0.977  78.56   0
       512    243.3791    243.9230 307.8286719  +6.5492376     2197.102     3370.168     3363.492      79.7072     159.5417      319.433      1.629     3.82     885.1743     56.31646     268.4285        19     1.289     0.887  87.29   0
       513    755.5288    239.2437 307.6160762  +6.5683527     57320.91     81207.95     85178.65     79.96145     159.7959     319.5283      1.528     3.22     877.0547     56.31646     8181.574        71     1.540     1.084  75.75   0
       514    741.2351    243.4299 307.6218734  +6.5661462     1069.914     1431.308     1468.717      79.7072     159.5417     319.3059      1.552     3.42     877.2744     56.31646     159.8359        10     1.029     0.653  74.47   0
       515    427.1565    238.7549 307.7525047  +6.5575474     2489.422     3795.436     3588.841     80.08827     159.7959      319.433      1.619     3.71     879.1926     56.31646     357.1129        21     1.366     0.902  67.94   0
       516    990.4211    236.2987 307.5185930  +6.5774195     1946.498     2687.633     2558.044     79.96145     159.6053     319.2741      1.416     3.10     871.7297     56.31646     281.7915        14     1.079     0.760  73.09   0
       517    573.2991    236.3067 307.6918775  +6.5634613     1319.973     2000.571     2065.531     80.08827     160.3032      319.433      1.681     5.03     876.9466     56.31646     168.9719        10     1.104     0.649  72.17   0
       518    931.2419    235.2706 307.5432128  +6.5758677       2405.6      3433.71     3878.278     79.96145     159.7959     319.5601      1.510     3.84     872.9997     56.31646     377.8964        15     1.155     0.782  66.38   0
       519    464.4149    234.9450 307.7371557  +6.5603709     1220.967     1962.532     2124.707     79.45213     159.7324     319.2105      1.663     3.36     877.5934     56.31646     188.8659        12     1.204     0.647  78.27   0
       520    413.7267    234.3504 307.7582322  +6.5589147     2065.777     2873.157     2823.814     80.08827     159.8594     319.5283      1.505     3.44     879.5609     56.31646     320.5526        17     1.276     0.793  77.57   0
       521    293.4630    233.4388 307.8082213  +6.5552499     737.9161     976.5586     1140.416     80.08827     159.7324     319.5601      1.580     4.78     883.6753     56.31646     90.21655         7     0.945     0.685  72.30   0
       522    834.9479    228.6349 307.5834396  +6.5753889     1282.862     1990.264     1880.887     79.96145     159.7959     319.4012      1.620     3.82     876.1548     56.31646     231.8229        14     1.329     0.702  71.23   0
       523    966.9559    227.2507 307.5286450  +6.5803712     567.0016     682.5515     594.0156     80.21489     159.7324     319.5283      1.132     2.54     871.9642     56.31646     108.9303         5     0.762     0.484  57.72   0
       524    444.1894    225.7962 307.7458662  +6.5634687     1182.406     1780.524     2096.947      79.7072      159.478     319.4012      1.516     4.88     878.1204     56.31646     173.0222        14     1.351     0.770  55.29   0
       525    190.2058    225.4680 307.8513837  +6.5550667      2387.91     3586.542     3866.991     79.57977     159.4144     319.3059      1.652     3.60     886.7457     56.31646     292.7817        23     1.326     1.004  59.85   0
       526    753.9800    223.7522 307.6172405  +6.5746961      6195.75     8806.932     9589.801     79.57977     159.7959     319.3059      1.510     3.34      876.489     56.31646     923.5336        24     1.308     0.901  75.50   0
       527    344.6495    223.3175 307.7872999  +6.5611486     712.7095     1182.738     1147.987     80.08827     159.7959     319.5283      1.704     4.26     881.3646     56.31646     125.1701         8     1.148     0.651  42.64   0
       528    225.7499    223.5356 307.8366840  +6.5570605     662.0543     1005.893     864.9221     79.96145     159.7324     319.5283      1.733     5.90     885.2515     56.31646     102.1021         9     1.286     0.761  60.39   0
       529     86.3984    222.8463 307.8945934  +6.5526532     1119.003     1703.383     1377.998     79.45213      159.478     319.0833      1.537     3.34     890.9799     56.31646     178.3055        12     1.093     0.760  80.35   0
       530    770.3471    221.6946 307.6105102  +6.5760932      2857.55     4062.319     4354.072     79.96145     159.6688     319.7506      1.535     3.58     876.3432     56.31646     378.0031        20     1.243     0.933  80.06   0
       531    359.0067    216.4917 307.7815662  +6.5644488      1747.92     3549.922     4159.073      79.7072      159.478     319.3059      2.394     8.14     880.8315     56.31646     202.5327        21     1.621     1.141  29.45   2
       532     73.6460    216.9422 307.9000905  +6.5546608      1401.17     2242.193     2318.512     80.08827     159.7959     319.5918      1.691     4.28     891.2971     56.31646     208.5127        16     1.341     0.772  64.52   0
       533   1008.5811    212.6924 307.5118404  +6.5877709     6445.964     9098.501     9361.186     79.96145     159.5417     319.3695      1.507     3.16     870.9268     56.31646     948.7776        29     1.366     0.940  74.02   0
       534    486.5959    212.5247 307.7286972  +6.5703707     2247.227     3081.753     3036.596      79.7072      159.287     319.4012      1.530     3.29     876.2584     56.31646     315.2695        18     1.227     0.853  79.53   0
       535    257.7965    208.0175 307.8238962  +6.5645446     594.7782      1129.66     2760.607      79.7072     159.3507     319.3377      1.537     3.66     884.4464     56.31646     95.78345         5     1.037     0.373  85.99   2
       536    249.1449    208.0724 307.8274883  +6.5642309     5925.946     9044.087     9969.246     79.96145     159.6688     319.4648      1.599     3.51     884.6714     56.31646     835.4152        28     1.409     0.969  73.90   0
       537    813.8672    207.0567 307.5929224  +6.5835918     625.1036     997.2482     740.6952     80.21489     159.7324     319.4648      1.545     4.85     875.5342     56.31646     141.6696         6     1.279     0.522  74.72   0
       538    768.6964    201.5504 307.6118733  +6.5843538     781.0818     998.4028     1363.123     79.96145     159.7324     319.6553      1.405     3.92     875.7083     56.31646     118.7895         6     0.958     0.460 -89.68   0
       539    225.8850    200.5267 307.8374056  +6.5665632     798.3176     1006.958     992.2543     80.21489     160.1132     319.5283      1.536     5.87     885.2448     56.31646     124.9531        11     1.275     0.761 -88.98   0
       540    383.4399    198.8674 307.7720111  +6.5725451     1652.215     2593.673     2682.208     79.96145     159.7324     319.5918      1.720     4.17     879.7538     56.31646     224.0817        15     1.264     0.788  80.43   0
       541    970.1993    197.8544 307.5282839  +6.5926150      1153.46     1640.949     1574.024      79.3243      159.478     319.1469      1.397     4.02     871.2923     56.31646     199.4144        12     1.282     0.717  68.10   0
       542    153.0582    194.6942 307.8678556  +6.5665196     1860.877     2888.312     3040.594     79.96145     159.7959     319.6553      1.575     3.69     887.1317     56.31646     259.4435        19     1.299     0.905  70.07   0
       543    305.8443    194.7559 307.8043845  +6.5716347     1178.114     1752.258     1529.866     80.08827     159.7959      319.433      1.577     3.52     882.9337     56.31646     174.5942        10     1.009     0.744  81.40   0
       544    562.6348    190.2294 307.6978600  +6.5821251     2433.288     3562.086     3554.965      79.7072     159.5417     319.3059      1.584     3.49     875.4321     56.31646      370.915        19     1.359     0.817  70.83   0
       545    906.2133    189.4464 307.5551492  +6.5939487      1876.67     2903.929     2873.604     79.45213     159.6053     319.2741      1.678     4.54     872.6354     56.31646     353.9409        18     1.442     0.820  50.53   0
       546    726.2874    187.9316 307.6299498  +6.5885566     5346.761     7758.673     8173.877     80.21489     160.0498     319.5283      1.530     3.47     875.4333     56.31646     733.5474        27     1.374     0.970  78.29   0
       547    667.2713    187.9039 307.6544684  +6.5865918     2346.423     3430.602     3557.795     79.96145     159.9863     319.4966      1.487     3.39     875.4924     56.31646     324.9296        15     1.175     0.751  78.43   0
       548    964.3983    187.8663 307.5310291  +6.5965446      749.298     994.8276     1336.787     79.45213     159.4144     319.2741      1.528     4.31     871.2062     56.31646     103.9626         7     0.883     0.598  63.29   0
       549    382.3767    182.8209 307.7729943  +6.5791335     623.7851     1059.047     932.4781     79.83443     159.6053     319.4648      1.832     4.87      879.528     56.31646     89.73651         7     0.953     0.725  37.29   0
       550    922.1387    179.8515 307.5488550  +6.5984418     1177.711      1806.55     1798.886     80.08827     159.7324     319.4966      1.644     4.50     871.9662     56.31646      165.306        16     1.388     0.872  64.87   0
       551    225.8325    173.1448 307.8383530  +6.5778648     2491.562     3598.259     3852.344     79.96145     159.7959      319.433      1.529     3.47     885.2365     56.31646     399.6755        19     1.352     0.835  83.06   0
       552    868.6340    172.2428 307.5713393  +6.5997948      1862.08     2526.395     2781.375     79.83443     159.7959     319.3059      1.423     3.07     872.8879     56.31646      275.131        15     1.157     0.748  76.92   0
       553    759.0456    171.4690 307.6168941  +6.5964491     1745.512     2571.287     2959.006     80.08827     159.7324     319.4966      1.536     3.70     874.7654     56.31646     255.2764        14     1.105     0.810  84.60   0
       554    248.0211    167.0650 307.8293410  +6.5811210     641.6882     1059.646     1427.018      79.7072     159.7959     319.3695      1.708     4.65     884.6362     56.31646     89.48724         6     1.066     0.577  77.16   0
       555    459.8198    163.0748 307.7414883  +6.5898854     23494.49     35149.25     36664.88      79.7072     159.6688      319.433      1.585     3.38     875.9642     56.31646     3359.835        49     1.520     1.088  77.20   0
       556    785.8123    162.1554 307.6060870  +6.6011895     13819.41      20239.4     22226.73     79.57977     159.6053     319.2105      1.582     3.21     874.3452     56.31646     2295.248        51     1.495     1.260  75.98   0
       557    465.3455    157.7268 307.7393731  +6.5922786     1437.112      1858.96     1657.948     79.96145     159.6688      319.433      1.465     4.52      875.756     56.31646     184.5462        14     1.304     0.750  80.69   0
       558    147.9851    156.5236 307.8712543  +6.5821056     2517.744     3829.701     4018.607     79.57977     159.5417     319.3377      1.664     3.91     886.1085     56.31646     352.9152        21     1.403     0.900  76.82   0
       559    724.5762    157.7812 307.6316749  +6.6009459     660.6196     1205.112     1424.602     79.83443     159.6688     319.4012      2.064     3.50     874.4828     56.31646     104.8219         5     0.756     0.469  74.67   0
       560    123.1922    155.7394 307.8815802  +6.5815943     1137.421     1822.307      1906.85     79.45213     159.6053     319.2741      1.737     5.50     887.7404     56.31646     166.1638        12     1.297     0.658  63.19   0
       561    320.9774    164.7203 307.7991124  +6.5845423     732.8201     1224.866     884.1388      79.7072      159.478     319.4648      1.643     4.85     882.2704     56.31646     102.4942        10     1.079     0.720  82.69   0
       562    174.8171    154.4874 307.8601767  +6.5838496     633.3945     1096.939      1595.97     79.83443     159.5417     319.3695      1.807     3.21     885.2355     56.31646      126.255         6     0.896     0.537  65.35   0
       563    922.2596    152.5932 307.5497199  +6.6096986     1629.147     2345.329     2272.226     79.45213     159.6688     319.2741      1.446     3.67     871.3372     56.31646      244.197        11     1.163     0.634  80.93   0
       564    583.9929    148.8125 307.6903823  +6.5999386     4891.604     7468.594      7184.85      79.7072     159.6053     319.4012      1.602     3.65     874.3676     56.31646     690.6807        28     1.415     0.983  76.54   0
       565    304.3322    149.4656 307.8065425  +6.5902799       1126.6      1820.26      2110.49     80.08827     159.7959     319.5283      2.048     5.00     883.1728     56.31646     177.1388        13     1.290     0.750  69.93   0
       566    546.4506    148.8467 307.7059779  +6.5986657     2139.506     3484.505     4021.901     80.21489     159.6688     319.5601      1.769     3.89     874.4094     56.31646     303.2227        21     1.345     1.014  73.73   0
       567    388.4082    148.0500 307.7716622  +6.5936898      1579.39     2130.952     1378.845     79.57977     159.6688     319.1787      1.517     3.54     878.8209     56.31646     197.8283        17     1.133     0.955 -74.61   0
       568    890.9263    145.4077 307.5629791  +6.6116180     11993.59     16677.08     17079.97      79.7072     159.3507     319.3695      1.487     3.16     871.4455     56.31646     1961.036        38     1.438     0.996  77.20   0
       569    944.8244    145.8662 307.5405708  +6.6132295     2733.187     3852.418     3424.791      79.7072     159.7959      319.433      1.448     3.16     870.6037     56.31646     457.2529        18     1.296     0.757  72.28   0
       570    318.7301    145.3800 307.8006991  +6.5924505     963.7369     1754.608     2306.798      79.7072     159.6688      319.433      1.871     5.94     882.6796     56.31646     143.5076        12     1.539     0.644  80.65   0
       571    565.9901    145.4357 307.6979753  +6.6007290     962.3904     1455.486     1763.691     79.57977     159.5417     319.2741      1.596     4.29     874.3357     56.31646     121.7594         8     0.941     0.677 -82.39   0
       572    210.3586    145.5728 307.8457133  +6.5887258     715.7765     1293.929     1447.919      79.7072     159.6688     319.3377      2.048     5.50     885.2402     56.31646     107.2504         9     1.061     0.805  89.43   0
       573    977.5516    143.2190 307.5270626  +6.6154152     10557.84     14702.41     14942.79     79.57977     159.8594     319.2741      1.478     3.21     869.5787     56.31646     1631.686        32     1.407     0.926  69.64   0
       574    689.0085    143.2294 307.6469412  +6.6057622     2975.782     4457.038     5257.312     79.57977     159.6053     319.2741      1.695     3.65     874.2036     56.31646     429.4165        21     1.283     0.944  71.77   0
       575     17.0937    141.9585 307.9261216  +6.5837074     26690.88     39731.08     40692.07     80.21489     159.7324     319.5918      1.543     3.44     890.9815     56.31646     3871.053        51     1.518     1.083  79.22   0
       576    263.2149    142.8737 307.8238466  +6.5916183     1181.308     1919.312     2504.349     79.57977     159.5417     319.4012      1.892     4.18     884.4388     56.31646     181.9844        14     1.264     0.854  66.94   0
       577    497.6474    138.2386 307.7266106  +6.6014076     2009.746      2952.78     2753.576     79.96145     159.7959     319.3059      1.525     3.25     874.8383     56.31646     272.7363        16     1.149     0.809  83.61   0
       578    829.5424    134.8293 307.5888374  +6.6139329     2278.279     3347.625     3429.507      79.7072     159.8594     319.4012      1.593     3.21     872.0473     56.31646     317.9147        16     1.171     0.766  74.62   0
       579    509.5804    134.0502 307.7217943  +6.6035370     2665.301     3950.995     4426.348     79.57977     159.8594     319.3377      1.606     3.55      874.642     56.31646     382.7864        21     1.350     0.873  80.45   0
       580    881.7368    133.8732 307.5671844  +6.6160725     2233.882     2825.581      3242.75     80.21489     159.7959     319.4966      1.349     3.35      871.142     56.31646          345        15     1.190     0.783  63.21   0
       581    741.1000    131.3394 307.6256993  +6.6124146     42873.03     60416.04     63079.32     79.83442     159.6688     319.6553      1.501     3.31     873.7294     56.31646     6570.381        53     1.484     1.025  74.61   0
       582    344.1809    130.7103 307.7906213  +6.5993617     6102.146     12062.56      13427.9     79.83443     159.5417     319.4012      2.104     5.99     882.0165     56.31646     673.5497        46     2.099     1.086 -85.33   0
       583    974.8167    130.2491 307.5286341  +6.6206781     3078.478     4524.559     4481.898     79.57977     159.8594     319.2423      1.566     3.19     869.1264     56.31646     488.0024        22     1.358     0.865  72.50   0
       584   1013.2585    128.7882 307.5127115  +6.6225646     1862.525     2820.951      2938.67     79.45213     159.7324     319.2105      1.650     3.66     867.8893     56.31646      265.592        16     1.313     0.781  61.56   0
       585    909.0090    128.4713 307.5560350  +6.6192139     8156.081     11241.65     11641.94     79.57977     159.3507     319.3377      1.465     3.40     870.6805     56.31646     1283.088        28     1.364     0.859  67.19   0
       586    452.4601    127.4679 307.7457468  +6.6043372     5375.469     7943.165     8345.859     80.21489     159.7324     319.4966      1.650     3.44     875.6077     56.31646      668.499        28     1.389     1.002  65.51   0
       587    226.7620    124.3510 307.8396164  +6.5980382     631.4716     828.4608      427.379     80.08827     159.7959     319.3695      1.465     4.18     885.2297     56.31646     139.5069         6     1.054     0.651  48.70   0
       588    109.8212    118.9391 307.8883802  +6.5963350     4916.214     7515.028     7626.636      79.7072     159.7324      319.433      1.570     3.38     887.6304     56.31646     748.5637        28     1.434     0.988  81.18   0
       589    280.1916    115.5027 307.8177188  +6.6034882      35552.8     52595.88     55965.11     79.83443     159.4144     319.2741      1.625     3.38     884.5583     56.31646     4716.858        60     1.555     1.151  76.69   0
       590    255.5213    116.5160 307.8279336  +6.6022401     6880.122     10300.44     10711.98     80.21489     160.1132     319.6236      1.631     3.50     884.8546     56.31646     914.4092        33     1.466     1.049  78.69   0
       591    929.2391    117.7015 307.5479916  +6.6243358        967.2     1396.546     1333.944     80.08827     159.6688     319.7188      1.447     3.41     870.2047     56.31646     154.7202         8     0.992     0.561  60.12   0
       592    606.5912    116.8228 307.6820712  +6.6139019     666.1616     874.2715      1189.18      79.7072     159.5417     319.3059      1.828     5.91     873.7831     56.31646     102.8116         9     1.529     0.644 -89.41   0
       593    709.4357    114.9456 307.6394062  +6.6181222     914.4672     1076.123      1317.29     79.96145     159.7959     319.5283      1.332     3.60     873.5641     56.31646     166.1403         9     1.138     0.549  69.39   0
       594    404.2567    111.0120 307.7663281  +6.6095117     51549.28     77978.48      81441.2     79.45213     159.7324     319.1787      1.592     3.41     877.5215     56.31646     7249.663        68     1.593     1.135  79.72   0
       595    160.2144    112.2648 307.8676712  +6.6007874     4117.933     5958.777     6268.264     79.57977     159.6688     319.4012      1.543     3.57      884.993     56.31646     570.8573        25     1.354     0.924  76.77   0
       596    743.5435    107.2766 307.6254935  +6.6224299     35673.51     49986.17     51496.98     80.08827     159.7324     319.4648      1.508     3.17     872.9768     56.31646     5171.193        53     1.492     1.033  75.05   0
       597    421.6015    111.5510 307.7591040  +6.6098717     1478.096     2256.304     2228.932     79.45213     159.4144     319.0833      1.550     3.43     876.2261     56.31646     224.0153        13     1.160     0.720  60.29   0
       598    308.2781    108.6873 307.8062807  +6.6072460     19158.07      28605.4     30645.16     80.08827     160.1132     319.6236      1.602     3.36     883.8638     56.31646     2441.715        48     1.526     1.091  76.84   0
       599    691.6385    108.9383 307.6470025  +6.6200061     1056.632     1466.705     1029.719     80.08827     159.7959     319.5283      1.408     3.37     873.5282     56.31646     196.2327        11     1.086     0.754  53.95   0
       600    315.6492    108.7181 307.8032173  +6.6074811     2348.358     3807.661     5071.602     80.08827     159.7959     319.5283      1.999     4.26     883.5578     56.31646     335.6194        23     1.531     1.027 -66.32   2
       601    791.7782    107.8506 307.6054340  +6.6238070     1261.467     1701.671     1950.564     79.57977     159.8594     319.3695      1.419     3.21     871.2755     56.31646     210.9769        14     1.139     0.782  76.97   0
       602     60.3034    104.4830 307.9094407  +6.6006338     9580.829     14232.19     14534.53     79.96145     160.1765     319.5601      1.612     3.42     889.4282     56.31646     1340.802        34     1.479     0.991  77.11   0
       603    567.3743    104.0028 307.6987961  +6.6178794     515.2778     868.8484     1210.167     79.57977      159.478     319.3059      2.021     3.09     873.8005     56.31646     86.17944         5     0.862     0.484 -88.62   0
       604     94.1955    102.7127 307.8954208  +6.6025067     1403.976     2220.613     1919.956     79.57977      159.478     319.1787      1.698     3.87     887.9376     56.31646     240.7715        14     1.285     0.869  67.26   0
       605   1001.9384    101.6977 307.5183236  +6.6333702     1298.113     1691.459      2151.18     79.83442     159.8594     319.5601      1.421     3.34     866.9406     56.31646     222.7982        12     1.101     0.681  83.62   0
       606    969.5854    100.9850 307.5317896  +6.6325842     552.3917     866.6721     698.0791     79.83442      159.478      319.433      1.439     3.91     868.1223     56.31646     84.94312         5     0.898     0.489  85.21   0
       607    728.3022     95.6229 307.6322178  +6.6267305     556.8434     815.8483     530.6013     80.08827     159.5417     319.3377      1.248     3.94     873.0106     56.31646     107.2044         6     0.975     0.455 -86.09   0
       608   1003.1107     88.0325 307.5182949  +6.6390506     2389.636     3749.194     4608.297     80.21489     159.6053     319.4966      1.800     3.20     866.2977     56.31646     361.7403        20     1.344     0.878  66.38   2
       609    577.4556     91.7603 307.6950202  +6.6232712     941.7081     1263.626     1849.643     80.08827     159.8594     319.4648      1.576     5.33      873.579     56.31646     143.7308        10     1.254     0.638  63.09   0
       610    586.2057     85.8647 307.6915835  +6.6259984     1126.853     1752.517      1953.92     79.45213     159.5417     319.2741      1.532     4.39     873.4468     56.31646     180.1066        12     1.314     0.666 -86.25   0
       611    594.2896     83.7041 307.6882976  +6.6271613     2092.601     2846.876     3217.257     80.08827     160.1765     319.4966      1.450     3.96     873.3714     56.31646     275.0787        16     1.357     0.705  80.08   0
       612    338.5782     83.7297 307.7945355  +6.6185672     1064.461     1619.328     1800.654      79.7072     159.6688     319.4966      1.751     4.20     882.9726     56.31646     174.9576         9     1.192     0.484  84.71   0
       613    279.1113     81.7719 307.8193073  +6.6173760     31917.98     47618.16     50286.06     80.21489     159.5417     319.4012      1.599     3.39     885.0936     56.31646     4405.647        57     1.550     1.118  76.79   0
       614     24.3434     80.3426 307.9251971  +6.6093864     4820.429     7221.555     7496.666     80.21489     159.8594     319.5283      1.659     3.53     891.3593     56.31646     626.1204        30     1.685     0.961  89.88   0
       615    842.3916     83.8724 307.5852112  +6.6353984     506.0903     627.3654     823.3731     79.57977     159.3507     319.3377      1.267     4.25     869.7274     56.31646     75.74463         6     0.777     0.663  40.48   0
       616    710.7889     78.3989 307.6400737  +6.6332545     8599.547     12251.35     13325.89      79.7072      159.478     319.3059      1.541     3.19      872.557     56.31646     1357.693        33     1.405     0.967  68.98   0
       617    188.1901     79.4387 307.8571593  +6.6152798     932.2895     1166.885     933.0651     79.45213     159.6053     319.2105      1.445     4.67     885.0096     56.31646      135.826         9     1.193     0.553  67.39   0
       618   1002.9966     79.1664 307.5186398  +6.6427069     448.9117     455.7594     851.7951      79.3243     159.6053     319.2423      1.188     3.83      865.934     56.31646     79.10773         5     0.827     0.509 -61.02   0
       619    121.5781     75.4635 307.8849674  +6.6146776     4997.249     7554.599     8294.868      79.7072     159.7959     319.3695      1.656     3.46     885.8239     56.31646     651.6416        32     1.572     0.983  76.81   0
       620    264.8434     76.6825 307.8254070  +6.6189970      943.027     1180.381     1166.265     80.08827     159.7959     319.4648      1.396     3.55     885.2185     56.31646     148.5779         9     0.922     0.673 -72.49   0
       621    583.5099     73.5350 307.6931188  +6.6309978     835.4442     953.6363     1165.485     79.96145     159.9863     319.5283      1.303     4.37     873.3154     56.31646     118.5068         8     1.087     0.499  88.26   0
       622    460.6446     72.5944 307.7441975  +6.6272642     1290.844     1891.895     2075.365     79.45213      159.478     319.1469      1.736     4.84      874.789     56.31646     177.2288        15     1.244     0.837  68.24   0
       623    392.2157     71.5921 307.7726611  +6.6253800     4192.611     6817.396     7394.936      79.7072     159.5417     319.3377      1.742     3.83     878.6223     56.31646     538.6746        31     1.582     0.999  74.43   0
       624    649.2289     72.8243 307.6658381  +6.6334939     950.7608      1187.65     770.4839     79.57977     159.6688     319.3059      1.464     4.25     873.0718     56.31646     148.0213         9     1.005     0.717 -66.49   0
       625    356.7530     70.4454 307.7874332  +6.6246618      3290.19     4964.586     5230.574     80.08827     159.6688     319.5283      1.665     3.53     882.0128     56.31646     451.6396        23     1.328     0.958  76.91   0
       626    568.9760     70.2947 307.6992665  +6.6318481     737.9394     923.4061     348.2958     80.21489     159.5417     319.3695      1.572     4.16     873.3563     56.31646     100.9862         7     1.199     0.413 -57.22   0
       627    111.0690     70.2621 307.8895094  +6.6164707     1860.673     2570.173      2479.98     80.08827     159.7959     319.5283      1.484     3.58     885.9382     56.31646     281.8024        14     1.119     0.797  81.44   0
       628    672.8176     68.1636 307.6561944  +6.6362081      887.545     1099.257     861.6109     79.57977     159.6053     319.2741      1.428     4.34      872.941     56.31646     142.5947        10     1.066     0.662  81.87   0
       629   1003.4576     64.6134 307.5189365  +6.6487300     1633.534     2333.156     2226.323     79.45213     159.6688     319.2105      1.464     3.64     865.3682     56.31646     265.2296        15     1.323     0.693  70.91   0
       630    208.5296     59.3022 307.8493903  +6.6242767     5886.598     8623.165     8630.458     79.96145     159.9863     319.5283      1.608     3.41     885.2962     56.31646     792.0741        24     1.355     0.943  77.97   0
       631     91.1926     59.1157 307.8981442  +6.6204021     2256.558     3590.439     4104.309      79.7072      159.478     319.3377      1.671     3.94     886.2444     56.31646     313.5506        19     1.369     0.857  73.92   0
       632    670.2758     58.1755 307.6575867  +6.6402462     6486.318     9301.303     9336.303      79.7072     159.6688     319.4648      1.483     3.27     872.7857     56.31646     914.4005        27     1.362     0.919  72.96   0
       633    818.4843     58.0933 307.5960108  +6.6452409     1192.966     1517.272     1746.188     79.83442     160.2399     319.6236      1.347     3.28     869.6693     56.31646     166.5769        12     1.076     0.762  76.20   0
       634    622.4691     55.4066 307.6775428  +6.6397874     10040.51     14388.63     15889.35     79.57977     159.3507     319.3377      1.568     3.33      872.906     56.31646     1425.049        39     1.444     1.025  75.70   3
       635    626.0255     46.9534 307.6763499  +6.6433962     56438.54      81561.4     85532.84      79.7072     159.8594     319.3695      1.505     3.36     872.7913     56.31646     8610.452        71     1.549     1.103  76.22   2
       636    257.4369     55.8756 307.8291873  +6.6273369     941.8318      1525.14     1992.374     79.96145     159.8594     319.5283      1.634     3.32     885.4678     56.31646     132.0503         9     0.888     0.695  30.75   0
       637    560.5196     54.4405 307.7033142  +6.6381093     618.6763     789.6327     865.5984     80.08827     159.7959      319.433      1.560     3.74     873.1982     56.31646      93.8147         6     1.006     0.400  71.06   0
       638     21.1950     53.9494 307.9273992  +6.6201752     1005.544      1681.65     1449.452     79.45213     159.6053     319.1151      1.672     5.65     892.1631     56.31646      144.892        14     1.357     1.023 -47.96   0
       639    349.7452     50.9751 307.7910021  +6.6324637     3647.743     6053.106     6192.339      79.7072     159.8594     319.3059      1.747     3.92     882.5437     56.31646     497.3541        28     1.532     1.067 -76.11   0
       640    531.4561     50.2941 307.7155292  +6.6388462     1751.138     2560.225     2481.443     79.96145     159.7959     319.6871      1.603     4.28      873.395     56.31646     230.2536        18     1.397     0.835  75.71   0
       641    995.8312     49.6588 307.5226071  +6.6546490     663.1702     891.7924      530.837     79.83443     159.7959      319.433      1.393     4.67     864.9724     56.31646      168.841         8     1.059     0.584  74.45   0
       642    305.1910     40.5263 307.8098659  +6.6352792     3767.705     5695.839     6696.095      79.7072     159.3507     319.3377      1.690     3.56     884.7955     56.31646      502.135        26     1.357     1.023  68.44   0
       643    500.4849     37.9425 307.7288135  +6.6429059       623.82     1040.392     972.5202     80.08827     159.7959     319.6236      1.691     4.31     873.6512     56.31646     98.18054         5     0.770     0.688 -14.78   0
       644    704.9827     35.1255 307.6439422  +6.6509239     990.6742     1285.656     1333.426     79.57977     159.5417     319.4012      1.497     4.30     871.3749     56.31646     175.0732        10     1.247     0.537  66.66   0
       645    676.2933     34.2657 307.6558914  +6.6503180     1510.138     2007.641     2107.955     80.08827     159.9863     319.4966      1.436     3.44     872.2827     56.31646     214.4276        10     1.031     0.654  72.07   0
       646    752.9734   1022.0481 307.5908326  +6.2451078     643.2023     589.6735     954.8212      79.7072     148.4705     265.6991      1.274     3.76     899.6852     56.31646     109.4166         5     0.711     0.572  89.59  16
       647    690.3551     30.8887 307.6501625  +6.6521830     3335.756     4605.902     4946.843     80.08827     159.6688     319.5283      1.457     3.12     871.7599     56.31646     438.0878        19     1.170     0.883  75.30   0
       648    190.4299   1021.0468 307.8244073  +6.2266545     1104.174     1757.274     2080.478      79.7072      157.364     279.5113      1.755     4.92     905.0734     56.31646     170.9807        11     1.316     0.595  72.47  16
       649    826.8945   1020.5973 307.5601916  +6.2481783     1007.712     1741.135     2017.515      79.7072      159.478     285.2617      1.760     4.13     899.7428     56.31646      133.168        11     1.055     0.703  76.08  16
       650    582.3270   1016.8127 307.6618548  +6.2415568     795.3106     1011.974     480.9787     79.57977      159.478      318.574      1.437     4.65     904.9698     56.31646     120.4337         7     0.999     0.621  81.85  16
       651    284.1665   1015.8390 307.7856694  +6.2319552     2440.668     3505.766     4124.161     79.83442     159.6053     319.2741      1.572     3.25     904.3453     56.31646      375.373        17     1.145     0.864  73.18   0
       652    648.6446   1013.6609 307.6344282  +6.2450790     993.1927     1558.544     1339.186     79.96145     159.7959     319.6236      1.714     4.49     902.4975     56.31646     137.0525        12     1.194     0.796  87.02   0
       653    122.2329   1012.3221 307.8530129  +6.2279619     499.4344     721.6027     276.2768     79.96145     159.7959     319.4648      1.375     3.83     904.3096     56.31646      85.3877         5     1.016     0.415 -84.98   0
       654    601.9271   1009.8881 307.6539505  +6.2450719     2185.279     3130.686     2899.939     80.08827     160.0498     319.5283      1.572     3.87     904.5227     56.31646     283.3726        18     1.363     0.834  73.79   0
       655    157.9346   1006.6110 307.8383849  +6.2315207     17529.12     26125.19     27323.85     79.57977     159.6053     319.3377      1.584     3.56     904.3516     56.31646     2479.529        46     1.505     1.081  79.63   0
       656    901.7025   1009.2079 307.5295154  +6.2553795     703.4146     734.2203     659.7037     79.83443     159.4144     319.2741      1.134     3.30     896.3534     56.31646     129.9863         5     0.815     0.509 -31.26   3
       657    901.2736   1006.7596 307.5297755  +6.2563759      590.859     836.4894     380.8787     79.96145     159.8594     319.5283      1.232     3.91     896.3703     56.31646     96.35742         5     0.838     0.522 -35.40   3
       658    831.5627   1005.0578 307.5587749  +6.2547494      3025.96      4741.42     4822.405     80.08827     159.8594     319.4966      1.601     3.69     899.1092     56.31646     392.2638        24     1.417     0.978  75.63   0
       659    472.2704   1005.4450 307.7079284  +6.2425604     4445.794      6125.44     6688.604     80.08827     159.7959     319.4966      1.526     3.47     904.7009     56.31646     623.1291        25     1.285     0.948  78.03   0
       660    752.2526   1003.5089 307.5917545  +6.2527371     1450.311     2223.531     2026.044     79.96145     159.6053     319.6553      1.501     4.66     899.4105     56.31646     210.5514        16     1.398     0.763  70.26   0
       661    814.6945   1002.8380 307.5658527  +6.2551020     1157.048      1702.21     1588.928     80.21489     159.6688     319.6236      1.560     4.96      898.889     56.31646     163.6334        12     1.265     0.741  83.90   0
       662    584.8112     17.8056 307.6944558  +6.6540471       769.71     954.9243     908.6295      79.7072     159.6053     319.4012      1.254     4.92     872.6375     56.31646     140.4795         9     1.235     0.555  83.53   0
       663    575.6301   1000.3356 307.6651894  +6.2481344     3163.208     4645.995     4260.691     79.83443     159.8594      319.433      1.570     3.63     904.2917     56.31646     400.3428        24     1.417     0.949  74.10   0
       664    493.4619    994.5966 307.6994958  +6.2477494     649.9104     1045.023     1250.476     79.45213     159.6053     319.2105      1.769     4.17     904.4395     56.31646     105.6642         6     1.086     0.457 -78.34   0
       665    280.6802    990.4495 307.7879734  +6.2423191     1771.003     2712.629     2958.595     80.08827     159.8594     319.4966      1.648     4.13     904.2827     56.31646     247.4548        18     1.299     0.917  75.60   0
       666    704.5216    988.4133 307.6120783  +6.2573720      4447.44      7080.09     7643.844      79.7072     159.5417     319.3059      1.730     3.62     899.9861     56.31646     535.2505        30     1.459     1.021  79.75   0
       667      5.5097    987.2507 307.9023162  +6.2343812     12636.85     19353.08     19994.38     80.08827     159.6053      298.237      1.667     3.59     904.0182     56.31646     1631.967        44     1.554     1.111  79.82  16
       668    614.3619    986.8356 307.6495632  +6.2550050     1936.238       2726.8     2742.483     79.83442     159.6688     319.3059      1.409     3.10     903.1857     56.31646     282.1429        16     1.163     0.774  73.48   0
