#   1 NUMBER                 Running object number                                     
#   2 X_IMAGE                Object position along x                                    [pixel]
#   3 Y_IMAGE                Object position along y                                    [pixel]
#   4 ALPHA_J2000            Right ascension of barycenter (J2000)                      [deg]
#   5 DELTA_J2000            Declination of barycenter (J2000)                          [deg]
#   6 FLUX_APER              Flux vector within fixed circular aperture(s)              [count]
#   9 FLUXERR_APER           RMS error vector for aperture flux(es)                     [count]
#  12 FLUX_RADIUS            Fraction-of-light radii                                    [pixel]
#  13 FWHM_IMAGE             FWHM assuming a gaussian core                              [pixel]
#  14 BACKGROUND             Background at centroid position                            [count]
#  15 THRESHOLD              Detection threshold above background                       [count]
#  16 FLUX_MAX               Peak flux above background                                 [count]
#  17 ISOAREA_IMAGE          Isophotal area above Analysis threshold                    [pixel**2]
#  18 A_IMAGE                Profile RMS along major axis                               [pixel]
#  19 B_IMAGE                Profile RMS along minor axis                               [pixel]
#  20 THETA_IMAGE            Position angle (CCW/x)                                     [deg]
#  21 FLAGS                  Extraction flags                                          
         1      1.5220     50.5781 307.9374316  +6.6540461     1267.427     1462.383     1537.412     69.58546     125.7327     236.4821      1.100     3.29     831.7847       54.685     259.9806        10     1.125     0.564 -66.57  24
         2    627.4016     19.9843 307.6784048  +6.6875364     4586.352     5692.669     5423.301     77.39812     154.7962     310.0249      1.191     2.25     821.4271       54.685     892.8813        19     1.084     0.735 -65.28   0
         3    427.5036     16.3769 307.7615858  +6.6823786     7804.719     9643.971     9933.419     77.76815     154.9198     310.0866      1.199     2.48     826.5673       54.685     1454.775        25     1.152     0.855 -66.42   0
         4     28.4469     16.1261 307.9274012  +6.6691706     10512.72     13738.32     13987.75       77.645     155.2284     310.2409      1.333     2.64     826.8579       54.685     1751.298        33     1.261     0.943 -57.26   0
         5    503.1425     13.4231 307.7302556  +6.6861151     1108.447     1197.821     1596.036     77.39812     155.1667     310.0558      1.102     2.58     821.5051       54.685     210.3702         9     0.986     0.546 -61.93   0
         6    324.0641     11.3625 307.8047334  +6.6810038     16081.82     20486.72     21460.18       77.645      155.105     310.3026      1.285     2.43     829.9515       54.685     3128.563        35     1.214     0.943 -54.12   0
         7    418.9684     12.1465 307.7652737  +6.6838411     1003.585     1212.828     1535.586       77.645     155.2284     310.1483      1.182     2.78     827.5182       54.685     197.9181         8     0.949     0.568 -81.57   0
         8     97.5819     11.7075 307.8988247  +6.6733051      3120.22     3961.703      4359.06       77.645     154.9198     310.1175      1.273     2.42     828.7673       54.685     514.5381        17     1.156     0.736 -57.09   0
         9    279.8160     11.8820 307.8231013  +6.6793144     457.3788     776.6794     777.8298     77.39812      154.858     310.1175      1.682     4.26     829.8227       54.685     77.97064         6     1.246     0.415 -28.81   0
        10     88.8187     10.6773 307.9025003  +6.6734377     1822.177     2402.295     2593.445     77.27438     154.9198     310.2101      1.285     2.96     828.4124       54.685     361.5304        12     1.152     0.620 -58.38   0
        11    792.7595      9.7512 307.6100355  +6.6972498     1139.474     1400.867     1506.979       77.645     155.1667     310.1792      1.186     2.65     820.2083       54.685     199.9014         9     0.835     0.665 -61.28   0
        12    458.5264      9.7294 307.7489176  +6.6861558      645.527     772.4719     835.9739     78.01386       155.29     310.2409      1.155     3.42     823.5533       54.685     131.5431         5     0.753     0.449 -68.73   0
        13    390.2894      9.2300 307.7772876  +6.6840904     2804.018     3341.687     3135.015     77.89111     154.9198     310.2101      1.145     2.16     828.7543       54.685      536.004        15     1.068     0.674 -48.72   0
        14    651.0552      4.6701 307.6690869  +6.6946452     13479.57     17010.27     17621.28     77.76815      155.105     280.2946      1.257     2.32     821.0539       54.685     2833.501        29     1.206     0.833 -58.17  16
        15    985.4729      5.4429 307.5300996  +6.7054127     909.1414     1174.812     1384.636       77.645     155.2284     288.9356      1.464     5.26     818.4371       54.685     131.6088        11     1.177     0.723 -73.97  16
        16     69.1568      5.9251 307.9108290  +6.6747428     729.9523     1098.077     1866.403       77.645     155.2284     293.6661      1.416     3.33       827.27       54.685     133.3983         6     0.907     0.452 -56.51  16
        17    815.7183      3.7363 307.6006957  +6.7004945     1984.301     2974.844      3425.38     77.89111     151.4212     268.6498      1.575     3.20     820.1155       54.685     338.4294        14     1.156     0.692 -66.54  24
        18    528.8061      4.4382 307.7198920  +6.6906783     1695.514     2180.362     2330.472     76.90197     154.9198      277.274      1.238     2.43     821.5021       54.685     352.0168        11     0.951     0.652 -68.83  16
        19    251.1146      1.9467 307.8353594  +6.6824595     7808.273     9299.696     9521.827     74.50017     132.1885     243.2641      1.230     2.48     829.4666       54.685     1603.535        21     1.200     0.794 -20.84  24
        20    886.1458      1.9725 307.5714893  +6.7035568     1691.081     2036.759     2248.092     74.50017     132.4055        243.5      1.233     2.34     820.6262       54.685     362.5972        10     0.877     0.672 -41.20  24
        21    773.6255      1.7136 307.6182540  +6.6999339      534.528     746.2062     1321.572     72.15105     128.5923     239.3779      1.265     3.75      819.922       54.685      108.351         5     0.921     0.438  43.70  24
        22    642.2241      1.3156 307.6728684  +6.6957369     4366.118     4729.162      5259.59     67.20695     122.6506     233.1403      0.907     2.05     820.9543       54.685     1323.177        11     0.922     0.518  -7.36  24
        23    427.6882      1.9466 307.7619914  +6.6883428     703.4328     846.6829      910.531     74.50016     132.1161     243.2247      1.140     2.55     826.7844       54.685     139.9395         5     0.846     0.462  87.40  24
        24    412.1953      1.3367 307.7684493  +6.6880788     4692.959     5020.747     5167.524     66.92158     122.8844     233.3455      0.896     1.85     828.1436       54.685     1505.815        11     0.872     0.556  -2.84  24
        25    671.8310      1.1234 307.6605723  +6.6967995     1381.492      1651.31     1845.968     64.59315     120.0482     229.9581      0.823     1.92     820.9543       54.685     525.9641         7     0.905     0.327  -2.60  24
        26    813.8439    982.5549 307.5689103  +6.2962734     2222.667         3401     4060.728     77.76815     155.1667     310.2101      1.827     3.69     851.0688       54.685      295.787        22     1.219     1.110 -49.31   0
        27    956.5467   1023.7712 307.5082908  +6.2839798     994.5632     1107.837     877.9803     66.20274     121.9463     231.6993      0.949     2.24     849.5702       54.685     301.0331         7     0.900     0.401  -8.98  24
        28    731.6954   1023.1205 307.6016691  +6.2768005     855.8336      1046.31     567.6581     73.72544     131.3898     242.3576      1.278     3.58     855.2101       54.685     130.6305         7     0.758     0.640 -73.89  24
        29    715.9171   1023.5232 307.6082067  +6.2761110      1648.69     1982.209     1487.592      69.4478     125.6566     235.9149      1.167     3.11     855.3168       54.685     363.0957        11     1.012     0.691  -5.14  24
        30    362.4202   1022.2955 307.7550124  +6.2648734      2088.97     2874.552     2803.957       77.645     141.3541     254.3411      1.491     3.20     855.1664       54.685     323.6497        19     1.180     0.937 -29.12  24
        31    548.2789    980.3554 307.6792462  +6.2883705     1020.226     1443.078     1659.541     77.76815     155.1667     310.2409      1.599     5.60     855.0812       54.685     146.5842        11     1.239     0.746 -50.87   0
        32    231.4947    979.8878 307.8107863  +6.2780230     1636.816     2356.739     1921.885     77.76815     155.5363     310.3026      1.521     3.53     852.9569       54.685     238.4681        16     1.212     0.822 -46.34   0
        33    195.7045    979.8060 307.8256482  +6.2768638      864.054      1275.17     1629.911     77.52166      154.858     310.0558      1.615     4.16     851.6968       54.685     157.7881         9     1.081     0.765 -41.07   0
        34    950.1621    975.5652 307.5125419  +6.3036733     6427.291     10895.89     11483.59     77.52166     155.0433     310.0249      1.854     3.92     849.2175       54.685      721.726        43     1.565     1.323 -68.41   0
        35     56.4868    977.9819 307.8835083  +6.2729727     2884.434     4313.455     4172.028     77.52166     154.9198     310.1175      1.603     3.56     848.6031       54.685     391.7704        21     1.231     1.001 -61.50   0
        36    206.2976    972.3846 307.8214984  +6.2802812     559.9136     714.4994     685.3792     77.76815     154.9198     310.0249      1.209     3.88      851.802       54.685     99.45245         6     0.883     0.488 -41.96   0
        37    923.8146    967.4960 307.5237496  +6.3061332      1924.86     3210.704     3587.882     77.52166     154.9198     310.0249      1.896     4.93     849.5211       54.685      233.142        23     1.444     1.101 -54.69   0
        38    632.2362    970.0391 307.6447310  +6.2954183     698.7956      942.305     845.9225     77.52166     155.0433     310.0558      1.475     4.85     854.3024       54.685     94.03882         8     0.930     0.810 -28.11   0
        39    783.4962    963.7720 307.5821354  +6.3030232     1400.275     2120.616     2441.861     77.89111     154.9198     310.2101      1.619     4.84     851.7025       54.685     195.8593        19     1.402     1.009 -84.43   0
        40    256.8782    963.7424 307.8007873  +6.2855351     4893.567     6884.507     7389.351     77.76815      155.105     310.2101      1.484     3.07     852.5461       54.685     691.7396        24     1.279     0.926 -56.66   0
        41    644.6936    963.3032 307.6397829  +6.2986130     4953.524     6834.885     6829.941     77.76815     155.7208     310.1483      1.493     2.92     853.9418       54.685     712.5106        28     1.317     0.987 -51.41   0
        42    467.0068    961.6501 307.7136138  +6.2933928     1183.305     1503.589     1515.148     77.27438     154.9198     309.9014      1.374     2.88     854.5682       54.685     218.3983        10     0.927     0.712 -61.28   0
        43     25.6927    961.1270 307.8968577  +6.2789036     2268.997     3116.982     3332.394       77.645       155.29     310.2717      1.480     3.06     847.6525       54.685     338.2507        18     1.044     1.013 -61.38   0
        44    876.3665    959.7781 307.5437071  +6.3077491     999.0323     1582.415     1751.521     77.27438     154.9816     310.0249      1.658     4.71     850.1591       54.685     134.4006        13     1.109     0.946 -88.35   0
        45    292.6026    956.9481 307.7861821  +6.2895305     985.0661     1406.877     1237.264     77.15044      154.858     309.8396      1.491     4.62     852.7508       54.685     125.8328        14     1.085     1.041  59.05   0
        46    948.0580    956.5488 307.5140468  +6.3114557     775.6989     1157.162     1065.132     77.76815     155.1667     310.2409      1.583     5.30     849.0161       54.685     124.6606         9     1.014     0.781 -13.62   0
        47    569.3633    955.7966 307.6713105  +6.2992113     1696.158     2352.227     2036.189     76.90197     155.0433     310.0249      1.371     3.33     854.6058       54.685     242.7946        13     1.044     0.862 -77.36   0
        48   1000.2505    955.0860 307.4924240  +6.3137864     727.7582     1519.868     1611.952     77.76815     155.0433     310.3026      2.324     4.56     848.3351       54.685     114.1885         8     1.408     0.420 -70.08   0
        49    608.6040    952.2284 307.6551364  +6.3019878     1365.827     1662.635     1897.819     77.27438     154.9816     310.0866      1.288     2.67     854.0633       54.685     268.3013        13     1.009     0.801 -37.19   0
        50     57.9874    953.1071 307.8837185  +6.2832932     913.5193     1260.766     1925.741     77.52166     154.9198     310.0558      1.527     4.90     847.9056       54.685     132.1099         9     0.888     0.767 -37.45   0
        51     53.6296    951.7023 307.8855748  +6.2837277     608.4863     750.0813     1432.055     77.89111     154.9198     310.2717      1.168     2.73     847.8066       54.685     113.8564         5     0.700     0.471  78.19   0
        52    288.4221    950.2043 307.7881432  +6.2921757     1707.325     2315.407     2202.601     77.39812     154.9198     310.0249      1.439     2.96     852.4819       54.685     263.8981        15     0.995     0.929 -38.02   0
        53    556.0157    948.0621 307.6771102  +6.3019615     666.5577     844.8372     336.0448     77.27438      155.105     310.0558      1.381     5.65     854.6439       54.685     129.8561         7     1.121     0.803  19.69   0
        54    755.5277    945.8520 307.5943443  +6.3094954     858.9174     1415.454     1644.646       77.645     155.1667     310.2717      1.768     3.80     852.2464       54.685     133.9283         9     0.971     0.785 -57.33   0
        55    892.8052    942.4420 307.5374574  +6.3154517     6966.965     10884.62     11220.47     77.15044      154.858     309.9632      1.675     3.50     849.6218       54.685     851.5903        34     1.421     1.152 -47.50   0
        56    130.9473    943.9988 307.8537322  +6.2894887     521.7961     831.9357     676.9244     77.15044     154.7962     309.8087      1.671     3.71     849.0338       54.685     82.67474         5     0.644     0.615  -0.10   0
        57    428.7498    939.8897 307.7302241  +6.3011054     2468.922      3229.02     3519.508     77.76815     154.9816     310.3643      1.410     2.94      853.158       54.685     378.7743        15     1.098     0.792 -58.78   0
        58    330.3630    938.2687 307.7711284  +6.2985006     10786.05     14565.36      15265.1       77.645     155.1667     310.3334      1.440     2.79     852.4376       54.685     1616.078        31     1.295     0.967 -48.62   0
        59    597.7679    939.2593 307.6600677  +6.3069829     591.6183     888.6281     761.2556     77.52166     155.2284     310.2101      1.625     3.90     853.8703       54.685     80.32678         5     0.954     0.457 -45.57   0
        60    250.4167    937.2471 307.8043558  +6.2962596     8049.168     11085.45     11235.92     77.27438      155.105      309.994      1.459     2.87     851.3355       54.685     1217.493        28     1.283     0.962 -48.87   0
        61    168.7785    935.3622 307.8383142  +6.2943164     585.4988     729.2642     395.3789     77.39812     154.9198     310.0249      1.293     3.52     849.5811       54.685     105.2357         5     0.804     0.445 -15.73   0
        62    578.4666    931.3688 307.6683448  +6.3095999     1259.472     1494.903     1376.452     77.52166     155.1667     310.1792      1.249     2.84     854.0312       54.685      226.237        11     0.910     0.812 -33.05   0
        63    762.8030    931.1174 307.5918136  +6.3158206     757.6831     1044.294     1125.392     77.15044     154.7962     309.9323      1.688     4.40     851.7252       54.685     133.5628        10     1.015     0.734 -26.75   0
        64    908.6569    927.5998 307.5313684  +6.3221050     1129.509     1562.199     1509.852     77.02631     154.7344     309.9323      1.698     4.81     849.1221       54.685     158.2952        12     1.196     0.749 -43.98   0
        65    141.2142    927.5298 307.8500207  +6.2966310     622.1516     985.1221     387.3419     77.27438      155.105     310.1483      1.779     4.48      848.921       54.685     94.90454         6     0.938     0.607 -70.48   0
        66    864.7349    926.9163 307.5496287  +6.3209329     591.8914     1208.312     1191.883     77.89111     155.4132     310.3026      2.175     4.25     849.9109       54.685     95.32086         6     1.251     0.411  35.42   0
        67    568.5690    921.3604 307.6727879  +6.3134037      858.791     985.7331     451.9329     77.39812     154.9816     310.0866      1.483     5.13     853.9518       54.685     128.5203         8     0.880     0.845 -85.76   0
        68    744.8917    920.4205 307.5996066  +6.3196435     1942.334     2773.427     2853.785       77.645     154.9816     310.0866      1.525     3.27     852.0144       54.685     274.5895        16     1.035     1.001 -43.53   0
        69    976.3380    916.3226 307.5036396  +6.3290012     1346.501     1828.796      3121.23     78.01386     155.2284     310.2409      1.745     5.78     847.9438       54.685     174.3811        14     1.194     0.918 -10.19   0
        70    620.5657    916.9119 307.6513462  +6.3169672     737.6292     819.9327     792.9315     77.76815      155.105     310.2409      1.247     4.39     853.0862       54.685     108.7792         7     0.899     0.609   9.13   0
        71    609.1248    917.2014 307.6560870  +6.3164678     960.8365     1259.162     838.2239     77.15044     154.6107     310.1175      1.343     4.18      853.228       54.685     140.2184         8     0.956     0.646 -27.15   0
        72    529.9387    916.4695 307.6889909  +6.3141397     1335.515     1549.352     1264.186     77.89111     155.1667     310.2717      1.281     2.85     854.1069       54.685     201.7761        11     0.951     0.726 -74.09   0
        73    663.4371    913.9824 307.6336426  +6.3195999     2804.259     3876.012     4379.947     77.39812     155.0433      309.994      1.456     3.10     852.5686       54.685     425.2708        20     1.245     0.925 -60.37   0
        74     60.1679    910.3232 307.8842464  +6.3010309     3200.826     4645.485     4563.946       77.645     155.1667     310.1792      1.547     3.52      846.748       54.685      424.762        23     1.383     0.892 -59.88   0
        75    824.3853    910.3375 307.5669340  +6.3264417     905.9089     1163.079     1568.031     77.27438     155.0433     310.0558      1.371     3.83     850.3647       54.685     131.8424         8     0.841     0.755  86.92   0
        76    560.9424    910.5700 307.6763143  +6.3176057     601.0715     814.0754     403.0173     77.52166     155.2284     310.1483      1.393     4.72     853.8026       54.685     94.59106         5     0.980     0.644 -87.39   0
        77    203.6246    909.3936 307.8247151  +6.3062005     2517.815     3309.862     2659.235     77.27438     154.9816     310.0558      1.395     2.90     849.7963       54.685     392.8749        16     1.159     0.797 -51.08   0
        78     77.5498    909.6700 307.8770515  +6.3018809     2306.214      2867.15     2700.535       77.645      155.105     310.2717      1.373     2.98     847.2079       54.685     343.2601        15     1.069     0.821 -52.26   0
        79    941.7075    909.1774 307.5182566  +6.3308057     778.5389     1048.172     696.4156     77.76815     154.9816     310.0866      1.537     5.99     848.3062       54.685     123.3199         9     1.086     0.929 -33.37   0
        80    342.8148    905.2866 307.7670601  +6.3125333     1047.632     1443.148     1811.594     77.39812     154.9198     310.1483      1.359     3.04     851.5787       54.685     169.7501         9     0.946     0.617 -53.15   0
        81    237.9345    905.9514 307.8105848  +6.3087654     1014.831     1179.831     1014.844       77.645     155.0433     310.2717      1.290     3.11     850.4081       54.685     172.4001        10     0.929     0.722 -55.25   0
        82    658.0612    903.0767 307.6362380  +6.3239245     7827.244     10712.25     10937.09     78.01386     155.2284     310.2409      1.411     2.80      852.537       54.685      1255.37        27     1.251     0.960 -46.27   0
        83    795.7810    904.0941 307.5790189  +6.3280718     828.7192     995.0204     1083.306       77.645     154.9198     310.0866      1.276     3.07      850.856       54.685     143.1545         8     0.874     0.654  -0.93   0
        84     18.2371    901.9122 307.9019373  +6.3031036     1256.777     1855.291     2022.811     77.76815     155.0433     310.2409      1.460     4.07     845.4282       54.685      180.191        11     1.263     0.608 -56.42   0
        85    895.8997    899.2207 307.5376083  +6.3334006     2634.261     4109.409     4092.819     77.76815     154.9816     310.0249      1.626     3.12     848.9784       54.685     384.6076        24     1.283     1.152 -68.69   0
        86    447.7551    900.8414 307.7236360  +6.3178605     519.4402     925.9243     1001.918       77.645     155.1667     310.0866      1.887     3.35     852.2224       54.685     101.6992         6     0.753     0.580  36.09   0
        87     31.4916    900.1937 307.8964918  +6.3042558     1243.236     1645.508     1759.457     77.39812      154.858     310.0558      1.423     3.08     845.7101       54.685     196.3339        11     0.981     0.757 -38.70   0
        88    341.0884    896.5110 307.7680701  +6.3160992     18969.16     25313.98     25983.52     77.52166     155.6593     310.3334      1.371     2.70     851.3371       54.685     2930.579        38     1.309     0.980 -52.68   0
        89     75.4872    897.6212 307.8783114  +6.3067868     1544.574     2097.968     1835.197     77.76815     154.9198     310.1175      1.565     4.02     846.8215       54.685      249.451        16     1.319     0.828 -46.28   0
        90    349.5737    896.4766 307.7645481  +6.3163959     688.1758     853.6549     1209.978     77.52166      155.105     310.2101      1.319     3.85     851.3427       54.685     109.2522         6     0.878     0.494 -87.82   0
        91    212.0766    896.0515 307.8216522  +6.3119911     1427.217     1645.803     2113.933     77.76815     155.2284     310.2409      1.305     2.97     849.7709       54.685     204.5462        10     0.874     0.734 -71.19   0
        92    391.6607    895.6267 307.7471014  +6.3181476     883.5308     1159.258     817.6652     77.39812     155.2284     310.1175      1.500     5.41     851.3651       54.685      135.363        10     1.179     0.701 -43.98   0
        93    671.1031    887.9703 307.6313256  +6.3305948     701.8607      1387.56     1409.064     77.89111     154.9198     310.2717      1.935     3.98     852.3223       54.685     95.31519         6     0.967     0.469 -51.81   0
        94    419.1031    887.3640 307.7359826  +6.3224723     1278.878     1817.864     1632.995     77.76815     155.0433     310.3951      1.461     3.73     851.1342       54.685     209.9525        11     1.121     0.662 -51.86   0
        95    104.2343    887.3069 307.8667211  +6.3120049     2001.338      2811.77     2995.904     77.89111     155.0433     310.3026      1.479     3.26     847.2975       54.685     278.5804        16     1.079     0.924 -31.71   0
        96    499.4966    884.3209 307.7027031  +6.3264022     726.2465     1047.049     1044.474     77.52166     155.4132     310.3334      1.729     4.40     852.3046       54.685     132.9161         8     0.983     0.728 -59.12   0
        97    672.6901    883.1398 307.6308275  +6.3326419     960.5265       1396.4     1506.366       77.645       155.29     310.3026      1.569     3.41     852.2794       54.685      178.064         9     1.061     0.644 -55.06   0
        98    886.1890    880.9539 307.5422474  +6.3406216     1946.809     3033.059     3142.395     77.27438     154.9816     309.9323      1.625     3.74     848.8826       54.685     273.5256        21     1.245     1.090 -73.62   0
        99    856.9361    880.5274 307.5544086  +6.3398289     2022.977     3076.375     2655.036     77.76815     155.1667     310.2717      1.601     3.90     849.3686       54.685     300.7024        19     1.315     0.923 -52.00   0
       100    820.3193    879.9709 307.5696318  +6.3388456      3358.55     4954.524     5721.655       77.645      155.105     310.2409      1.608     3.20     850.2405       54.685     450.8366        26     1.323     1.082 -47.12   0
       101     87.7726    880.8607 307.8737719  +6.3141170     2725.846     3466.823     3726.605     77.39812     155.2284     310.1483      1.322     3.10     846.7482       54.685       431.96        17     1.180     0.774 -58.86   0
       102    335.9743    878.3258 307.7708011  +6.3234376     839.6831     1036.659     842.5779     77.39812     155.0433     310.2101      1.382     5.40     850.7811       54.685     137.0197        11     1.345     0.780 -70.49   0
       103    556.1722    871.6049 307.6795938  +6.3335360     387061.6       517423     536127.8     77.27438     154.9816     310.0558      1.412     2.73     852.7242       54.685     58249.72       163     1.477     1.203 -57.51   4
       104    450.8593    877.9916 307.7231096  +6.3273984     661.1313     854.0769     1298.943     77.15044     155.0433     309.9632      1.262     2.72     851.2507       54.685     134.5759         5     0.784     0.488 -33.01   0
       105    400.4258    874.2704 307.7441750  +6.3272572     9096.064     11826.97     11946.81     77.39812     155.0433     310.1792      1.343     2.68     850.7026       54.685     1467.704        28     1.211     0.927 -55.92   0
       106    644.1992    874.3958 307.6429490  +6.3353068     1367.276     2006.458     1894.323     77.15044     154.7344      309.994      1.543     3.58     852.3752       54.685     215.3195        11     1.010     0.746 -53.21   0
       107    457.1372    874.5030 307.7206193  +6.3290476     578.8123     876.0237     1312.281       77.645       155.29     310.3026      1.750     4.50     851.1812       54.685     89.96625         7     0.936     0.617 -84.95   0
       108    343.5530    872.7027 307.7678421  +6.3260116     14866.26     19956.98     20591.87     77.76815     155.0433     310.3951      1.391     2.73     850.6447       54.685     2211.918        35     1.299     0.967 -52.48   0
       109    661.9559    868.9091 307.6357585  +6.3381616     3947.267     5320.219     5776.121     77.76815      155.105     310.3643      1.424     2.87     852.2471       54.685     594.7803        23     1.194     0.949 -53.53   0
       110    894.5247    867.5182 307.5392324  +6.3464453     5663.146     8526.233     9185.097     78.01386     155.4132     310.3026      1.699     3.29     848.5836       54.685     713.4245        34     1.492     1.180 -32.19   2
       111    734.0374    865.2814 307.6059482  +6.3420509     978.1348     1191.852     858.0023     77.76815     155.2284     310.2101      1.369     4.90     851.6891       54.685     131.7806        10     1.137     0.631 -46.33   0
       112    636.7820    862.9207 307.6464112  +6.3397987     3722.021     4972.573     4900.146     77.39812      154.858     310.1792      1.392     2.85     852.2465       54.685     588.2349        20     1.198     0.863 -61.68   0
       113    825.3925    861.9048 307.5681259  +6.3464734     1709.292     2452.718      2719.18     77.52166     154.7962     310.0558      1.554     3.44     849.9724       54.685     221.4873        17     1.186     0.887 -59.20   0
       114    179.3170    862.8050 307.8363664  +6.3246261     622.5389     858.2034     1251.158     77.27438     154.7962     309.9632      1.314     3.91     848.5065       54.685     119.8671         6     0.914     0.480 -54.37   0
       115    627.5050    861.5819 307.6503079  +6.3400436     1153.801     1599.911     1892.944       77.645     154.9816     310.0866      1.497     2.97     852.2407       54.685     178.2523        10     0.907     0.779 -29.81   3
       116    629.6675    857.4902 307.6495463  +6.3418048     2609.436     3776.903     3883.915     77.89111       155.29     310.2409      1.498     3.37     852.0692       54.685     386.1475        22     1.435     0.916 -51.22   2
       117    952.3189    860.6756 307.5154606  +6.3511837     927.9749     1484.391     1658.437     78.01386     155.4132     310.3334      1.671     3.21     846.8795       54.685     155.4725        11     1.034     0.698 -43.42   0
       118    913.4673    855.4570 307.5317672  +6.3520526     3370.144     5033.109     5424.491     77.89111      155.105     310.2101      1.676     3.57     848.1233       54.685     441.2321        23     1.235     1.055 -70.36   0
       119    323.5231    856.7608 307.7766916  +6.3319271      1263.29     1762.847     1796.111       77.645     155.1667     310.2409      1.369     2.96     850.2228       54.685     238.4503        11     1.006     0.738 -53.26   0
       120    371.5712    851.3738 307.7569207  +6.3357509     3068.857      3915.87     3957.634     77.27438     154.9816     310.1175      1.262     2.60     850.0361       54.685     512.0861        16     1.141     0.737 -53.80   0
       121    340.3011    844.1462 307.7701464  +6.3376942     659.4449     809.7238    -106.1468       77.645     155.1667     310.4875      1.165     2.62     849.8952       54.685     138.9573         6     0.730     0.596 -38.33   0
       122    507.7238    841.3011 307.7007217  +6.3444385     3612.705     4776.479     4976.182     77.39812       155.29     310.2409      1.322     2.66     850.9111       54.685     699.7748        18     1.181     0.845 -57.76   0
       123    852.4627    839.7668 307.5576208  +6.3565111     1033.462     1366.649     2262.721     77.52166     155.2284     310.2101      1.409     3.99      848.967       54.685     162.3372        11     1.125     0.690 -53.41   0
       124    572.8210    839.1629 307.6737619  +6.3474845     901.4315     1033.459     1054.249     77.39812     154.9198      309.994      1.246     3.38     851.4175       54.685     160.5049         6     0.779     0.536 -42.60   0
       125    554.5852    837.4011 307.6813930  +6.3476061     7003.158     9350.454     10648.87     77.39812      154.858     310.0249      1.407     2.55     851.3435       54.685     1111.675        29     1.256     0.942 -58.05   0
       126    561.4001    836.7903 307.6785835  +6.3480847      1494.46      2012.39     2659.513     77.15044      154.858      309.994      1.512     3.13     851.3408       54.685       237.58        13     1.038     0.848 -57.48   0
       127    265.8759    837.6614 307.8012665  +6.3378930     783.3217     898.4329     267.3658     78.01386     155.1667     310.2409      1.326     3.07     849.3049       54.685     117.3989         9     0.910     0.648 -68.85   0
       128    472.3935    836.2045 307.7155622  +6.3453684     1925.146     2528.543     2252.155     77.15044      154.858     310.1175      1.376     2.71     850.2585       54.685     339.1512        14     1.066     0.760 -65.02   0
       129    890.5242    835.1578 307.5419687  +6.3596747     1462.955     1903.077      1939.44       77.645     155.1667     310.2717      1.561     3.58     848.1076       54.685     200.0115        16     1.064     0.980  25.56   0
       130    114.0751    835.6080 307.8643662  +6.3336792      1610.08     2091.583     1893.367     77.39812     154.6725     310.0866      1.296     2.69     846.2129       54.685     291.6807        10     0.931     0.656 -45.63   0
       131    689.8768    834.3284 307.6253160  +6.3533667     788.0506     1156.896     878.4857     78.01386     155.4132     310.2409      1.716     3.32     851.4492       54.685     160.9074         7     0.943     0.562  21.99   0
       132    525.2257    831.2849 307.6937882  +6.3491559     23436.39     30357.94     31083.45     77.89111     154.9198     310.1175      1.339     2.64     850.8463       54.685     4010.005        37     1.261     0.946 -51.84   0
       133    366.6510    832.6439 307.7595893  +6.3433207     962.6223     1095.589      925.124     77.89111      155.105     310.2717      1.340     2.90     849.5675       54.685     206.6672         8     0.857     0.725 -48.59   0
       134    172.1457    831.2440 307.8404002  +6.3374182     804.3834     722.2324     186.4998     77.76815     155.1667     310.2409      1.144     5.57     847.4841       54.685      123.827        10     1.148     0.761  43.66   0
       135     58.4758    828.3373 307.8876955  +6.3348253     669.7615     742.2521     948.8297     78.01386     155.1667     310.2101      1.442     5.12     844.9022       54.685     81.97089         8     1.113     0.665 -34.73   0
       136    411.2441    827.1502 307.7412560  +6.3470730     546.0567     651.2673     206.7748     77.76815     155.0433     310.2717      1.219     3.33     849.2053       54.685     106.5331         5     0.935     0.344 -42.63   0
       137     35.5244    822.0061 307.8974374  +6.3366730     1811.409     2494.903     2468.098     77.39812     154.6725     310.0866      1.431     3.38     844.5065       54.685     304.0398        15     1.227     0.760 -51.24   0
       138    938.8431    829.3878 307.5220955  +6.3636568     3879.699     6129.625     6348.484     77.27438     154.9816     309.9632      1.682     3.27     846.9496       54.685     522.4646        28     1.422     1.064 -42.84   0
       139    627.3420    819.8762 307.6517649  +6.3572586     566.8602     733.9182     524.6604     77.89111     155.1667     310.2101      1.538     4.56     850.8158       54.685     98.67841         6     1.397     0.424 -65.05   0
       140    317.9307    820.0881 307.7802391  +6.3468829     3926.079     5053.032     5039.017     77.76815     155.4132     310.2409      1.318     2.62      849.308       54.685     707.4155        20     1.124     0.831 -48.94   0
       141    783.4218    815.7297 307.5870898  +6.3641485     62527.57     84604.91     88114.52     77.39812     155.0433     310.2409      1.451     2.77     850.3654       54.685     8801.311        72     1.404     1.144 -56.83   0
       142     17.8006    818.4152 307.9049170  +6.3375637     2373.245     3236.087     3121.246     77.39812      154.858     310.0249      1.438     3.12      844.255       54.685     369.6448        16     1.099     0.837 -39.66   0
       143    722.1447    817.4495 307.6124785  +6.3614065     788.0588     897.4704     1149.218     77.76815     155.1667     310.2717      1.330     3.15     851.0605       54.685     133.7309         7     0.787     0.707 -72.07   0
       144    240.6456    813.8314 307.8125397  +6.3468914     5967.417     8366.801     10185.76     77.39812     155.2284     310.1175      1.467     2.59     847.8923       54.685     980.0762        26     1.232     0.934 -52.43   0
       145    426.7408    814.4376 307.7352456  +6.3528376     947.9588     1251.139     702.1872     77.76815     155.2284     310.2409      1.240     2.83     848.9458       54.685     185.4644         7     0.891     0.522 -53.72   0
       146    908.6246    810.9003 307.5352582  +6.3702902     9078.292     13183.73     14082.34     77.89111     154.9198     310.0866      1.537     3.07     847.3571       54.685     1171.139        37     1.352     1.127 -54.59   0
       147    711.6553    810.3699 307.6170699  +6.3639818     24808.52     33446.86     35332.08       77.645     155.2284     310.2101      1.410     2.59     850.9661       54.685     4017.216        45     1.340     1.045 -53.55   3
       148    705.3575    806.8503 307.6198023  +6.3652261       103213     136693.9     142075.9     77.89111     155.1667     310.2409      1.386     2.59     850.9223       54.685      16391.2        79     1.411     1.076 -59.40   2
       149    350.1973    807.9191 307.7672473  +6.3529817     24606.05     32434.53     33669.54     77.15044     154.7344      309.994      1.349     2.55     849.0085       54.685     4518.511        41     1.286     0.960 -50.15   0
       150    399.4003    808.2000 307.7468068  +6.3545034     1748.339      2469.77     2562.531     77.15044     154.7344     309.9323      1.469     2.85     848.6762       54.685     277.7756        16     1.074     0.883 -75.27   0
       151    240.1706    792.2444 307.8134589  +6.3557887     752972.8      1527010      1663586     77.39812     155.2284     310.0866      2.113     4.86     846.9719       54.685     63979.02       592     2.804     2.027 -78.74   4
       152    949.2095    804.2964 307.5186239  +6.3743603     2155.796     3180.458     3428.408     77.52166     154.7962     310.0558      1.598     3.30     846.1895       54.685     300.0496        18     1.135     0.980 -60.09   0
       153    905.6069    802.3683 307.5367948  +6.3737132     7292.195     10330.68     10853.78     77.15044     155.0433     310.0249      1.547     3.10     847.2527       54.685      995.765        32     1.321     1.089 -58.63   0
       154    878.6343    803.4046 307.5479612  +6.3723922     858.0982     1178.813     1106.912     77.02631     155.0433     310.0249      1.732     5.39     847.8421       54.685     102.6071        10     0.932     0.879  49.60   0
       155    646.1677    801.4812 307.6445602  +6.3654789     7619.484     9782.051     10251.06       77.645      155.105     310.2101      1.333     2.57      850.438       54.685     1183.983        24     1.173     0.887 -56.53   0
       156    135.4414    802.1614 307.8566142  +6.3482018      525.819      509.774     105.4981     77.52166     155.2284     310.1175      1.292     2.91     845.8803       54.685     115.6406         6     0.911     0.636 -56.18   0
       157    434.8788    799.7108 307.7323578  +6.3591890     2093.921     2705.198     2655.553     77.52166     155.4132     310.3334      1.378     3.16     848.6982       54.685     341.7632        15     1.204     0.725 -49.04   0
       158    160.0829    798.8837 307.8464921  +6.3503772     847.7523     1066.161     604.8856     77.52166     155.4132     310.3334      1.390     4.38     846.4843       54.685     173.1354        11     1.425     0.540 -46.96   0
       159    412.1078    805.7104 307.7416132  +6.3559542     26421.68     34362.95     35073.61     77.76815     155.6593     310.3026      1.329     2.55     848.5172       54.685     4622.729        40     1.268     0.953 -53.58   0
       160    599.3878    793.4455 307.6642537  +6.3672437     1079.241     1330.308     1562.031     77.27438     154.9816     309.9632      1.281     2.93     849.5839       54.685     206.3849        11     0.991     0.753 -76.35   0
       161    874.1600    792.9941 307.5501653  +6.3765427     716.8427     1019.322     871.0748     77.02631      154.858     309.9632      1.327     4.61     847.7606       54.685     112.5781         8     1.216     0.523 -35.67   0
       162    681.3163    791.5549 307.6302949  +6.3707440     2904.552     3967.895     4096.703     77.76815     155.1667     310.2409      1.390     2.81     850.4317       54.685     419.5378        17     1.190     0.788 -45.60   0
       163    150.3861    792.7107 307.8507251  +6.3526025     1053.314     1101.895     805.1213     77.52166     154.9816     310.1175      1.090     2.89     845.8957       54.685     225.7357         8     0.926     0.684 -62.07   0
       164    125.2863    792.4250 307.8611570  +6.3518831     1263.271     1712.751     1579.808     77.89111     154.9816     310.0866      1.432     3.69     845.2095       54.685     201.8447        12     1.157     0.716 -53.49   0
       165    415.0316    788.4111 307.7409766  +6.3631944     64310.23      83542.3     86301.73     77.27438     154.9198     310.1175      1.352     2.52     847.9017       54.685     11749.47        60     1.321     1.013 -49.81   0
       166    957.6336    789.8218 307.5156063  +6.3806159     762.0799      1031.65     943.5878     77.27438     154.9816     310.0249      1.376     5.43     845.7441       54.685     106.3719         9     1.275     0.654 -44.00   0
       167     67.2655    790.2054 307.8853233  +6.3508630     583.7597     660.1432     811.7667     77.27438      154.858     310.0249      1.446     4.41     844.3425       54.685     122.7801         5     1.175     0.471 -58.70   0
       168    532.7302    787.3805 307.6921361  +6.3675336     8438.084     10773.21     10555.61     77.39812     155.0433     310.1792      1.295     2.45     849.1335       54.685     1519.747        26     1.184     0.885 -49.88   0
       169    449.4677    786.0230 307.7267566  +6.3653259     5451.034     7309.781     7675.233     77.39812      155.105     310.2101      1.362     2.49     848.4349       54.685     942.8436        25     1.225     0.894 -43.12   0
       170    778.0121    783.7934 307.5903986  +6.3771559     13151.27      18055.6     18788.97     77.39812     154.9816     310.1483      1.410     2.74     849.5219       54.685     1996.888        37     1.308     1.040 -56.11   0
       171    446.0425    779.4168 307.7283995  +6.3679397     2731.888     3675.961     3671.136     77.27438     154.9816      309.994      1.351     2.58     848.0911       54.685     492.6353        18     1.287     0.772 -53.49   0
       172      7.2688    780.3208 307.9105669  +6.3529406      1355.28     1945.072      1798.69     77.89111     155.3516      304.701      1.448     3.29     844.1002       54.685     223.1245        10     1.074     0.614 -38.18  16
       173    143.8148    776.4677 307.8539975  +6.3590898     3595.826      4903.87     5427.538     77.27438     155.0433     310.1483      1.442     2.66     844.9322       54.685     618.4543        24     1.366     0.967 -62.15   0
       174    799.7703    777.9866 307.5815562  +6.3802748     1309.961     1536.318     1765.732     77.39812     154.9816     310.1792      1.296     3.04     848.9579       54.685     197.4966        11     0.938     0.770 -52.52   0
       175    135.6796    776.1156 307.8573873  +6.3589638     13544.42     18127.45        19666       77.645     155.4748     310.3334      1.358     2.65     844.7879       54.685     2483.131        38     1.335     0.977 -43.17   2
       176    127.8148    773.5122 307.8607403  +6.3597763     3507.476     4843.375     5690.901     77.52166     154.9816     310.0866      1.416     2.71     844.5634       54.685     663.8474        21     1.088     1.008 -35.94   2
       177    966.0891    777.0209 307.5125199  +6.3861813     1377.689     1932.119     2471.718       77.645     154.9198     310.1175      1.427     0.00     845.3403       54.685     889.2312        10     1.365     0.630  -4.31   0
       178    923.4783    772.3397 307.5303708  +6.3867040     7046.325      10065.7     10944.92     77.89111     155.2284     310.2101      1.575     3.13     846.5272       54.685     933.2886        32     1.366     1.069 -58.36   0
       179    972.7253    772.2934 307.5099210  +6.3883529      1450.76     2330.884     2930.158       77.645       155.29     310.2101      1.843     4.58     845.0607       54.685     183.7351        17     1.170     1.081  79.23   0
       180    678.9498    770.0610 307.6319934  +6.3795405     2039.738       2566.8     2532.213     77.76815      155.105     310.3026      1.339     2.62      849.485       54.685     392.8073        16     1.106     0.823 -56.27   0
       181    565.7925    769.4611 307.6790040  +6.3760310     2740.135      3541.93     3786.647     77.15044     154.9816     310.0249      1.334     2.70     848.4183       54.685     513.8264        16     1.174     0.793 -55.27   0
       182    413.7600    768.7092 307.7421625  +6.3712869     1374.133     1897.163     2319.981     77.76815      155.105     310.2717      1.591     4.33     847.2708       54.685     278.8387        14     1.467     0.664 -85.35   0
       183    697.1046    767.5673 307.6245372  +6.3811725     665.7992     887.2253     1112.826     77.89111     155.0433     310.3334      1.425     4.98      849.399       54.685     95.69275         8     1.066     0.659 -35.13   0
       184    128.0770    767.0996 307.8608461  +6.3624327     2341.437     3098.451     3113.812     77.39812       155.29     310.2717      1.342     2.94     844.2824       54.685     406.4222        16     1.085     0.795 -52.06   0
       185    917.7258    764.3248 307.5330260  +6.3898230     3298.042      4718.05      5095.06     78.01386     155.4132     310.3334      1.591     3.26      846.509       54.685     409.4174        21     1.184     1.007 -68.11   0
       186    977.8147    763.7081 307.5080925  +6.3920662     2044.618     3115.562      3555.98     77.52166     154.9816     310.0866      1.620     3.59     844.8019       54.685     275.9941        21     1.275     1.000 -62.14   0
       187    947.0972    763.9286 307.5208417  +6.3909588     3174.082     4566.536     4577.454       77.645       155.29     310.2409      1.511     3.19     845.7755       54.685     422.9764        21     1.199     0.997 -47.96   0
       188    669.9949    763.6596 307.6359252  +6.3818865      1747.97     2367.581     2182.788     77.27438     155.0433     310.0249      1.395     2.63     849.1933       54.685     289.8262        12     1.004     0.721 -59.71   0
       189    817.2639    761.8438 307.5748283  +6.3875200     1069.918     1437.202     1554.841     77.76815      155.105     310.2409      1.440     3.69     848.0064       54.685     165.9325         9     0.966     0.670 -56.76   0
       190    892.7836    759.3431 307.5435495  +6.3910542      882.197     1207.064     1099.304     77.15044      155.105      309.994      1.514     3.63     846.8077       54.685     124.3557        10     0.945     0.815 -30.43   0
       191    639.1157    806.8930 307.6473083  +6.3630103     853.8327     1139.818     1221.806     77.52166     155.5978     310.3643      1.168     1.86     850.5233       54.685     204.5024         6     0.686     0.544 -45.58   0
       192    679.8494    755.8731 307.6320922  +6.3854286     846.0264     1082.052     1475.887     77.76815     155.2284     310.2717      1.290     4.34     848.8827       54.685     148.9368         9     1.115     0.695 -41.88   0
       193    294.6203    756.9214 307.7920298  +6.3721877     579.0139     683.7637    -66.76649     77.39812      154.858     310.2101      1.220     3.28      846.268       54.685     111.4096         6     0.751     0.609 -40.45   0
       194    262.7853    754.4263 307.8053329  +6.3721572     811.4069     1066.147     1396.487     77.52166     154.9816     310.1792      1.429     3.54     845.6736       54.685     155.3253         7     0.943     0.525 -58.99   0
       195    935.3967    753.6128 307.5260433  +6.3948310     1174.518     1632.127     1900.013     77.39812      154.858     310.1175      1.548     3.72     846.0414       54.685     167.6915        13     1.024     0.905 -58.10   0
       196    157.5027    754.2652 307.8490569  +6.3687137     918.6177     1138.474     1058.367     77.76815     155.2284     310.2717      1.290     3.37     843.9965       54.685     209.2953         8     1.046     0.597 -10.43   0
       197    962.0630    751.5559 307.5150374  +6.3965628     2631.454     4042.173       4351.2     77.76815      155.105     310.3026      1.638     3.43     845.1573       54.685     303.2504        22     1.249     1.048 -57.04   0
       198    909.3699    752.6183 307.5368849  +6.3943801     1365.894     1772.395     1804.774     77.39812     154.9816     310.1483      1.512     3.55     846.4912       54.685     179.0198        13     1.013     0.864 -52.61   0
       199    681.7744    751.0120 307.6314547  +6.3874996     1101.766      1723.91     1864.144     77.39812     154.9816     310.1792      1.588     3.65     848.6675       54.685     168.8325        11     1.039     0.855  81.04   0
       200   1003.8222    744.8961 307.4979164  +6.4006942     1652.332     2648.638     3364.266     77.76815     154.9816     310.0558      1.796     4.56     843.7182       54.685      224.557        18     1.421     0.943 -54.81   0
       201    804.9269    743.7776 307.5805525  +6.3945708     1249.498     1724.517     1547.689     77.39812     154.9816     310.1792      1.427     3.13     847.4319       54.685     211.3834         9     0.941     0.627 -36.62   0
       202    630.2490    744.6014 307.6530655  +6.3884364     805.3039     900.5903     847.7535     77.15044     154.7962     309.8396      1.085     2.90     847.9924       54.685     135.3828         5     0.709     0.469 -15.35   0
       203    891.4547    740.8893 307.5447146  +6.3986299     1616.043     2297.177     2871.358     77.76815     155.0433     310.3643      1.639     3.41     846.5284       54.685     217.9978        16     1.090     0.930 -41.25   0
       204    866.1874    736.0887 307.5553674  +6.3997753     1009.103     1169.284     967.5294     77.52166     154.9198     310.1483      1.267     3.23     846.7198       54.685     166.9949         9     0.914     0.655 -15.64   0
       205    651.8320    735.6667 307.6444002  +6.3928420     606.4384     855.3877     435.4961       77.645     155.2284     310.1792      1.488     3.25     847.8364       54.685     99.55328         6     0.732     0.629 -63.93   0
       206    848.1727    732.1644 307.5629792  +6.4007990     1845.888     2580.886      2305.12     77.27438     154.9198     310.0249      1.467     3.14     846.7908       54.685     291.9514        15     1.027     0.949 -41.65   0
       207     47.3032    731.6708 307.8955737  +6.3743646     2772.609     3737.989     3736.096       77.645       155.29     310.2717      1.381     3.06     843.4427       54.685     431.1434        19     1.277     0.774 -53.37   0
       208    111.4651    730.2214 307.8689790  +6.3771050     1024.538     2273.107     2287.384     77.39812     155.1667     310.1175      2.196     7.36     842.9402       54.685     182.9968        19     1.706     0.888  72.04   0
       209    459.6754    730.2813 307.7243781  +6.3886811     605.9299     529.3905     733.7686     78.01386     155.4132     310.3026      1.108     2.29      846.149       54.685     126.3712         5     0.715     0.438 -73.04   0
       210    565.2681    726.3780 307.6806581  +6.3938028     599.1688     752.6167     344.3049     77.39812      155.105     310.2101      1.531     3.77      846.683       54.685     104.0558         6     0.873     0.488 -43.15   0
       211    703.0002    722.9044 307.6235758  +6.3998097     664.6829     914.6221     310.3733     77.27438     154.7962     309.8396      1.454     6.21      847.526       54.685     117.9208         9     1.427     0.759 -52.43   0
       212    660.0492    719.8555 307.6415144  +6.3996433     7593.498     9923.198     9976.633     77.76815     155.1667     310.3026      1.334     2.51     847.2852       54.685     1360.778        26     1.165     0.929 -57.87   0
       213    606.8596    719.2262 307.6636242  +6.3981373     1730.598     2336.385     2755.637     77.39812     155.1667     310.1175      1.419     2.80     846.8442       54.685     288.7484        14     1.006     0.798 -36.90   0
       214    528.8085    719.6193 307.6960245  +6.3953819     723.2251     1093.115     878.9432     77.52166     154.9198     310.0558      1.341     4.13       846.22       54.685     141.2167         8     1.125     0.646  -7.36   0
       215    517.6678    719.4442 307.7006568  +6.3950839     1121.258     1330.197     1195.987     77.76815      155.105     310.2717      1.216     2.59     846.0983       54.685     231.9935         8     0.946     0.541 -50.78   0
       216    633.9039    715.5355 307.6525161  +6.4005592      2661.95     3246.541     3833.907     77.76815       155.29     310.2717      1.282     2.60     846.9395       54.685     480.4108        17     1.143     0.781 -50.94   0
       217    123.0369    715.8060 307.8646566  +6.3834432     4549.778     5907.092     5397.667     76.90197     154.9198     310.0249      1.324     2.72     842.5946       54.685     866.8583        22     1.185     0.857 -51.09   0
       218    997.1911    714.8302 307.5016682  +6.4128895     2742.441     3981.795      4119.74     77.27438     154.9816     310.0558      1.569     3.49     843.8575       54.685      330.399        21     1.264     0.961 -56.98   0
       219    309.5142    715.8307 307.7872185  +6.3896500     801.6949     1039.709     1047.468     77.76815     154.9816     310.1175      1.235     3.85     844.0751       54.685      145.037         7     1.051     0.445 -38.31   0
       220    245.0215    715.4867 307.8140117  +6.3876432     913.7611      1194.82     1260.492     77.76815     154.9198     310.1175      1.311     3.77      843.409       54.685     150.7123         8     1.047     0.648 -35.78   0
       221    776.9340    711.8606 307.5932393  +6.4068217     23495.12     30766.87     31557.86     77.76815      155.105     310.2409      1.352     2.57     846.8848       54.685     4103.617        38     1.266     0.959 -55.56   0
       222    907.0310    711.4631 307.5392236  +6.4112961     4061.804     5495.446       5766.7     77.52166     155.2284     310.2101      1.436     2.95     845.8944       54.685      632.111        22     1.227     0.937 -58.80   0
       223    504.5701    711.9903 307.7063447  +6.3977263     1159.814     1420.059     1403.001     77.27438     154.9816     310.0866      1.242     2.61     845.7511       54.685     208.2386        10     0.859     0.739 -64.30   0
       224    475.9823    712.2302 307.7182087  +6.3966767     1655.963     2134.354     1904.037     77.39812     154.9816     310.1792      1.307     2.51     845.4887       54.685     350.0729        11     1.034     0.647 -37.77   0
       225    321.6090    711.9821 307.7823245  +6.3916419      688.793     924.6194     548.6362     77.52166     154.9198     310.0558      1.280     2.75     843.9855       54.685     137.4437         7     0.832     0.628 -21.20   0
       226    278.3392    711.5060 307.8003091  +6.3903971     853.4232     955.0803     732.7688       77.645     155.2284     310.2717      1.099     3.80     843.5824       54.685     156.9854         7     0.949     0.634  86.69   0
       227     85.5938    708.1675 307.8804609  +6.3853473      592.076      704.525     664.4261     77.15044     154.9816     310.0558      1.367     3.45     842.6752       54.685     99.08496         5     0.804     0.427 -69.15   0
       228    250.3837    705.6917 307.8121126  +6.3918662     7573.388     9690.978      10087.7     77.52166     154.9816     310.1483      1.279     2.39      842.967       54.685     1325.509        25     1.178     0.862 -59.33   0
       229    657.4735    704.6495 307.6430906  +6.4058364     8488.368     10893.83     11229.59     77.76815     155.2284     310.2717      1.288     2.51     846.6818       54.685     1388.678        27     1.217     0.869 -56.11   0
       230    639.8644    705.9108 307.6503615  +6.4047311     1005.112      1553.27     2380.656       77.645     155.3516     310.2717      1.727     2.69     846.6106       54.685     190.6184         8     0.847     0.588 -51.13   0
       231    352.9119    704.5336 307.7695741  +6.3957597     777.1099     783.9543     614.5795     77.76815     155.3516     310.2101      1.178     4.14     844.0228       54.685     158.2548         8     1.024     0.560 -47.81   0
       232    917.2437    697.2517 307.5354544  +6.4175022     1406.244      2054.72     2392.576     77.76815      155.105     310.2717      1.652     3.89     845.5344       54.685     190.8033        16     1.236     0.867 -54.10   0
       233    729.1256    693.0854 307.6137188  +6.4129888      4217.98       5942.9     6640.655     77.89111     155.4748     310.2717      1.429     2.71     846.4291       54.685     706.4329        22     1.167     0.946 -73.35   0
       234    684.3974    693.6772 307.6322747  +6.4112605      1216.12     1597.952     2134.427     77.15044     154.6725     310.0866      1.419     3.30     846.3676       54.685     199.0679        11     1.090     0.656 -61.99   0
       235    933.9365    689.9974 307.5287628  +6.4210501     2628.917     3582.015     3310.951     77.15044     154.9816     310.0249      1.419     3.26     845.1354       54.685     371.4501        16     1.238     0.772 -65.16   0
       236    995.5577    689.5012 307.5031874  +6.4232940     9799.943     13857.03     13960.92     77.76815     155.0433     310.4567      1.546     2.97     843.9044       54.685     1290.457        33     1.318     1.073 -52.88   0
       237     14.8224    689.7434 307.9104668  +6.3905910     2081.222     3193.456     3963.535     77.39812      155.105     310.0558      1.696     2.72     842.5408       54.685     379.9596        16     1.132     0.833 -38.52   2
       238    548.3047    688.2313 307.6889747  +6.4089900     618.9577     981.9161     1098.949     77.89111     154.9816     310.3026      1.568     4.05     845.6212       54.685     135.6893         7     1.024     0.508 -62.10   0
       239    431.4609    687.7916 307.7375134  +6.4052866      719.126      1139.63     1316.801     77.15044     154.9816     310.0249      1.750     3.39     844.4848       54.685     112.9548         5     0.762     0.437 -67.43   0
       240    534.1328    685.5935 307.6949481  +6.4096082     2466.208     3095.797     3008.482     77.27438     154.9198     310.0558      1.180     2.35     845.3767       54.685     469.4886        13     1.009     0.673 -59.30   0
       241     72.7983    684.8249 307.8865565  +6.3945580        30164     39511.79     40796.64     77.39812      154.858     310.0249      1.338     2.66     842.2949       54.685     5360.919        45     1.330     0.956 -48.61   0
       242    271.5589    686.1441 307.8039728  +6.4006429     516.6448     989.0097     1003.321       77.645     155.2284     310.2717      1.594     3.42     842.0749       54.685     88.45496         5     0.788     0.430 -67.91   0
       243    502.8697    682.8699 307.7080223  +6.4096936     1718.844     2331.572      2499.44     77.76815       155.29     310.2101      1.404     2.51     844.7386       54.685     309.5565        11     0.916     0.731 -61.50   0
       244    923.8308    681.6407 307.5332374  +6.4241662     1084.111     1271.913     1126.508     77.27438     154.9816     310.1175      1.324     3.06     845.1782       54.685     161.5527        12     0.924     0.863  75.02   0
       245    543.0535    679.6737 307.6914409  +6.4123489     1876.854     2287.561     2640.188       77.645     155.1667     310.2409      0.899     0.62     845.3903       54.685     857.5919        11     0.795     0.623 -56.71   0
       246    718.7673    676.7906 307.6185631  +6.4193734     4052.449      5250.95     5487.607     77.27438     154.9816     310.0866      1.320     2.71     845.8036       54.685      674.835        20     1.156     0.835 -55.68   0
       247    740.8191    674.9775 307.6094652  +6.4208535     4864.612     6325.166     6454.951     77.52166      155.105     310.1792      1.319     2.57     845.8038       54.685     922.4335        21     1.174     0.835 -48.64   0
       248    572.3693    672.9551 307.6794902  +6.4160971     3900.566      5136.62     4700.628     77.39812     155.2284     310.1175      1.274     2.43     845.2661       54.685     789.1245        19     1.146     0.781 -45.30   0
       249    408.5203    673.5679 307.7475153  +6.4103963     1589.275     1977.472      2096.77       77.645     155.1667     310.2101      1.317     2.68     843.8357       54.685     281.3806        11     1.057     0.607 -49.17   0
       250    232.7354    672.7714 307.8205426  +6.4048705     2078.615     2695.992     2874.842     77.52166     155.1667     310.1792      1.272     2.87     841.0071       54.685     375.7958        13     1.104     0.654 -55.50   0
       251   1013.7343    671.0614 307.4962506  +6.4315093       5282.4     7431.934     7313.432     77.76815      155.105     310.2409      1.490     3.02     843.5919       54.685     711.6484        25     1.224     1.021 -49.36   0
       252    316.3615    672.0967 307.7858368  +6.4079356     1833.898      2258.45     1746.425     77.76815     155.0433     310.3951      1.247     2.80     842.0804       54.685     329.2947        13     1.132     0.639 -46.69   0
       253    979.1646    669.8806 307.5106471  +6.4308533     8887.498     12635.12     12593.56       77.645     155.2284     310.2717      1.493     3.05     844.1017       54.685     1241.069        32     1.327     1.029 -58.15   0
       254    532.8607    670.6202 307.6959759  +6.4157484      501.362     629.6935     287.4002     77.39812     155.1667     310.1792      1.611     3.17     844.9435       54.685     113.5893         5     0.868     0.514 -51.14   0
       255    699.0342    668.6421 307.6270296  +6.4220833     1170.713     1417.187     1505.987     77.52166     155.1667     310.0866      1.249     2.53      845.463       54.685     214.8813        10     0.902     0.703 -44.68   0
       256     90.2834    667.1473 307.8798877  +6.4024406     999.0903     1245.587     1555.983     77.76815     155.1667     310.3643      1.240     3.01     841.9254       54.685     163.1584         8     0.814     0.650 -47.21   0
       257    424.5321    664.4122 307.7411714  +6.4147094     3448.641     4571.352     4773.076     77.27438     155.0433     310.1483      1.294     2.80     843.5068       54.685     572.6655        21     1.321     0.823 -59.38   0
       258    137.5473    663.7329 307.8603747  +6.4054278     29200.64     37738.11     38816.62     77.76815      155.105     310.1483      1.303     2.62     841.2353       54.685     4816.431        44     1.308     0.949 -52.38   0
       259    805.9189    663.7758 307.5828014  +6.4276371     1410.663     1916.513     2239.063     77.52166     154.9198     310.1483      1.365     3.37      845.794       54.685     293.2732        12     1.116     0.724 -60.73   0
       260    357.1052    658.4391 307.7693728  +6.4149315     900.3833     1177.442     1045.206     77.89111     155.0433     310.3643      1.186     3.66     842.1528       54.685     169.5471         8     1.039     0.529 -52.53   0
       261    973.9545    652.8889 307.5133752  +6.4376970     7330.224     11383.53     11492.94     77.76815     155.0433     310.2717      1.632     2.99     843.7504       54.685      1109.21        38     1.370     1.246  70.19   0
       262    567.5643    648.3519 307.6823060  +6.4260962     58859.93     73789.09     76092.92       77.645     155.1667     310.1792      1.233     2.40      844.271       54.685     11054.98        56     1.286     0.947 -52.61   0
       263    210.8929    650.0369 307.8303741  +6.4135292     821.4777     972.0415     730.6875     77.89111     155.0433     310.3026      1.280     3.01     840.8315       54.685     171.5893         6     0.892     0.599 -45.35   0
       264    931.7684    649.7460 307.5310004  +6.4375986     584.4832     849.0967     652.4825       77.645     155.2284     310.1792      1.619     3.54     844.3315       54.685     122.3121         6     1.018     0.385 -12.42   0
       265    527.0883    648.5576 307.6991091  +6.4246662     878.8896     1121.214     1163.125     77.76815      155.105     310.2717      1.337     3.36     844.0353       54.685     159.1404         9     1.101     0.582 -42.89   0
       266    792.1855    647.6359 307.5890420  +6.4338462     636.3386     713.6636     1142.276     77.39812     154.9816     310.0558      1.064     2.12     845.3254       54.685     142.8268         5     0.697     0.448 -19.08   0
       267    175.0620    645.2060 307.8454158  +6.4143289     3313.994     4567.877     4805.578     77.15044     154.9816     310.0558      1.376     2.74     840.8087       54.685     617.8566        19     1.214     0.768 -41.29   0
       268    497.5099    645.2828 307.7115023  +6.4250351      737.598     531.5841     529.8063     77.52166     155.4132     310.3334      0.962     2.26     843.4745       54.685     165.9125         5     0.695     0.423 -61.08   0
       269     18.5473    652.6531 307.9101634  +6.4060295     1358.314     1764.023     1499.784     78.01386     155.0433     310.2717      1.369     3.25     841.9778       54.685     225.5787        11     1.128     0.610 -49.34   0
       270     67.6956    639.6772 307.8901883  +6.4130286     1597.062     1976.998      1670.92     77.52166       155.29     310.3026      1.239     3.10     841.5045       54.685     280.6885        13     1.117     0.718 -58.00   0
       271    130.1314    638.0543 307.8643142  +6.4157828     496.8666     628.7742     815.2841     77.76815      155.105     310.1792      1.354     3.88     840.9854       54.685     90.26337         5     0.821     0.525 -37.22   0
       272    464.8068    632.1787 307.7255214  +6.4293584     77342.59     97803.15       100800     77.39812     154.9816     310.0558      1.268     2.37      842.649       54.685     16506.16        64     1.302     0.959 -54.51   0
       273      8.3543    633.8480 307.9150268  +6.4134533     2045.498     2611.317     2752.174     77.76815     155.0433     309.9632      1.307     2.58     842.0104       54.685     363.2097        14     1.011     0.758 -65.94   0
       274    650.9902    629.1475 307.6482983  +6.4367964     991.1114     1314.156     1147.806     77.15044     155.0433      309.994      1.304     3.58     843.6908       54.685      168.877         8     0.872     0.735 -78.55   0
       275    139.2654    627.3259 307.8608803  +6.4205172     2026.809     2409.912     2757.463     77.89111     155.1667     310.2409      1.223     2.63     840.7998       54.685     369.3934        15     1.114     0.730 -44.11   0
       276    418.2738    624.8901 307.7450902  +6.4308198     1075.011     1357.603     1618.176     77.76815     155.4132     310.2717      1.462     2.88     841.5709       54.685     215.3375         9     1.045     0.533 -63.11   0
       277    934.3182    624.9199 307.5307661  +6.4479339     784.6713     1100.225     966.9783     77.89111     155.4132     310.3643      1.369     5.00     843.6874       54.685     120.1511         8     0.993     0.713 -27.65   0
       278    610.6414    623.8662 307.6652319  +6.4376373     1060.235     1392.459     1352.035     77.76815      155.105     310.3026      1.300     2.78     843.3242       54.685     208.2197        10     0.994     0.602 -51.62   0
       279    310.2123    621.7029 307.7900751  +6.4285382     2509.938     3058.471     2850.489     77.52166     154.9198     310.0249      1.282     2.66      840.639       54.685     429.6826        16     1.096     0.818 -68.85   0
       280    492.7690    623.2424 307.7142067  +6.4339780     577.1583     798.9171     901.5906     77.27438      155.105     310.0866      1.341     3.71     842.7841       54.685     107.1749         5     0.872     0.454 -45.31   0
       281     11.1037    623.0952 307.9142456  +6.4179848     696.1147     890.0623     835.0013     77.76815     155.7822     310.0866      1.229     2.34     841.9573       54.685     142.3049         8     0.791     0.647 -45.12   0
       282    462.0846    620.0766 307.7270559  +6.4342648     980.9301     1269.915      1784.53     77.89111     155.4748     310.3334      1.383     3.02     842.2119       54.685     195.1002         8     0.990     0.514 -50.52   0
       283     17.5030    620.8922 307.9116619  +6.4191082     560.5113     709.3248     746.5589     77.76815     155.6593     310.2101      1.398     3.49     841.8587       54.685     119.3629         5     1.098     0.439  76.26   0
       284    736.8012    615.5490 307.6131120  +6.4452586     6329.145     7845.797     7731.649     77.15044     154.7962     309.8087      1.231     2.48     844.5984       54.685     1180.433        22     1.117     0.843 -50.96   0
       285    790.3854    610.8636 307.5910130  +6.4489701     16286.49     21239.02     22240.04     77.27438     155.0433     310.1175      1.297     2.50      844.332       54.685     2759.181        37     1.326     0.906 -58.96   0
       286    532.4662    611.1454 307.6981235  +6.4402925     1340.773     1819.399     1852.366     77.76815      155.105     310.2101      1.383     3.17     842.7104       54.685     280.1365        13     1.214     0.647 -46.69   0
       287   1007.6709    611.0317 307.5007615  +6.4560957     1188.338     1653.496     1297.593       77.645     155.1667     310.2101      1.394     3.51     842.1399       54.685     172.9368         9     0.919     0.655 -40.39   0
       288    614.2305    608.9102 307.6642397  +6.4439319     3581.735     4604.107     4649.262     77.89111     154.9816     310.2101      1.298     2.23     842.7407       54.685     741.3444        21     1.182     0.818 -53.77   0
       289     35.5596    610.3369 307.9045172  +6.4240696     846.6379     1024.992     1171.743     77.76815      155.105     310.3026      1.213     3.01     841.5218       54.685     138.1439         7     0.787     0.674  13.59   0
       290    931.4759    604.8763 307.5326125  +6.4561160     1366.597     1892.676     1645.438     78.01386     155.4132     310.3334      1.422     3.03     843.1664       54.685     232.1058        13     1.011     0.868 -74.54   0
       291    372.8674    602.7650 307.7646869  +6.4384440     1122.467     1403.712     1789.637       77.645     155.2284     310.3334      1.287     3.02     839.6088       54.685     218.5925        10     1.064     0.578 -58.65   0
       292    226.5333    602.7480 307.8254610  +6.4335759     1484.274     1732.884     1978.506       77.645      155.105     310.2101      1.285     3.05     840.4282       54.685     237.4268        13     1.101     0.723 -51.84   0
       293    190.5107    603.5884 307.8403931  +6.4320277     733.9899     985.1599     1092.873     77.52166      154.858     310.1175      1.180     3.03     840.4878       54.685     137.0005         6     0.874     0.433 -70.73   0
       294    357.0695    602.5820 307.7712541  +6.4379936     617.1754      878.259     1173.451     77.27438     155.0433     310.1792      1.124     2.42      839.248       54.685     132.0892         5     0.715     0.441 -23.06   0
       295    866.3580    594.0139 307.5600194  +6.4584450     3287.135     4515.298     5018.269     77.15044     154.9816      309.994      1.403     2.66     843.4974       54.685     560.1758        18     1.222     0.791 -68.57   0
       296    161.7925    594.3397 307.8526294  +6.4348885     758.3148     901.8948     970.6135     77.15044     154.9816     310.0249      1.369     2.35     840.2485       54.685     162.3862         5     0.730     0.429 -19.80   0
       297    825.3087    591.4201 307.5771550  +6.4581559      3004.76     3748.103     4267.063       77.645     154.9198     310.1175      1.303     2.53     843.4153       54.685     504.1619        17     1.104     0.781 -66.24   0
       298    449.4490    589.1830 307.7333350  +6.4466004     455.4037     396.9034     627.7126     77.27438     155.2284      309.994      1.037     4.29     840.9677       54.685     82.40344         5     0.892     0.588 -44.65   0
       299    253.1803    586.7156 307.8149307  +6.4410838     9522.513     12180.19     12465.63     77.39812      154.858     310.2101      1.263     2.43     839.9872       54.685     1837.553        27     1.210     0.845 -52.42   0
       300    805.7520    582.6854 307.5855682  +6.4611144     188373.9     241850.2     250822.1     77.76815      155.105     310.2409      1.314     2.52      843.084       54.685     31980.78       114     1.407     1.107 -59.91   0
       301    796.2192    587.3832 307.5893712  +6.4588587     2870.168     3875.093      4969.35     77.52166     154.9198     310.1483      1.409     2.83     843.3153       54.685     526.2947        14     1.080     0.698 -51.80   0
       302    739.2480    587.9545 307.6130144  +6.4567337     702.8342     971.6533     1383.698     77.76815     155.0433     310.2409      1.451     4.17     843.8616       54.685     144.3069         5     1.063     0.466  25.61   0
       303    612.6349    585.2255 307.6656918  +6.4536584     465.7149     676.3432     705.4113     77.27438     154.9816     310.0249      1.039     3.40     842.1775       54.685     92.96741         5     0.739     0.452 -73.58   0
       304    187.3756    581.3141 307.8424407  +6.4411200     71558.12     91602.57     95625.43     77.76815     154.9198     310.0558      1.276     2.56     839.7855       54.685     12187.92        68     1.358     0.996 -53.91   0
       305    735.5523    583.0059 307.6147141  +6.4586544     717.9879     1083.999     1230.385     77.27438     154.9816     309.9014      1.464     3.63     843.7191       54.685     112.1188         8     0.980     0.570 -47.17   0
       306    111.3400    577.5912 307.8741433  +6.4401202     7547.774     9984.219     10149.79     77.15044     155.0433     309.9632      1.306     2.58     839.7731       54.685     1360.152        30     1.294     0.912 -45.17   0
       307    976.6409    574.3961 307.5148660  +6.4701964      1533.88     2140.228     1945.553     77.02631     154.9198     310.0249      1.421     2.90     840.9393       54.685     259.5364        14     1.057     0.784 -47.49   0
       308    997.2605    573.0871 307.5063452  +6.4714190     787.9487      1293.22     964.5355     77.89111       155.29     310.3334      1.656     4.33      840.521       54.685     136.8525         9     1.195     0.592 -42.71   0
       309    226.1239    572.9175 307.8266292  +6.4458790     1090.336     1311.716     1415.475     77.89111     155.4748     310.3643      1.326     2.97     839.3141       54.685     220.9718        10     0.930     0.713 -28.60   0
       310    842.3865    569.9569 307.5707756  +6.4675841     5121.887     6882.087     7413.348     77.15044     154.9816      309.994      1.384     2.57     842.4052       54.685     906.9667        23     1.225     0.861 -60.52   0
       311    360.7752    568.3327 307.7708595  +6.4522584     20854.35     26115.37     26911.91     77.39812     155.0433     310.1483      1.240     2.38     838.6382       54.685      4335.35        36     1.222     0.892 -50.21   0
       312    162.5752    567.5032 307.8532028  +6.4459951      2440.36     3039.762     3834.239     77.89111     154.9198     310.1175      1.270     2.48     839.5548       54.685     412.6482        15     1.121     0.754 -52.06   0
       313    450.9622    568.1613 307.7334084  +6.4553306     924.4565     1033.304     607.6369     77.52166     155.0433     310.1175      1.159     2.72     840.4124       54.685     187.3119         7     0.847     0.514 -43.45   0
       314    907.6690    565.6276 307.5438047  +6.4715340     665.7127     931.8431     892.1406     77.52166      155.105     310.1483      1.377     4.55     841.6935       54.685     83.56726         7     0.908     0.647 -69.86   0
       315    527.0995    563.2170 307.7019512  +6.4599038     8025.788     10109.96     9946.264     77.76815     154.9816     310.0558      1.252     2.22     841.0101       54.685     1766.649        26     1.198     0.832 -56.88   0
       316    237.9543    565.0256 307.8219799  +6.4495320     1244.978     1846.017     2320.043     77.27438     155.2284     310.1175      1.463     2.89     839.1263       54.685     225.7748        11     0.958     0.734  85.68   0
       317     99.7329    564.6245 307.8793982  +6.4450865     1134.856     1680.293     1872.105     77.39812     155.0433     310.1483      1.639     3.61     839.4472       54.685     202.0564        12     1.097     0.799 -72.04   0
       318    796.2394    563.2859 307.5901646  +6.4688093     6831.616     8374.882     8631.462     77.76815     155.1667     310.2409      1.224     2.40     842.2871       54.685     1227.975        23     1.144     0.807 -52.19   0
       319    385.4096    559.9040 307.7609099  +6.4565587     1588.519     1970.668     2272.571     77.52166     154.7962     310.0249      1.240     2.37     838.8908       54.685     328.5742        12     1.043     0.639 -45.44   0
       320    571.7397    556.2665 307.6836424  +6.4642572      2966.75     4338.782     4404.718     77.89111      155.105     310.2409      1.518     3.72     841.0834       54.685     541.3168        21     1.400     0.820 -32.23   0
       321    174.1063    556.5081 307.8487820  +6.4509196     8218.854     10402.02     10984.05     77.76815     155.6593     310.2409      1.279     2.41     839.1647       54.685     1546.278        27     1.206     0.856 -50.37   0
       322    855.1923    556.0079 307.5659207  +6.4737680     756.5882     981.8677     1145.282     77.15044     154.9816     310.1175      1.411     3.61     841.6969       54.685     174.7557         6     1.041     0.413 -62.81   0
       323    812.7361    555.4557 307.5835732  +6.4725892     1644.263     2240.118     2818.389     77.89111     155.1667     310.2409      1.421     3.46     841.8115       54.685      264.045        16     1.242     0.836 -56.85   0
       324    489.8642    557.3994 307.7176104  +6.4610680      540.725      441.904     354.8913     77.02631     154.9198      309.994      0.908     2.11     840.7582       54.685     135.4417         5     0.703     0.437 -23.70   0
       325    269.3402    552.8941 307.8093506  +6.4555871     105746.1     134600.7     138453.8       77.645     155.1667     310.3026      1.278     2.48     839.0399       54.685     20625.88        76     1.316     1.012 -51.35   0
       326     45.7724    555.2598 307.9021222  +6.4471513      5993.51      8156.42     8493.522     77.39812     155.2284     310.1483      1.335     2.56      840.032       54.685      1106.67        27     1.229     0.950 -49.67   0
       327    558.9558    550.1980 307.6891544  +6.4663381     1135.617      1579.41     1746.802     77.15044     154.7344     309.9014      1.378     2.67     840.7394       54.685     208.9852         7     0.714     0.669 -21.37   0
       328    253.0815    547.8686 307.8162713  +6.4571202       1770.4     2111.055     535.9711     78.01386     155.4132     310.2717      1.241     2.61     838.7015       54.685      377.708        11     1.066     0.590 -63.69   0
       329    968.6983    546.3625 307.5190961  +6.4815089     1709.264     2122.945     2226.074     77.76815     155.0433     310.4259      1.275     3.15     839.7775       54.685     298.9932        14     1.134     0.757 -56.90   0
       330    792.4791    545.0637 307.5923327  +6.4762087     19212.67     24378.55      25271.8     78.01386     155.2284     310.2409      1.288     2.44     841.5953       54.685     3391.249        34     1.218     0.904 -55.15   0
       331    496.1183    543.6031 307.7154733  +6.4669725      48358.3     67369.35      70674.8     77.15044     154.7962     309.9632      1.441     2.62     840.3449       54.685     7683.876        62     1.408     1.152 -34.78   0
       332    646.7744    541.5972 307.6529663  +6.4728063     1109.639     1620.947     1818.081     77.27438      154.858     310.0558      1.265     4.67     841.2366       54.685     202.8093        12     1.376     0.639 -55.05   0
       333     44.0338    540.4172 307.9033417  +6.4532215      1484.82     1958.619     1724.998     77.39812     154.9816     310.0866      1.314     3.31     839.7463       54.685     270.8112        13     1.188     0.737 -56.28   0
       334    208.5124    540.0754 307.8350426  +6.4588521     2381.959     3338.214      3943.25     77.76815     155.4748     310.3334      1.452     2.99     838.2986       54.685     403.6016        18     1.307     0.765 -42.99   0
       335    656.1276    538.5559 307.6491829  +6.4743725     3644.686     4687.733     4506.914       77.645     155.2284     310.2717      1.291     2.52     841.1678       54.685     655.3382        20     1.181     0.833 -50.42   0
       336     94.4935    540.0797 307.8823965  +6.4550459      731.347     968.3555     728.2727     77.52166     155.3516     310.3026      1.249     2.73     838.9835       54.685     127.6274         6     0.766     0.493 -81.59   0
       337    666.2535    538.4208 307.6449816  +6.4747645     1570.059     1860.043     2153.817     77.27438     155.1667     310.0558      1.155     2.82     841.1783       54.685     292.1708        11     1.054     0.625 -52.03   0
       338    718.2080    537.4284 307.6234354  +6.4768983     1481.002     1871.203     1821.895     77.39812     154.9816     310.0558      1.200     2.13     842.0105       54.685     346.4756         9     0.937     0.547 -65.82   0
       339     75.2581    536.5582 307.8905033  +6.4558576     733.1324     827.3943     1019.162     77.76815     155.1667     310.3026      1.236     4.27     839.2452       54.685     114.4888         7     0.958     0.543 -54.52   0
       340    393.7440    534.2786 307.7583044  +6.4674167     2051.307     2415.178     2418.084     77.89111     155.1667     310.2409      1.223     2.34     838.4183       54.685     466.7327        11     0.958     0.665 -50.27   0
       341    325.3315    532.5550 307.7867760  +6.4658505      4656.88     5834.593     6250.162     77.76815      155.105     310.2717      1.205     2.51     838.0856       54.685     912.8722        21     1.174     0.804 -39.02   0
       342    140.4445    531.3015 307.8636064  +6.4602040     31554.94     40028.34     41192.01     77.76815      155.105     310.4567      1.260     2.55     838.8014       54.685     5338.859        44     1.275     0.944 -51.26   0
       343    868.3955    530.8890 307.5612719  +6.4845772     1866.352     2479.794     2604.908     77.27438      154.858     309.9632      1.320     2.77     840.8428       54.685     333.0035        14     1.063     0.751 -51.44   0
       344    105.5235    529.5099 307.8781697  +6.4597782     3191.536     4245.052      4603.65     77.76815     155.4132     310.2717      1.321     2.44     838.8631       54.685     518.2507        18     1.108     0.826 -50.51   0
       345    410.7218    530.6713 307.7513734  +6.4694713     577.4233     633.0501     291.3878     78.01386     155.4132     310.2101      1.128     3.46     838.6065       54.685     130.2527         5     0.756     0.457  10.27   0
       346    966.0569    525.5629 307.5208840  +6.4900099     5854.326     7850.016     8244.532     77.76815     155.2284     310.2409      1.409     2.69     839.2598       54.685      952.718        27     1.303     0.948 -55.30   0
       347    342.3977    527.6271 307.7798526  +6.4684536     1484.518     1722.253     1636.969     77.27438     154.9198     310.0558      1.227     2.84     837.7525       54.685     239.5293        11     1.028     0.645 -55.06   0
       348    505.1314    531.9272 307.7121194  +6.4720931     2602.599     3226.714     3477.992     77.89111       155.29     310.2409      1.206     2.23     839.8528       54.685       566.22        14     1.066     0.773 -49.78   0
       349    539.2070    518.1702 307.6984253  +6.4789061     1799.546     2213.433     2631.287     77.27438     154.9816     310.0249      1.272     2.54     839.2786       54.685      356.499        12     1.029     0.664 -57.37   0
       350      4.6461    515.7050 307.9205286  +6.4621088     29845.96     38749.54     40016.63       77.645      155.105     280.1581      1.316     2.60     839.8189       54.685     4781.558        49     1.313     1.001 -45.11  24
       351    437.4416    512.3052 307.7408890  +6.4779437     53129.37     65839.26     67239.84     77.76815      155.105     310.3643      1.213     2.43     838.4877       54.685     9378.214        50     1.235     0.923 -53.64   0
       352    414.1957    514.9543 307.7504555  +6.4760764      692.998     830.2816     717.7211     77.15044      154.858     309.9323      1.170     2.83     838.2664       54.685     126.5042         6     0.731     0.554 -59.24   0
       353    645.4789    511.9032 307.6544939  +6.4850240     14844.94     18713.66     19139.33     77.52166     155.4132     310.3334      1.250     2.37     840.1534       54.685     2674.141        33     1.214     0.865 -55.17   0
       354    285.4272    512.7701 307.8040112  +6.4726901     1232.762     1539.918     1618.905     77.27438     154.9198     310.0558      1.259     3.04     837.5748       54.685     207.2783        10     1.017     0.653 -49.16   0
       355    202.6242    509.9588 307.8384961  +6.4710906     22915.31     31098.98     31938.81     77.39812     154.9816     310.0249      1.416     2.56     837.5737       54.685     4299.199        46     1.275     1.112 -53.90   0
       356    168.2766    511.0112 307.8527265  +6.4695103     1999.041     2530.553     2446.348     77.39812     154.7962     310.0866      1.262     2.81     838.3204       54.685     360.3221        11     1.059     0.573 -51.11   0
       357    979.4941    510.0376 307.5158184  +6.4968650     1305.724     1835.079     1950.349     77.89111     155.0433     310.3643      1.610     3.38     838.5886       54.685     200.0044        13     1.090     0.823 -53.55   0
       358    567.1725    508.7885 307.6871227  +6.4837092     3456.196     4242.702     4022.209     77.39812     154.9816     310.1792      1.235     2.48     839.1664       54.685     667.4491        19     1.137     0.787 -55.81   0
       359    819.3831    509.7726 307.5823320  +6.4916724     1165.698     1433.867     1163.356     77.39812     154.9198     310.1483      1.170     2.80     840.7338       54.685     234.5933         9     0.952     0.590 -60.47   0
       360    908.3096    509.3712 307.5454083  +6.4947840     937.5851     995.6016     1205.772     77.89111     154.9198     310.1483      1.236     2.74     839.7704       54.685     178.0731         8     0.922     0.553 -23.64   0
       361    941.1112    505.6287 307.5319079  +6.4974152     5400.425     7086.094     7518.041     77.89111     154.9198     310.1483      1.347     2.63     839.1204       54.685     910.4234        25     1.189     0.937 -60.71   0
       362    614.2500    504.2531 307.6677200  +6.4871458     7829.126     9658.491     9650.291     77.89111     155.0433     310.2717      1.207     2.24     839.4972       54.685     1581.435        22     1.161     0.753 -55.88   0
       363    101.7388    505.1687 307.8805571  +6.4697021     1420.321     1973.745     2326.425     77.52166     155.2284     310.1792      1.330     3.45     838.7158       54.685     261.4625        11     1.082     0.685 -34.41   0
       364    963.6816    497.9545 307.5227878  +6.5013310     3850.637     5027.337     5286.443     77.76815     155.1667     310.2101      1.366     2.66     838.5082       54.685     681.9719        19     1.149     0.860 -68.74   0
       365    526.4063    495.5918 307.7044953  +6.4878033     9025.376     11462.66     11567.27     77.15044     154.9816     310.0866      1.215     2.48     838.3763       54.685     1543.644        29     1.179     0.892 -51.32   0
       366    402.4341    497.0668 307.7559382  +6.4830706     855.3817     915.7253     1144.408       77.645     155.2284     310.3026      1.163     2.62     837.6477       54.685     170.8357         8     0.912     0.558 -46.23   0
       367    372.4945    495.7938 307.7684160  +6.4825996     3238.114     4198.812     3953.157     77.52166      154.858     310.0558      1.226     2.50     837.1627       54.685     564.1624        16     1.180     0.675 -52.31   0
       368    652.4431    496.3800 307.6521186  +6.4916648     603.7848     990.5908     691.7684     77.27438     155.0433     310.0866      1.627     3.46     839.6752       54.685     114.6573         6     0.827     0.545 -45.26   0
       369    213.4955    503.6307 307.8341927  +6.4740659     652.1838     1128.602     1753.053     77.89111     154.9198     310.3026      2.196     2.91     837.1882       54.685     151.4744         5     1.007     0.612 -51.02   0
       370    535.7734    492.9109 307.7006941  +6.4892216     861.5282     1083.922     1396.274     77.89111     154.9198     310.1175      1.368     3.39     838.2532       54.685     172.0151         8     0.848     0.762  25.16   0
       371    882.9791    491.2075 307.5565336  +6.5014451     3760.106     4746.515     5605.353     77.27438     154.9816     310.0558      1.321     2.57     839.8082       54.685     701.0731        18     1.106     0.816 -50.04   0
       372    230.9411    491.0075 307.8273694  +6.4798596      720.481     726.0799      781.894     77.15044     155.0433      309.994      1.106     2.25     836.5016       54.685     158.8463         7     0.824     0.518 -46.88   0
       373    890.4436    485.5721 307.5536204  +6.5040192     2476.918     3462.266     3395.461     77.39812     155.2284     310.1483      1.358     2.41     839.5486       54.685     413.7675        15     1.045     0.793 -61.00   0
       374    929.5453    484.8346 307.5374030  +6.5056185     1391.218     1914.329     2122.259       77.645     155.1667     310.2409      1.471     3.49     838.6503       54.685     213.6746        12     1.108     0.805 -61.35   0
       375    109.0714    485.2073 307.8781805  +6.4781887     860.2474     947.0095     950.1923     77.27438     154.6725     310.1792      1.156     2.54     838.5305       54.685     203.9691         8     0.843     0.587 -46.82   0
       376    268.1157    483.9993 307.8121637  +6.4839925     588.3533     785.0647     657.7097     77.02631     154.6725     309.9323      1.427     3.23     836.2845       54.685     156.8724         7     1.013     0.499 -32.01   0
       377    714.2850    481.6965 307.6269207  +6.4997801     3496.975     4116.288     4089.481     77.76815     155.5363     310.3026      1.161     2.45     839.9173       54.685     651.2378        17     1.127     0.771 -52.56   0
       378     76.0777    480.8921 307.8920285  +6.4788687     2328.169     2889.965     2901.073     77.52166     155.4132     310.2717      1.293     2.62     838.7137       54.685     437.2493        17     1.196     0.791 -68.41   0
       379    425.3096    480.2371 307.7469990  +6.4907809     1301.855     1428.938     1323.912     77.89111      155.105     310.2717      1.156     3.00     837.4717       54.685     243.9114        11     1.067     0.582 -51.10   0
       380    385.1049    479.9992 307.7637061  +6.4895410     4553.443     6009.451     6290.408     77.27438     154.7962     309.9014      1.313     2.41      836.958       54.685     988.4224        22     1.184     0.828 -55.75   0
       381    612.8710    476.4962 307.6692181  +6.4985609     12187.49     15227.74        15820       77.645     155.3516     310.2717      1.265     2.38     838.2703       54.685     2541.014        29     1.213     0.838 -48.81   0
       382    775.5983    472.9530 307.6017441  +6.5054240     19336.83     24537.12     25076.65     77.15044      154.858     309.8396      1.261     2.36     839.7262       54.685     3755.875        35     1.206     0.896 -53.14   2
       383    779.8566    468.0616 307.6001380  +6.5075849      1693.66     2244.273     2492.504     77.89111      155.105     310.2717      1.423     2.84     839.4254       54.685     329.0392        12     1.042     0.705 -49.32   3
       384    295.3745    473.5276 307.8011921  +6.4892246     3223.301     4072.881     3487.241     77.39812     155.0433     310.1483      1.183     2.52     835.9473       54.685     560.8132        15     1.053     0.706 -53.98   0
       385    419.1306    472.8482 307.7498122  +6.4936261      902.681     1078.922     571.2224     77.76815      155.105     310.2717      1.271     3.43     837.0513       54.685     168.4567         6     0.777     0.542 -37.96   0
       386    804.6934    470.1236 307.5897528  +6.5075568     1423.412     1900.421     2016.572     77.52166     155.3516     310.2409      1.308     2.84      839.614       54.685     291.3802        10     0.932     0.663 -50.29   0
       387    378.4216    470.0152 307.7668156  +6.4934408     2104.138     2724.265       3384.7     77.52166     154.9198     310.1792      1.263     2.61      836.465       54.685     393.8732        12     1.013     0.666 -50.31   0
       388    960.7367    467.7807 307.5250134  +6.5136926     1981.041     2429.052     2230.098     77.39812     155.1667     310.0866      1.340     2.92      837.701       54.685     342.0065        15     1.135     0.759 -51.10   0
       389    848.7098    467.8788 307.5715440  +6.5099425     416.7296     565.5054     604.4103     77.52166     155.4132     310.3026      1.572     4.63     839.3139       54.685     73.48022         5     1.361     0.448 -29.11   0
       390    112.9119    465.2251 307.8772549  +6.4865673     5325.271     6659.377     6862.688     77.89111     154.9816     310.1175      1.291     2.55      838.225       54.685     1118.766        22     1.272     0.758 -49.78   0
       391    709.1027    466.8787 307.6295669  +6.5057265     821.5031     949.8613     680.7964     77.52166     155.4132     310.2717      1.217     2.38     838.9638       54.685     207.4584         6     0.847     0.589 -45.98   0
       392    366.9042    465.8491 307.7717387  +6.4947775     926.0896     1192.395     1586.077       77.645     155.0433     310.3951      1.253     2.33     836.2167       54.685     200.8843         8     0.813     0.609 -42.34   0
       393   1014.9071    462.5837 307.5026844  +6.5176307     4411.669     7193.455     7450.255     77.52166     154.9816     310.0866      1.720     3.46     836.9875       54.685     557.8058        32     1.363     1.240  -4.26  16
       394    751.1232    463.9205 307.6122111  +6.5083419     2595.812     3316.311     2909.068     78.01386     155.4132     310.3951      1.273     2.83     839.0645       54.685     497.7627        16     1.057     0.792 -45.20   0
       395    270.7176    462.2015 307.8118122  +6.4930794     1868.995      2359.49     3125.591     77.02631     154.7344     309.9632      1.208     2.20     835.6199       54.685      451.908        14     1.059     0.804 -42.56   0
       396    349.0852    459.7464 307.7793439  +6.4967039      3989.31     4991.472     4481.221     77.76815      155.105     310.3951      1.249     2.53     835.9013       54.685      825.689        20     1.146     0.762 -54.02   0
       397    704.8399    457.3822 307.6316538  +6.5095062     1909.076     2299.691     1992.564     77.39812     154.9816     310.0249      1.201     2.38     838.3077       54.685     406.7358        12     0.958     0.690 -52.74   0
       398    979.0750    455.8525 307.5177922  +6.5192247     683.9975     1064.172     1467.193     77.76815     155.2284     310.2409      1.558     3.31     837.1957       54.685     105.5284         6     0.759     0.556 -34.85   0
       399    408.7243    455.8644 307.7547019  +6.5002923     624.9315     774.8736     366.9352     77.89111     155.1667     310.2101      1.149     3.44       836.04       54.685     120.1243         5     0.983     0.348 -44.95   0
       400    236.6407    455.3917 307.8261939  +6.4947551     1002.718     1195.368     1007.453     77.15044     154.9816     309.9632      1.083     2.42     835.7916       54.685     208.7198         7     0.785     0.594 -17.72   0
       401    546.1787    449.9747 307.6978045  +6.5072958     1042.986     1401.589     1378.542     77.39812     154.9816     310.1792      1.380     3.12      836.698       54.685     182.4421         9     0.927     0.655 -75.79   0
       402    468.4135    448.8077 307.7301448  +6.5051920      1620.22     1912.273     1592.913     77.39812     154.9198     310.1175      1.239     3.17     836.4648       54.685     315.6896        12     1.170     0.595 -59.66   0
       403     42.5028    449.1235 307.9070383  +6.4908642     536.3382     604.5062     1046.887     77.39812     155.3516     310.3026      1.314     3.64     838.6966       54.685      92.7796         5     0.826     0.670 -44.24   0
       404    831.1374    447.4789 307.5795218  +6.5177834     1778.253     2070.421     2414.393     78.01386     155.2284     310.2409      1.292     2.69     838.1064       54.685     305.9102        11     0.922     0.759 -65.63   0
       405    816.7779    446.4156 307.5855219  +6.5177466     2434.826     2806.543     2884.638     77.52166     154.9816     310.1792      1.229     2.62     838.0771       54.685     464.7568        13     0.982     0.744 -48.71   0
       406    714.0439    444.6657 307.6282542  +6.5150623     18413.99     23158.54     24002.81     77.76815      155.105     310.2717      1.260     2.40     837.6323       54.685     3652.405        35     1.231     0.879 -50.96   0
       407    616.3015    446.6761 307.6687874  +6.5109875     886.8218      997.608     1407.208     77.39812       155.29     310.2101      1.122     2.67     836.9767       54.685      163.888         6     0.737     0.522 -43.65   0
       408    635.3004    440.5923 307.6610984  +6.5141305      3141.64     3665.394     4457.797     77.52166     154.7962     310.0558      1.152     2.50     836.8205       54.685     610.1334        14     0.992     0.697 -50.78   0
       409    707.9487    439.4117 307.6309610  +6.5170295     810.7808     1034.423     1337.096     77.15044     155.0433      309.994      1.305     3.36     837.2111       54.685     174.0162         6     0.930     0.492  -0.33   0
       410    610.3168    437.7181 307.6715719  +6.5144876     6562.215     8227.846     8839.596     77.52166     155.4132     310.3334      1.226     2.46     836.5272       54.685     1234.616        21     1.095     0.813 -55.79   3
       411    606.5457    435.2132 307.6732219  +6.5153966     17785.67     22241.57     23128.28     77.15044      155.105      309.994      1.210     2.37     836.3818       54.685     3572.129        32     1.239     0.812 -54.07   3
       412    939.3071    434.4223 307.5350233  +6.5267573     4640.993     5851.685     5290.191     77.76815     154.9816     310.0866      1.307     2.68     836.8177       54.685     683.1437        22     1.136     0.933 -77.44   0
       413    378.4608    430.7357 307.7681120  +6.5096605     36205.82     45264.06     46167.96     77.76815      155.105     310.2717      1.211     2.45     834.9496       54.685     6526.975        40     1.234     0.883 -53.80   0
       414    415.6266    432.0816 307.7526294  +6.5103419     683.1498     696.9873    -103.6021       77.645     154.9816     310.2409      1.126     3.26     834.7134       54.685     121.3668         5     0.745     0.440 -70.38   0
       415    895.0552    430.2607 307.5535436  +6.5270104     1622.229     2122.866     2678.746     77.89111     155.1667     310.2101      1.319     2.90     836.8862       54.685      301.973        13     1.076     0.745 -56.97   0
       416    124.4897    430.2548 307.8736177  +6.5013925     2824.901     3301.098     3706.997     77.76815     154.9816     310.3643      1.150     2.39     837.3969       54.685     545.4514        14     1.053     0.679 -51.83   0
       417     57.8288    425.7740 307.9014556  +6.5010168     1764.319     2471.612     2875.399     77.27438     154.9816     310.1175      1.482     2.92     838.4407       54.685     325.4724        13     1.073     0.740 -55.73   0
       418    908.1372    424.8832 307.5482882  +6.5296640     5779.192     7461.319     7436.294     77.89111     155.2284     310.2101      1.328     2.50     836.6051       54.685     1088.402        25     1.171     0.891 -56.58   0
       419    891.4348    426.1639 307.5551837  +6.5285821     776.1927     1232.598     1480.242     77.52166     154.9198      309.994      1.694     3.70     836.7098       54.685     118.8532         7     0.866     0.778   7.84   0
       420    590.0695    426.1483 307.6803680  +6.5185922     757.6024     1111.513     1413.357       77.645     155.0433     310.2101      1.240     2.19     835.9523       54.685     185.1317         6     0.856     0.417 -56.27   0
       421    718.7657    424.3970 307.6269678  +6.5235880     427.4256     423.3677      384.693     77.02631     154.9816      309.994      1.312     4.47     836.3575       54.685     71.02826         5     1.140     0.498 -57.47   0
       422    964.0175    422.7066 307.5251480  +6.5324126     721.2439     844.2508     1013.495       77.645     154.9816     310.1175      1.165     2.80     836.4085       54.685     122.0953         7     0.746     0.633   3.17   0
       423    235.9999    421.3345 307.8275998  +6.5087957     17186.78      21648.6     21751.11     77.02631     154.7962     309.9632      1.253     2.35     835.3329       54.685     3682.198        30     1.182     0.852 -54.46   0
       424     71.4625    415.4297 307.8961396  +6.5057431      971.063     1173.714     1143.578     77.52166     155.1667     310.1792      1.310     2.88     838.2467       54.685     153.5104         9     0.921     0.658 -58.94   0
       425   1007.9808    414.5255 307.5071573  +6.5372453     616.6181     622.9226     269.4998     77.39812     155.0433     310.1792      1.159     4.88     836.0939       54.685     94.00446         7     0.976     0.848 -15.86   0
       426    730.7752    415.0430 307.6222907  +6.5278487     860.0607     928.3236     834.4085     77.39812      155.105     310.1175      1.099     2.57     835.9603       54.685     199.4539         8     0.951     0.513 -38.89   0
       427    959.1531    413.2210 307.5274838  +6.5361683      1157.19     1417.219      1596.49     77.39812     155.1667     310.0866      1.325     3.00     836.0654       54.685     203.7201        12     1.025     0.764 -53.81   0
       428    698.9120    414.1341 307.6355567  +6.5271668     901.7762     879.0826     1077.323     77.76815     155.3516     310.2101      1.076     1.94     835.6898       54.685     229.3323         6     0.710     0.525 -34.37   0
       429    348.9173    411.0380 307.7810418  +6.5168098     1549.185       1933.8     1806.402     77.76815      155.105     310.2101      1.275     2.47     834.2916       54.685     302.3547        10     0.906     0.663 -59.82   0
       430    181.9579    411.0491 307.8503911  +6.5112401     1083.401     1228.903     1282.796     77.76815      155.105     310.2101      1.234     3.54     835.7466       54.685     170.4376         7     0.870     0.541 -45.04   0
       431    136.2018    409.9960 307.8694317  +6.5101481     6329.681     8025.262     8000.626     77.15044     154.7344      309.994      1.287     2.35     836.7157       54.685     1307.458        24     1.168     0.849 -55.03   0
       432    376.2295    410.4628 307.7697163  +6.5179567     594.3192     683.3564     361.8699     77.52166     155.1667     310.1792      1.102     2.61     834.0018       54.685     126.5271         5     0.727     0.440 -23.94   0
       433    240.9980    408.8426 307.8259418  +6.5141201      1718.39     2071.982     1635.479     77.15044      154.858     309.9323      1.247     2.77      834.926       54.685     367.2383        13     1.110     0.716 -58.16   0
       434    433.9194    408.5693 307.7458164  +6.5206588     897.6855     749.0643      510.999       77.645      155.105     310.2101      1.246     2.93      833.906       54.685     165.0168         9     0.983     0.662 -51.22   0
       435    629.2241    408.5493 307.6646905  +6.5271594     607.1474     467.3017     150.7559     77.39812     155.1667     310.1483      1.001     2.53     835.1396       54.685     127.9935         5     0.698     0.477 -15.96   0
       436    822.4385    406.3548 307.5845034  +6.5344755      906.562     1110.812     1321.801     77.52166      155.105     310.1483      1.165     3.06     835.9998       54.685      156.605         8     0.887     0.648 -83.80   0
       437    158.2927    405.7047 307.8603997  +6.5126571     2955.538     3899.195     3589.745     77.76815     155.7208     310.2101      1.345     2.78      835.986       54.685     616.6914        19     1.311     0.758 -67.63   0
       438    553.9290    404.6933 307.6960958  +6.5262501     1202.253     1052.806     598.2736       77.645     155.2284     310.2409      1.129     2.67     834.7308       54.685     247.2778         9     0.948     0.568 -53.90   0
       439    269.8727    401.1565 307.8142053  +6.5182562     832.9897     1047.276     872.4524       77.645     155.2284     310.2717      1.290     2.52     834.0204       54.685     199.6174         8     0.953     0.504 -57.13   0
       440    381.6819    400.4319 307.7677867  +6.5222800     2543.136     3149.417     3211.616       77.645     155.0433     310.2101      1.152     2.23     833.3447       54.685     568.5182        16     1.097     0.745 -44.80   0
       441      1.3353    400.5663 307.9257656  +6.5095371     540.9797     583.3358      341.194      67.3492     123.1955     233.4275      1.040     3.11      838.803       54.685     155.6913         5     1.003     0.304 -67.80  24
       442    970.4639    399.4148 307.5232439  +6.5422434     1084.533     1313.149     1879.479     77.27438     155.0433     310.1175      1.531     2.46     835.3489       54.685     178.2078        10     0.914     0.680 -64.45   0
       443    315.7262    398.4980 307.7952478  +6.5208819     597.2241     1032.983     1265.382     77.39812       155.29     310.2101      2.015     3.07     833.4639       54.685     127.1298         6     0.898     0.626 -64.11   0
       444    589.1148    396.2622 307.6817612  +6.5309005     498.5288     518.4861     807.9814     77.89111     155.2284     310.2409      1.080     2.60     834.1629       54.685     122.6968         6     0.737     0.568  57.47   0
       445     31.9356    395.0896 307.9132393  +6.5128208     3769.834     5243.588     5519.705       77.645     155.3516     310.2717      1.440     3.21     838.4675       54.685     730.4662        22     1.373     0.854 -47.25   0
       446    435.6178    394.0233 307.7455968  +6.5267213     9229.512     11516.24     12028.74     77.52166      155.105     310.1792      1.234     2.42     833.1835       54.685     1808.154        24     1.149     0.814 -51.81   0
       447    776.2077    391.2479 307.6042104  +6.5391807     15604.82     19413.03     19940.06     77.27438     155.0433     309.8705      1.244     2.42      835.577       54.685     3141.335        27     1.151     0.831 -57.05   0
       448    768.3174    392.6302 307.6074421  +6.5383483     2312.472     2931.882     3336.259       77.645     154.9816     310.2101      1.214     2.48      835.606       54.685     462.0343        13     1.031     0.676 -54.95   0
       449    339.4154    389.7895 307.7856990  +6.5252667     1408.559     1756.154     1695.354     77.52166     154.9198     310.1175      1.344     3.20     832.9384       54.685     224.5135        12     1.086     0.712 -36.01   0
       450    290.5699    390.1877 307.8059751  +6.5234750     426.3135     419.7127    -19.54629     77.27438     154.9198     310.1483      0.993     2.36      833.357       54.685      96.6084         5     0.696     0.464 -70.54   0
       451   1020.1983    386.2361 307.5030215  +6.5493304     4009.667     5468.834     5520.522     76.90197     154.9816     281.6909      1.403     2.70     833.9506       54.685     678.2545        22     1.175     0.910 -61.95  16
       452    951.0804    382.7871 307.5318485  +6.5484676     678.0785     931.2338     1006.147     77.39812     154.9198     310.0866      1.326     3.51     834.8719       54.685     119.4703         6     0.748     0.574 -41.00   0
       453    184.5516    382.3623 307.8502743  +6.5231711     948.0875     1132.719      762.892       77.645     155.1667     310.1483      1.124     3.28     835.2839       54.685     194.3818         8     0.987     0.591 -55.27   0
       454    390.7121    380.2064 307.7647116  +6.5309317     606.8568     802.3325     897.9653     77.27438      154.858      309.994      1.478     3.89     832.1837       54.685     126.4893         6     0.924     0.470 -53.68   0
       455    523.6344    379.2239 307.7095297  +6.5357594      562.129     605.3677     655.7867     77.27438     154.9816     310.0249      1.049     2.10     832.9163       54.685     122.1393         5     0.675     0.466 -75.40   0
       456    483.7410    377.5430 307.7261573  +6.5351269     3855.271     4648.501     4341.173     77.89111     155.1667     310.2717      1.191     2.49      832.851       54.685     729.8967        19     1.144     0.774 -47.11   0
       457    455.9451    378.2230 307.7376808  +6.5339215     2787.548     3211.354     3030.685     77.39812     155.1667     310.0558      1.209     2.28     832.5798       54.685     628.4674        15     1.085     0.666 -51.21   0
       458    912.3525    377.2888 307.5481192  +6.5494557      967.632     1380.664     1180.526     77.76815     155.0433     310.3951      1.568     3.20     835.1007       54.685     157.5579         8     0.947     0.549 -68.74   0
       459    841.5596    374.1273 307.5776325  +6.5484161     39021.16     51726.68     53530.95       77.645     155.1667     310.3026      1.352     2.81     835.1656       54.685     6472.305        50     1.365     0.976 -66.89   0
       460    427.1896    372.5518 307.7498150  +6.5353063     558.5981     597.2932     519.2977     77.27438     155.0433     309.9323      1.021     2.04     832.0268       54.685     121.4389         5     0.682     0.453 -23.75   0
       461    333.6605    370.1209 307.7887471  +6.5331960     898.5905     1136.073      855.212     77.89111     155.1667     310.2101      1.131     2.74     831.8646       54.685     248.3184         8     1.067     0.474 -53.04   0
       462     59.7240    370.6137 307.9025177  +6.5238549      811.258     1092.396     818.0617     77.39812     154.9198     310.0558      1.453     4.75     838.0213       54.685     140.0679         9     1.208     0.653 -23.27   0
       463    613.3864    366.6076 307.6726677  +6.5439511     3330.645     4328.663     4492.125     77.39812     154.9198     310.0866      1.235     2.60     832.3674       54.685     618.4293        19     1.195     0.739 -53.75   0
       464     21.3728    367.2936 307.9185588  +6.5239444     1395.484     1676.938     1418.843     77.89111     154.9198     310.0866      1.219     3.08     838.3818       54.685     262.4896        12     1.100     0.665 -53.67   0
       465    144.5434    365.3346 307.8674630  +6.5288666     825.8763     1169.301     876.7911     77.89111      155.105     310.2409      1.363     4.29     836.1351       54.685     130.4182         8     1.064     0.493 -85.59   0
       466    697.9952    360.1869 307.6377347  +6.5494113     97951.02     121539.1     124778.1     77.39812     154.9198     310.1175      1.246     2.34      834.118       54.685     21843.11        61     1.261     0.920 -56.47   0
       467    856.2513    361.4167 307.5719523  +6.5541512     1441.352     1891.771     2111.701     77.27438     155.2284     309.9632      1.316     2.88     834.8107       54.685     240.0198        11     1.002     0.690 -75.88   0
       468     77.3752    359.8506 307.8955467  +6.5288884      1655.63     1984.578     1897.306     77.39812     155.1667     310.1483      1.216     2.59     837.7675       54.685     346.7404        11     0.954     0.712 -39.35   0
       469     63.4798    359.6818 307.9013241  +6.5284940     427.5052     485.6284     100.0147     77.89111     155.4132     310.3643      1.252     3.45     837.9092       54.685     116.2958         5     0.811     0.424 -67.51   0
       470    939.4856    357.2620 307.5375134  +6.5586232     968.6663     1383.338     1167.996     77.89111     155.3516     310.2409      1.445     2.70     834.1702       54.685     184.3703         9     0.925     0.639 -56.94   0
       471    560.3846    356.9600 307.6950066  +6.5461737     3295.483     4219.825     4622.018     77.27438     154.9816     310.0249      1.253     2.41     831.4355       54.685     607.4543        18     1.090     0.777 -48.38   0
       472    387.3980    357.5347 307.7668458  +6.5401823     702.9984     831.2476     724.8655     77.15044     154.7962     310.0249      1.215     3.09     830.9237       54.685     144.8354         5     0.723     0.455 -21.25   0
       473     97.7029    355.9967 307.8872323  +6.5311584     7341.334      9446.89     9461.787     77.52166      154.858     309.9323      1.293     2.40     837.5027       54.685     1457.075        22     1.114     0.861 -52.35   0
       474    543.7154    353.2006 307.7020565  +6.5471719     8879.601     11164.46     11446.71     77.02631     154.6725     309.9323      1.217     2.21     831.1071       54.685     1981.113        27     1.180     0.844 -54.42   0
       475    272.6971    350.7787 307.8147175  +6.5391509     3366.205     4064.531     3357.516       77.645     154.9816     310.0558      1.214     2.53     832.8763       54.685       640.91        15     1.047     0.720 -56.19   0
       476    406.6371    348.4143 307.7591588  +6.5445885     32155.98     40274.89     41175.96     77.39812     154.9816     310.0249      1.210     2.43     830.7389       54.685     6549.426        39     1.225     0.889 -52.37   0
       477    585.2825    347.5167 307.6849789  +6.5509002     756.3765     678.2131     348.8575     77.52166     155.4132     310.3334      1.088     3.13      831.075       54.685     146.3673         7     0.972     0.474 -46.86   0
       478    514.2862    347.1719 307.7144827  +6.5486828     1715.276     2257.709     2256.198     77.89111      154.858     310.0866      1.298     2.72     830.8719       54.685     328.6229        11     1.014     0.599 -56.68   0
       479    386.5131    346.5483 307.7675806  +6.5446891     1557.197      1961.15     2230.919     77.76815     155.0433     310.3334      1.179     3.31     830.4808       54.685     316.9546        11     1.119     0.569 -48.54   0
       480    485.9865    343.6766 307.7263552  +6.5491849     1438.108     1889.773     1854.564     77.39812      154.858     310.0558      1.286     2.56     830.7227       54.685     300.9698        11     1.030     0.619 -71.86   0
       481    383.6644    341.1419 307.7689446  +6.5468265     1134.553     1299.492     1686.139     77.89111      155.105     310.2717      1.222     3.04     830.2988       54.685     199.6001        11     0.901     0.851 -10.68   0
       482    801.5648    340.7228 307.5953585  +6.5608834     1115.179      1662.23     1462.232       77.645     155.2284     310.2717      1.533     3.44      834.193       54.685     186.6451         8     1.004     0.591 -77.98   0
       483    637.6058    340.2057 307.6634870  +6.5556569     686.6807     877.7443     1088.057     77.15044     154.9816     310.0558      1.245     2.97     831.7404       54.685     136.5981         5     0.737     0.440 -68.98   0
       484    495.7230    338.7621 307.7224747  +6.5515379     10937.98     13796.84      14146.2       77.645     155.2284     310.2409      1.241     2.42     830.5267       54.685     2116.479        31     1.217     0.875 -49.31   0
       485    764.8174    337.2812 307.6107387  +6.5610860     3904.909      4838.37     5040.839     77.39812      154.858     310.1483      1.197     2.35     833.8166       54.685     857.9891        18     1.098     0.726 -51.70   0
       486    712.5703    336.9628 307.6324537  +6.5594843      927.415     1175.788     1348.553     77.39812     154.9198     310.1175      1.265     2.96     833.2645       54.685     173.4262         9     0.895     0.770 -50.45   0
       487    920.7157    336.8163 307.5459904  +6.5664440     1019.061     1421.072     1166.425     77.39812     154.9198     310.1483      1.273     3.12     833.6045       54.685     182.0549         9     0.921     0.623 -63.78   0
       488    110.7203    335.6430 307.8825073  +6.5399968     489.2455     765.5125     593.2999     77.76815     155.1667     310.2101      1.634     5.85     836.7346       54.685     86.23077         8     1.486     0.647  57.91   0
       489    322.2255    335.6580 307.7946495  +6.5470446     1292.155     1572.109     1293.492     77.39812     155.1667     310.0866      1.171     2.68     830.9958       54.685     262.3873         8     0.959     0.495 -54.41   0
       490     80.3859    332.7869 307.8952034  +6.5401631     484.6094     557.0782     778.4874       77.645      154.858     310.1792      1.168     4.15     837.2873       54.685     91.61383         6     0.745     0.659  15.99   0
       491    258.0533    329.0999 307.8215258  +6.5476137     876.9531     1230.189     1564.083     77.76815     155.1667     310.4567      1.377     5.04      832.417       54.685     132.7261        10     1.182     0.608 -58.69   0
       492    157.7299    329.3173 307.8631921  +6.5441778      1407.31     1738.697     1540.432     78.01386     155.4132     310.2717      1.259     2.99     835.3282       54.685     268.1105        11     0.986     0.691 -52.49   0
       493    434.4414    328.7644 307.7482653  +6.5536273     549.4978     733.1768     552.1909     77.52166     155.1667     310.0866      1.057     2.62      830.049       54.685     119.6499         5     0.720     0.437 -65.63   0
       494    385.5631    322.9655 307.7687633  +6.5543947     9309.362     11776.89     12096.75     77.52166     154.9198     310.0249      1.248     2.42     829.8483       54.685     1750.134        25     1.170     0.824 -53.89   0
       495    753.4855    318.7115 307.6160645  +6.5683777      65842.6     81821.99     84911.95     77.52166     155.4132     310.3643      1.194     2.38     832.6907       54.685     11596.39        62     1.287     0.954 -57.71   0
       496    739.1745    322.7080 307.6218766  +6.5662528     1150.474     1417.759     1892.178     77.89111     154.9198     310.0866      1.244     3.31     832.7681       54.685     206.1271        12     1.170     0.677 -48.69   0
       497    674.2734    323.5804 307.6488088  +6.5637389      507.609     637.6135     568.3984     77.39812      155.105     310.1792      1.177     4.26     831.9858       54.685     116.9832         5     1.171     0.441 -39.00   0
       498    241.4549    323.6013 307.8286047  +6.5493306     2727.331      3185.79     3358.475     77.15044     154.9198     309.9014      1.205     2.71     832.6489       54.685     442.7748        15     1.042     0.743 -45.55   0
       499    425.0735    318.2848 307.7525068  +6.5576425     3027.648     3826.416     3906.341     77.89111     155.4748     310.2717      1.239     2.32     829.5746       54.685     646.9105        15     1.069     0.717 -52.81   0
       500    988.2676    315.7982 307.5186257  +6.5773584     1902.833     2312.895     2148.112     77.27438     154.7344     310.0558      1.255     2.61     831.0708       54.685     361.3189        13     0.984     0.783 -81.26   0
       501    571.2313    315.6515 307.6918789  +6.5635904     1480.391     1785.246     1732.762       77.645       155.29     310.1792      1.179     3.31     829.9044       54.685      259.644        11     1.200     0.548 -56.17   0
       502    929.2462    314.8173 307.5431779  +6.5758100     2767.178      3394.68     3406.085     77.27438     155.0433      309.994      1.285     2.50     832.4711       54.685      494.713        15     1.085     0.770 -45.54   0
       503    462.1061    314.6199 307.7372456  +6.5603880     1342.606     1821.689     1630.531       77.645     154.9816     310.0866      1.300     2.80     829.4553       54.685     249.9284         9     0.966     0.637 -59.97   0
       504    411.6234    313.9330 307.7582395  +6.5589917     2327.278     3106.657     3290.583     77.39812      155.105     310.1792      1.303     2.29      829.436       54.685     498.8033        14     1.150     0.627 -49.32   0
       505    291.5872    313.6756 307.8081120  +6.5551000     854.5777     983.0383     880.5735     77.39812      154.858     310.0558      1.151     3.44     831.0936       54.685      127.383         6     0.830     0.516 -49.67   0
       506    833.0004    307.9268 307.5833907  +6.5754670     1302.952     1646.591     974.4887     77.02631     154.5488     310.0866      1.355     2.93      832.839       54.685     268.8337        12     1.018     0.779 -71.44   0
       507    462.1479    308.9076 307.7374189  +6.5627480     968.2381     1178.915     993.6093       77.645     155.0433     310.4567      1.275     3.02     829.1963       54.685     170.2714         8     0.850     0.616 -47.36   0
       508    442.2637    305.4246 307.7457955  +6.5635245     1410.939     1502.199     1255.469     77.39812     155.1667     310.1792      1.126     2.65     829.0206       54.685     267.5833         9     0.978     0.529 -62.76   0
       509    188.1264    305.3298 307.8513690  +6.5550961      2724.89     3369.534      3676.55     77.89111       155.29     310.2409      1.246     2.41     833.9452       54.685     564.8176        13     1.037     0.660 -43.94   0
       510    751.9724    303.2956 307.6172064  +6.5746927     7474.172     9305.892     9452.938     77.89111     154.9198     310.1483      1.241     2.29     831.7349       54.685     1633.491        24     1.153     0.816 -57.02   0
       511    223.3946    303.5359 307.8367786  +6.5570132     920.0675     1418.391     1360.122     77.15044     154.9198     310.0249      1.443     3.44     832.6578       54.685     203.0953         9     1.123     0.604 -42.31   0
       512     84.3797    302.7859 307.8945501  +6.5526834     1409.596     1959.515     2488.929     77.52166      154.858     310.1483      1.399     3.13     836.6194       54.685     235.0342        12     1.146     0.625 -54.12   0
       513    342.4912    302.9896 307.7873235  +6.5612082     820.9448     1112.486     914.3116     77.52166     154.7962     310.0249      1.380     2.93     829.9202       54.685     140.1462         8     0.786     0.702 -17.44   0
       514    768.3141    301.2066 307.6104871  +6.5760973     3117.049     3883.931     3706.613     77.27438      154.858      309.994      1.227     2.29     831.9277       54.685     582.7561        18     1.193     0.751 -36.89   0
       515     71.3235    296.6671 307.9001787  +6.5547737     1520.145     2015.629     2143.074     77.89111     155.2284     310.2101      1.341     2.49     836.7516       54.685     296.1881        12     1.073     0.654 -53.38   0
       516    359.3886    296.2939 307.7805280  +6.5645356       1222.7     1794.935     2160.257     77.52166      154.858     310.0249      1.500     2.75     829.5995       54.685     242.1136         9     0.980     0.580 -53.56   3
       517    356.6182    296.1270 307.7816844  +6.5645122     1803.663     2289.776     2715.023     77.27438      155.105     310.1792      1.202     2.63     829.6329       54.685     371.1072        12     1.064     0.661 -45.65   3
       518   1006.5846    291.9978 307.5118067  +6.5877918     6575.599     8938.438     9020.268     77.39812     154.7962     310.0558      1.400     2.82     829.7439       54.685     1043.013        29     1.265     0.979 -57.35   0
       519    484.5260    292.1922 307.7286809  +6.5703941     2454.634     3002.771     2950.158     77.39812     154.7344     310.1175      1.211     2.62     828.4938       54.685     534.6132        15     1.046     0.697 -58.46   0
       520    247.1268    287.8089 307.8274466  +6.5642981     7275.301     9318.034       9926.5     77.39812     154.7344     310.0866      1.284     2.33      831.543       54.685     1508.555        22     1.153     0.825 -55.24   0
       521    914.9683    286.5269 307.5500499  +6.5870185     777.7051     909.4319     609.2459       77.645     155.1667     310.2717      1.188     2.67     831.3404       54.685     151.3752         7     0.898     0.544 -56.79   0
       522    811.8491    286.1346 307.5929029  +6.5837640     775.9023     904.7615     716.6789       77.645     155.0433     310.2101      1.296     3.74     831.9705       54.685     129.9679         7     0.880     0.612 -53.12   0
       523    938.0963    282.6738 307.5405696  +6.5893752     646.5806     821.3917     1236.627     77.52166       155.29     310.2409      1.383     3.01     830.8954       54.685     114.9719         7     0.714     0.697   0.13   0
       524    766.5936    280.7530 307.6118829  +6.5844856     958.0551     1239.651     1507.666     77.27438     154.9816     309.9014      1.160     2.52     831.0237       54.685     205.0659         7     0.889     0.460 -77.02   0
       525    223.7455    280.3760 307.8374082  +6.5665874     742.4047     801.3442     441.8606     77.39812     155.1667     310.0558      1.199     4.08     832.2985       54.685     135.3713         7     1.026     0.531 -44.40   0
       526    118.9073    281.4632 307.8809221  +6.5626402     616.4363     1003.119     1557.466     77.76815       155.29     310.3026      1.404     2.31     835.4244       54.685     120.5818         6     0.750     0.499  -0.90   0
       527    381.3855    278.6705 307.7719793  +6.5725447     1835.193     2508.916     2136.932     77.27438      155.105     310.1483      1.338     2.78     828.9008       54.685     337.0163        17     1.077     0.923 -83.06   0
       528    786.5134    278.8139 307.6036720  +6.5859468     587.9755     723.1791     538.5899     77.39812     154.9816     310.1483      1.179     1.99     831.4004       54.685     142.8077         5     0.684     0.458 -66.83   0
       529    968.2009    277.2350 307.5282435  +6.5926174     1338.717     1703.981       2202.5     76.90197     154.9816     310.0558      1.331     3.08      830.199       54.685     234.9364        11     1.066     0.644 -51.38   0
       530    303.4627    274.6844 307.8044831  +6.5715949     1601.094     1847.344     1649.171     77.89111     155.2284     310.2101      1.157     2.60     830.1215       54.685     276.2017        13     1.029     0.707 -65.01   0
       531    150.8878    274.5207 307.8678699  +6.5665742     2393.143     3027.806     3150.822     77.52166     155.4132     310.3643      1.259     2.32     834.5583       54.685     460.5364        13     1.024     0.706 -68.13   0
       532    560.6874    270.0665 307.6977799  +6.5820619     2774.284     3340.377     3524.052     77.76815     155.3516     310.2409      1.199     2.55     828.3608       54.685     566.3712        16     1.072     0.833 -69.10   0
       533    904.4809    269.1939 307.5549831  +6.5938281     2125.043      2843.23     2744.885     77.39812     154.7344     310.0249      1.350     2.61     831.0338       54.685     354.0184        16     1.050     0.777 -62.23   0
       534    842.2672    269.7382 307.5808115  +6.5915423     476.2774     562.1982     21.74175     77.76815      155.105     310.2409      1.206     4.35     831.4169       54.685     90.05493         5     0.749     0.720 -44.76   0
       535    724.2720    267.4243 307.6299088  +6.5885851     6354.643     7816.873     7977.988     77.39812     155.0433     310.2101      1.195     2.47     829.9144       54.685     1085.482        23     1.129     0.816 -50.81   0
       536    665.2458    267.3079 307.6544346  +6.5866741     2663.217     3168.429     3267.054     77.76815      155.105     310.3643      1.177     2.15     829.4025       54.685     562.4513        14     0.990     0.759 -56.06   0
       537    962.2908    267.0449 307.5310375  +6.5966293     890.5248     952.5312     943.5938     77.76815      155.105     310.3643      1.098     2.77     830.1327       54.685     176.8458         7     0.841     0.558 -60.47   0
       538    380.0370    261.8480 307.7731017  +6.5794457     1036.719     1378.316     1041.382     77.52166     155.1667     310.1483      1.312     3.20     828.6296       54.685     209.4857        11     1.154     0.610 -48.01   0
       539    920.1697    259.4960 307.5487877  +6.5983519     1310.392      1578.28     1286.739     77.89111     154.9198     310.2717      1.248     2.59     830.6611       54.685     214.4254        11     0.941     0.702 -51.45   0
       540    223.8222    252.9344 307.8382950  +6.5779202     2947.096     3632.731     4049.838     77.39812     155.1667     310.1792      1.259     2.67     832.2871       54.685     582.4293        17     1.100     0.748 -46.17   0
       541    866.6585    251.4934 307.5712851  +6.5998838     2101.178     2625.528      2750.36       77.645     155.1667     310.3643      1.247     2.40     830.7938       54.685     376.2618        12     0.954     0.691 -58.78   0
       542    577.7626    246.8656 307.6914603  +6.5922090     548.8399     476.2066     358.2611       77.645      155.105     310.3026      1.044     2.64     827.7656       54.685     132.2516         5     0.892     0.342 -45.38   0
       543    245.4991    246.6165 307.8295015  +6.5812517     671.5763     819.1409     370.8816     77.76815     154.9198     310.0558      1.062     3.48     831.7755       54.685     145.7738         6     0.973     0.435 -35.04   0
       544    756.9479    251.0813 307.6168782  +6.5964172     1995.831     2569.491     2455.313     77.76815     155.1667     310.2717      1.229     2.43     829.9442       54.685     473.6036        11     0.973     0.623 -50.29   0
       545    457.7277    242.7121 307.7414661  +6.5899327     29027.34     36281.35     36902.81     77.89111     155.4132     310.2409      1.222     2.38     827.4979       54.685     5349.373        39     1.212     0.899 -53.57   0
       546    318.7940    244.2147 307.7991333  +6.5846864     897.6989      1110.17     1020.429     77.39812     154.9198     310.0866      1.276     3.72     829.7938       54.685     137.7606         9     0.979     0.656 -61.79   0
       547    783.7156    241.7057 307.6060697  +6.6011761     16080.22     20646.21     21627.62       77.645     155.5363     310.3643      1.249     2.39     830.0775       54.685     3055.021        38     1.303     0.982 -37.60   0
       548    463.3213    237.1761 307.7393272  +6.5924046     1844.247     2544.404     2990.175     77.39812     154.9816     310.2409      1.275     2.57     827.3527       54.685     386.0352        12     1.066     0.597 -58.04   0
       549    145.8618    236.1892 307.8712420  +6.5822329     2996.773      3956.54     4257.558     77.27438     154.9816     310.0249      1.327     2.49     833.7013       54.685     641.0313        19     1.167     0.789 -53.48   0
       550    722.5229    237.0831 307.6316463  +6.6010550     870.3243     1172.236     805.8834     77.89111     155.4748     310.3334      1.401     3.71     829.1267       54.685      122.941         6     0.793     0.498 -87.01   0
       551    120.4932    235.1581 307.8818152  +6.5818118     1425.707     1760.039     2145.843     77.89111      155.105     310.3334      1.278     2.79     834.4162       54.685     229.2731        12     0.968     0.773 -57.12   0
       552    776.5408    234.0730 307.6093046  +6.6040897     792.1793     1190.193     1365.638     77.89111     155.1667     310.2409      1.672     5.34     829.7158       54.685     121.2015         7     1.251     0.644   3.72   0
       553    172.6467    234.1637 307.8601829  +6.5839632     736.5701     949.6105     936.3528     77.52166     155.2284     310.1483      1.201     2.64     833.0429       54.685     166.1115         5     0.747     0.424 -68.90   0
       554    920.1912    231.8213 307.5496988  +6.6097796     1611.397     2128.562      1950.29     77.39812     154.9816     310.0249      1.291     2.80     830.0709       54.685     323.8054        10     0.951     0.643 -58.69   0
       555    302.0498    229.4276 307.8065840  +6.5902339     1433.063     1736.776     1716.405     77.39812       155.29     310.1792      1.272     3.10     830.4229       54.685     266.3909        11     1.073     0.633 -67.22   0
       556    581.7941    228.3362 307.6904035  +6.5999937     5833.253     7280.364     7338.063     77.15044     154.9198     310.0249      1.202     2.35     827.2316       54.685     1253.859        23     1.171     0.769 -58.32   0
       557    544.4252    228.3960 307.7059264  +6.5987270     2697.151     3140.241     3192.509     77.27438     154.9198     310.0866      1.160     2.46     827.0533       54.685     485.8148        14     1.001     0.695 -50.68   0
       558    386.2657    227.6229 307.7716582  +6.5937844     1959.454     2448.874     2052.863     77.39812     155.1667     310.1483      1.199     2.50      827.972       54.685     378.6479        13     0.950     0.718 -49.70   0
       559    942.6820    225.3668 307.5405693  +6.6131893      2984.15     3683.084     3507.601     77.76815      155.105     310.1792      1.191     2.60     829.6829       54.685     538.4998        17     1.134     0.728 -57.08   0
       560    888.7930    224.8418 307.5629757  +6.6116216     13237.38     16678.58     17228.54     77.15044      154.858     309.9632      1.261     2.27     829.9263       54.685     2706.789        28     1.158     0.853 -55.39   0
       561    316.4214    225.2941 307.8007519  +6.5924195     1293.207     1648.074     1571.163       77.645     154.9816     310.0866      1.152     2.37     829.8672       54.685     238.2576        11     0.940     0.652 -41.81   0
       562    975.4907    222.6025 307.5270303  +6.6154167     11280.89     14416.46     14529.21     77.15044      154.858      309.994      1.284     2.52     829.0773       54.685     1891.814        28     1.242     0.853 -54.20   0
       563    563.9424    224.7571 307.6979394  +6.6008782     1122.954     1567.523     1447.231       77.645      155.105     310.2717      1.431     2.53     827.0573       54.685     258.0685         8     0.927     0.533 -60.38   0
       564    207.8899    225.1855 307.8458427  +6.5888460     796.5353     1077.945     1318.546     77.52166     154.9816     310.0866      1.381     2.10     832.4543       54.685     186.7297         6     0.730     0.516 -57.75   0
       565     14.9060    221.8202 307.9261250  +6.5837916     30952.04     39961.17     41359.09       77.645     154.9816     310.0866      1.318     2.49     837.9108       54.685     5987.583        48     1.273     0.996 -52.85   0
       566    686.8575    222.7834 307.6469400  +6.6057757     3469.948     4225.612     4248.471     77.15044      155.105      309.994      1.188     2.28     828.2925       54.685     721.0963        16     1.099     0.699 -55.52   0
       567    261.2536    222.6310 307.8237594  +6.5916803      1527.63     1827.925     1652.694       77.645     155.2284     310.1483      1.229     2.77     831.5654       54.685     274.0806        12     1.002     0.695 -49.48   0
       568    495.4958    217.7144 307.7266104  +6.6015104     2641.644      3260.55     2855.174     77.76815     155.5363     310.3334      1.178     2.27     826.7414       54.685     494.0117        16     1.094     0.702 -53.14   0
       569    827.3921    214.2383 307.5888382  +6.6139654     2402.176     3065.308     3211.908     77.02631     154.9198     309.9632      1.185     2.13     829.0402       54.685     473.2062        13     1.037     0.618 -50.15   0
       570    879.6143    213.3915 307.5671699  +6.6160455     2389.443     3032.471     2935.836     77.39812     154.9198     310.1175      1.165     2.58     829.0873       54.685     465.9948        13     1.028     0.690 -55.20   0
       571    738.9963    210.8466 307.6256763  +6.6124346     49310.34     61302.38     62869.07     77.15044     154.9198     309.9014      1.237     2.15     828.2083       54.685     11120.43        50     1.230     0.917 -58.15   0
       572    507.4814    213.5762 307.7217693  +6.6036177     3171.189     3928.369     3717.805     77.52166     154.9198     310.1483      1.155     2.49     826.6133       54.685     592.8566        14     1.017     0.714 -49.38   0
       573    342.0521    210.4432 307.7906006  +6.5994052     7235.731     12377.17     13290.26     77.76815     155.1667     310.2717      1.852     6.19     828.8168       54.685     1047.131        34     1.868     0.854 -70.31   0
       574    972.7518    209.4828 307.5286042  +6.6207432     3194.782     3995.008     4055.934     77.76815     155.1667     310.2717      1.252     2.66     828.5714       54.685     572.1642        16     1.078     0.755 -50.63   0
       575   1011.2416    208.0817 307.5126594  +6.6225953     2043.711      2572.99     2348.965     77.76815     155.1667     310.1792      1.343     2.94     828.3656       54.685     322.2461        14     1.088     0.724 -56.45   0
       576    906.9274    207.8517 307.5560065  +6.6192375     8937.571      11362.5     11496.56     77.76815     155.1667     310.2717      1.299     2.31     828.7313       54.685     1824.814        25     1.184     0.839 -58.09   0
       577    450.3299    207.1295 307.7457280  +6.6043783     6396.684     7982.093     8114.987     77.76815       155.29     310.2101      1.227     2.37     826.7353       54.685     1207.185        21     1.131     0.771 -52.78   0
       578    316.9132    206.0220 307.8011922  +6.6003931     612.7272     686.3931     683.8392     77.76815     154.9816     310.0866      1.318     4.07     830.0018       54.685     90.02698         7     0.903     0.524 -44.57   0
       579    224.8658    204.0093 307.8394995  +6.5981556     854.1011     979.8082     1099.971     77.27438     154.9816     310.1483      1.203     2.35     832.2642       54.685     176.6153         7     0.833     0.512 -44.50   0
       580    107.7590    198.5988 307.8883306  +6.5964813     5972.585     7594.006     7271.659     77.15044      154.858     309.9323      1.271     2.53     834.1497       54.685     1019.762        24     1.182     0.830 -56.30   0
       581    927.2294    197.5191 307.5479151  +6.6241762     872.2827     932.1701     1236.629       77.645     155.0433     310.2409      1.019     2.09     828.0281       54.685     188.9168         7     0.768     0.587  75.07   0
       582    278.0549    195.2586 307.8176956  +6.6035422     42696.28     53411.58     54786.16     77.89111     155.1667     310.2717      1.276     2.42     831.6432       54.685     8911.492        46     1.221     0.930 -55.75   0
       583    253.3319    196.3177 307.8279311  +6.6022806     8271.916     10328.37     10689.19     77.89111     155.4132     310.2717      1.222     2.35     831.9284       54.685      1457.81        28     1.227     0.853 -48.76   0
       584    604.0435    196.9466 307.6822071  +6.6136936     728.6298     784.3254     559.3585     77.76815     155.1667     310.2409      1.131     2.41     826.4114       54.685     160.1986         7     0.824     0.524 -41.27   0
       585    707.1100    194.4771 307.6394692  +6.6181355     1098.631     1370.124     1208.357       77.645     155.4132     310.2717      1.247     2.61     827.0469       54.685     187.5455        10     0.933     0.630 -55.86   0
       586    402.1179    190.6527 307.7663082  +6.6095768     63251.92      78947.7     81217.33     77.76815     155.1667     310.2717      1.236     2.40     827.0848       54.685      12729.7        55     1.264     0.923 -51.42   0
       587    158.0297    192.0689 307.8676654  +6.6008556     5067.669     6369.053     6706.391     77.52166     155.1667     310.1792      1.293     2.67     832.8093       54.685     1010.731        21     1.175     0.800 -48.80   0
       588    419.4447    191.1156 307.7590943  +6.6099625     1704.183     1976.199     2430.596     77.76815      155.105     310.2409      1.165     2.47     826.6913       54.685     350.6739        13     1.086     0.633 -51.59   0
       589    539.4025    189.5001 307.7093112  +6.6146200      601.016     927.2872     1100.227     77.27438     154.9198     309.9632      1.697     5.18     825.8453       54.685      132.284         6     1.490     0.509 -61.12   0
       590    306.1488    188.4151 307.8062532  +6.6073041     23031.37     28755.81      29428.4     77.15044     155.1667      309.994      1.234     2.42     830.7457       54.685     4470.309        35     1.209     0.863 -53.39   0
       591    741.4064    186.7451 307.6254778  +6.6224661     40927.24      51067.7     52079.35     77.27438     154.9198     309.9632      1.208     2.44     826.8561       54.685     7608.609        47     1.260     0.890 -52.47   0
       592    313.5014    188.4646 307.8031969  +6.6075287     2623.961     3362.735     3915.007     77.76815     155.2284     310.2717      1.254     2.51      830.326       54.685     421.4396        15     1.064     0.738 -56.50   3
       593    314.3268    184.4414 307.8029886  +6.6092173     783.2784     1179.444     1831.638       77.645     155.2284     310.2717      1.597     4.84     830.3667       54.685     172.6439         8     1.249     0.531 -22.02   3
       594    789.8121    187.0944 307.6053550  +6.6239273     1538.913     2061.461     2324.955     77.52166     154.9198     310.0558      1.318     2.66     827.1093       54.685     342.3605        12     1.186     0.610 -48.11   0
       595    689.4496    188.4982 307.6470057  +6.6200181      1121.48     1155.077     896.6412     77.76815      155.105     310.4259      0.992     2.28     826.6513       54.685     203.5159         6     0.776     0.454 -19.51   0
       596     28.6465    187.4995 307.9215683  +6.5984211     835.7255     1026.164     1342.294     77.76815     155.0433     310.4567      1.336     3.38     837.4239       54.685     144.9891         8     0.908     0.685 -48.41   0
       597     58.2223    184.2625 307.9093903  +6.6007459     11311.76     14689.82     15313.64     77.39812     155.1667     310.1483      1.297     2.50     836.0381       54.685     2065.313        32     1.209     0.936 -47.09   0
       598     91.8448    182.3102 307.8954879  +6.6026751     1876.711      2284.85     2576.402     77.76815     155.0433     310.3334      1.287     2.50     834.3773       54.685     388.9745        14     1.026     0.779 -48.61   0
       599    999.8445    180.9245 307.5182967  +6.6334316     1226.872     1457.601     1300.459       77.645     155.2284     310.2717      1.279     3.21     827.9035       54.685     262.4302        11     1.049     0.735 -62.81   0
       600    612.5743    179.6154 307.6792409  +6.6211330     381.9106     422.7334     144.3725     77.52166     155.0433     310.1792      0.984     3.38     825.9514       54.685     98.33789         5     1.006     0.328 -67.10   0
       601    726.0125    174.8606 307.6322694  +6.6268625     819.6713     1015.513     1250.689     77.15044     155.0433     309.9323      1.349     2.75     826.1294       54.685     158.7752         7     0.877     0.486 -52.03   0
       602    575.1725    171.1775 307.6950616  +6.6233743     922.5291     1057.844     871.3388     77.27438     154.9816     310.1792      1.213     3.00      825.438       54.685     176.9272         9     1.038     0.595 -67.89   0
       603   1000.7088    167.2451 307.5183921  +6.6391084     2390.899     3133.755     3199.495     77.76815      155.105     310.3643      1.298     2.72     827.6638       54.685      421.558        17     1.122     0.786 -57.35   0
       604    269.6232    165.0064 307.8222110  +6.6157518     751.8019     1119.772     1574.827     77.27438     154.9816     310.1175      1.795     4.87     832.1078       54.685     135.6461         8     1.053     0.745 -64.19   0
       605    583.9620    164.9205 307.6916186  +6.6262498     1348.248     1638.507     1641.059       77.645     155.2284     310.2409      1.302     2.69     825.3143       54.685      290.481        10     0.927     0.652 -60.42   0
       606    592.1672    163.1233 307.6882695  +6.6272645     2465.596     2836.242     2507.115       77.645     155.1667     310.1792      1.205     2.51     825.3087       54.685     505.8943        13     1.008     0.663 -58.16   0
       607    336.2172    163.2489 307.7946031  +6.6186969     1217.111     1547.302     2308.798     77.27438     155.2284     310.0249      1.099     2.64     829.2628       54.685     259.1565        10     1.008     0.587 -47.79   0
       608    276.9554    161.4798 307.8192828  +6.6174523     38650.56     48353.73     49811.68     77.76815     155.1667     310.2409      1.264     2.41     832.1406       54.685      7323.95        45     1.227     0.933 -51.23   0
       609     22.1983    160.0856 307.9251668  +6.6095242     5375.584      7009.43     6952.873     77.02631     154.7962     309.9632      1.300     2.50     837.8338       54.685     1026.192        21     1.173     0.794 -50.32   0
       610    708.5609    157.9210 307.6400845  +6.6332777     9862.688     12434.04     12915.47       77.645     155.2284     310.2409      1.224     2.32      825.276       54.685     2051.815        27     1.209     0.812 -52.19   0
       611    186.0316    159.3514 307.8571283  +6.6152987     1228.077     1666.115     1461.524     77.52166     155.1667     310.1792      1.315     2.44     832.4135       54.685     218.3043         9     0.860     0.631 -62.78   0
       612    262.7528    156.3640 307.8253545  +6.6190911     992.4917     1179.141     1182.528     77.39812     155.2284     310.1792      1.217     3.42     832.1807       54.685     158.9753        10     1.045     0.621 -64.77   0
       613    119.3515    155.3113 307.8849656  +6.6147410     6004.502     7566.115     7497.083     77.76815     155.0433     310.3334      1.256     2.38     833.2845       54.685     1047.132        24     1.171     0.854 -50.93   0
       614    581.2437    153.2613 307.6931370  +6.6309735     907.5387     1043.915     1055.836     77.76815     155.1667     310.3643      1.080     3.19     824.8875       54.685     228.8888         7     0.973     0.507 -64.28   0
       615    458.3492    152.2493 307.7442297  +6.6273048     1613.241     2016.036     2177.213     77.76815     155.0433     310.1792      1.222     2.40       825.15       54.685      299.332        12     0.898     0.795 -53.14   0
       616    390.0518    151.1195 307.7726426  +6.6254980     4754.452      6648.93     6755.111     77.76815     155.1667     310.2409      1.458     3.00      826.997       54.685     864.5983        28     1.388     0.962 -74.77   0
       617    647.1816    152.0343 307.6657824  +6.6336706     901.5633     1040.012     842.9708     77.27438     154.9816     310.0558      1.109     2.76     825.0828       54.685     203.1113         6     0.870     0.461 -52.04   0
       618    566.8487    149.6558 307.6992380  +6.6319838     841.3176     1325.823     1291.264     77.76815     155.1667     310.3334      1.466     5.39     824.6622       54.685     168.2883        10     1.466     0.559 -60.72   0
       619    354.5193    149.9839 307.7874430  +6.6247835     4080.352     5216.576     5567.252     77.39812     154.9198     310.0866      1.264     2.50     828.3721       54.685     727.5099        20     1.109     0.850 -57.46   0
       620    108.8141    150.2115 307.8895143  +6.6164948     2191.287     2772.627     2636.469     77.52166      154.858     310.1792      1.271     2.47     833.4202       54.685     460.5911        15     1.088     0.747 -51.91   0
       621    937.0607    149.2161 307.5454363  +6.6444461     693.8994     968.5716     1312.007     77.27438      155.105      309.994      1.465     3.43     825.2271       54.685     117.8613         7     0.814     0.750 -39.30   0
       622    670.3093    147.7877 307.6563149  +6.6361920     900.8154     1192.354     888.6117     77.52166     154.9198     310.0558      1.271     3.41     824.9563       54.685     173.3872         9     1.026     0.590 -87.45   0
       623    744.4499    148.1437 307.6254991  +6.6385055     592.5721     769.1908     674.0571     77.76815     155.1667     310.2717      1.313     3.55      824.993       54.685     130.2789         5     0.890     0.508 -38.39   0
       624   1001.3807    143.9764 307.5188860  +6.6487384     1727.574     2243.132     2102.479     77.52166     155.0433     310.1792      1.376     2.73     826.4199       54.685     314.5873        14     0.960     0.865 -47.22   0
       625    727.0603    144.2748 307.6328530  +6.6395260     687.5179     702.8537     409.0672     78.01386     155.1667     310.2101      1.132     3.30      824.858       54.685     136.2633         7     1.070     0.426 -55.64   0
       626    206.4036    139.0235 307.8493456  +6.6243714     6911.615     8697.533     8583.021     77.39812      154.858     310.0866      1.248     2.34     832.3853       54.685     1320.576        23     1.180     0.788 -54.68   0
       627     89.0205    138.9758 307.8981142  +6.6204727     2736.272     3532.465     3563.704     77.39812     154.9816     310.2101      1.359     2.69     833.9642       54.685     496.8096        17     1.100     0.805 -40.81   0
       628    845.2868    139.1241 307.5839031  +6.6455732     530.8078      901.796     1217.349     77.76815     155.4748     310.3026      1.899     5.04     824.8365       54.685     89.25494         5     0.966     0.745  12.42   0
       629    668.1559    137.6829 307.6575464  +6.6402927     7662.094     9492.999     9524.378     77.76815     155.1667     310.2101      1.203     2.37       824.64       54.685     1653.781        22     1.106     0.766 -51.66   0
       630    815.9814    137.5479 307.5961316  +6.6452527     1470.244     1718.375     1295.462     77.27438     155.2284     310.0249      1.330     3.47     824.8091       54.685     263.0782        11     1.074     0.704 -37.46   0
       631    255.0888    135.7282 307.8292293  +6.6273558     1010.109     1276.148     928.8679     77.76815     155.4132     310.2717      1.332     4.12     832.2375       54.685     174.9677        10     1.109     0.628 -65.09   0
       632    620.2779    134.9411 307.6775303  +6.6398348     11869.82     14818.83     15685.77     77.89111     155.1667     310.1792      1.231     2.33      824.545       54.685     2361.906        25     1.134     0.811 -60.30   0
       633    558.3649    134.5663 307.7032664  +6.6379322     796.8548     947.3143     1006.068     77.52166     154.9198      309.994      1.145     3.14     824.0086       54.685     135.3644         6     0.845     0.480 -87.20   0
       634     19.0813    134.3816 307.9273242  +6.6200326     1172.096     1529.399      1125.84     77.39812      154.858     310.1792      1.303     4.03     838.0669       54.685     218.0918        11     1.190     0.601 -64.34   0
       635    347.5373    130.7557 307.7909868  +6.6324900     4576.832     6179.581     6297.254     77.76815      155.105     310.3026      1.404     3.00     829.0681       54.685     891.7348        26     1.552     0.788 -48.07   0
       636    529.2746    129.9824 307.7155058  +6.6388578     2195.872     2771.593     2787.265     77.27438     154.9198     310.1483      1.222     2.28     823.7943       54.685     489.8484        13     1.009     0.701 -43.55   0
       637    993.6935    129.3055 307.5225675  +6.6545417     944.5013     1172.156     691.7119     77.76815     155.6593     310.2101      1.334     3.86     825.3159       54.685     179.1282        11     1.297     0.609 -52.31   0
       638    623.8558    126.4765 307.6763261  +6.6434486     66584.39     82015.19     84651.88     77.76815     155.1667     310.1792      1.208     2.27     824.2604       54.685      13575.3        53     1.237     0.909 -56.04   0
       639    689.8036    127.4489 307.6488933  +6.6452370     615.6873     730.6609     851.1185     77.15044     154.9198     309.8396      1.170     2.24     824.3098       54.685     138.4888         5     0.686     0.473 -18.14   0
       640    302.8745    120.3888 307.8098895  +6.6352822     4465.521     5658.621     5618.291     77.27438     154.7962     310.0866      1.239     2.55     831.4354       54.685     931.5402        20     1.163     0.794 -56.19   0
       641    703.0102    114.7417 307.6438296  +6.6509221     1234.677     1617.956     1120.855     77.15044     155.0433     309.9632      1.241     2.60     823.9548       54.685     236.7233         8     0.941     0.517 -51.63   0
       642    674.1103    113.6370 307.6558741  +6.6504189     1716.746     2195.781     2294.823     77.76815      155.105     310.2717      1.178     2.16     823.8822       54.685     373.0612        11     0.989     0.605 -61.94   0
       643      1.9385    103.2101 307.9354921  +6.6323296     467598.4     639977.7     678763.4     73.72544     131.7534     242.9492      1.480    10.20     839.2611       54.685     62714.95       246     2.164     1.341 -86.81  28
       644    688.2336    110.3715 307.6501149  +6.6522361     3789.171     4793.704      4359.51     77.27438     154.9198     310.0249      1.206     2.43     823.7778       54.685     713.7361        17     1.094     0.735 -64.14   0
       645    566.1711    110.5818 307.7008235  +6.6480947     479.2063     544.2696     332.5403     77.39812     154.9816     310.1792      0.998     2.27     823.1954       54.685     105.8583         5     0.689     0.467 -18.12   0
       646     60.0887    108.8734 307.9111434  +6.6319348     548.1066     756.0197     844.6901     77.76815     155.4132     310.2717      1.407     3.38     835.5026       54.685      131.291         5     0.923     0.396 -46.23   0
       647     68.6883    104.9875 307.9077010  +6.6338265       485.78     810.0251      726.819     77.52166     154.9198     310.1175      1.765     3.71     834.8972       54.685     110.7488         5     1.228     0.322 -41.25   0
       648    429.9903    101.5680 307.7577054  +6.6472869     5219.058     6411.924     6086.226     77.27438     154.9198     310.0866      1.238     2.37     825.2798       54.685     970.3951        22     1.178     0.772 -57.11   0
       649    884.6215     97.4814 307.5689452  +6.6640708     2440.764     3360.053     3088.101     77.52166      154.858     310.1792      1.390     2.80     823.5576       54.685     418.8224        20     1.343     0.844 -60.37   0
       650    902.5406     96.7317 307.5615246  +6.6649739     4533.746     5802.396     5638.659     77.89111      155.105     310.2409      1.274     2.55     823.4452       54.685     798.6476        22     1.191     0.819 -56.97   0
       651    582.6298     97.5368 307.6944204  +6.6540280     960.0701     1171.842     1362.962     77.52166     155.1667     310.1792      1.069     2.61     822.9723       54.685     202.6191         7     0.805     0.597 -71.01   0
       652    594.5995     95.4248 307.6895176  +6.6552977     2230.337     2613.714     2270.807     77.39812      154.858     310.0558      1.093     2.30     823.0821       54.685      434.424        14     1.124     0.641 -63.73   0
       653    614.8453     95.3192 307.6811091  +6.6560140      756.019     784.0878     371.2758     77.76815     155.1667     310.2409      1.236     2.48     823.2932       54.685     139.9828         6     0.715     0.606  57.96   0
       654    240.5335     94.7243 307.8366493  +6.6438003     1111.242     1334.469     1862.735     77.89111     155.2284     310.2101      1.134     2.31     832.3256       54.685     179.8169         8     0.788     0.630 -36.33   0
       655    393.3764     93.3862 307.7731913  +6.6494462     2584.319     3195.617     3208.838     77.52166     154.9816     310.1792      1.178     2.72      827.187       54.685     465.8574        15     1.058     0.707 -55.73   0
       656    141.2145     90.4315 307.8780571  +6.6422587     4071.435     5341.776     5202.178     77.39812     154.9198     310.1792      1.265     2.65      832.369       54.685     681.0024        20     1.162     0.776 -58.11   0
       657    289.4084     88.7822 307.8165419  +6.6478833     1710.861      2434.08     2657.631     77.52166     154.9198     310.0866      1.456     2.48     831.8983       54.685     319.6442        15     1.172     0.718 -39.24   0
       658     23.1419     88.2954 307.9271836  +6.6391963      15271.8     19757.54     20580.01       77.645     155.1667     310.3643      1.314     2.59     836.6567       54.685     2802.089        32     1.216     0.924 -50.54   0
       659    562.6062     87.7559 307.7030664  +6.6574009      780.678     938.8649     798.9011     77.27438     154.9198     309.9323      1.107     3.17     822.5103       54.685      159.572         7     0.998     0.469 -41.52   0
       660    550.0801     87.7515 307.7082711  +6.6569863     919.2896     1052.944     952.0233     77.76815     155.2284     310.2101      1.041     2.17     822.3383       54.685     211.7713         7     0.818     0.487 -50.15   0
       661    758.1406     87.2712 307.6218384  +6.6640938     804.4033     957.9526     1387.325     77.89111     155.1667     310.3026      1.177     1.90     823.1611       54.685     207.5601         6     0.682     0.591 -56.75   0
       662    152.2311     86.7957 307.8736019  +6.6441276     617.8546     977.5433     965.8667     77.27438     155.0433     310.0249      1.704     3.49     832.1975       54.685     96.33667         6     0.755     0.558 -49.89   0
       663    824.8514     82.5506 307.5942768  +6.6682551     7556.764     9556.236     10170.67     77.89111     155.0433     310.2101      1.270     2.40     823.1598       54.685     1391.644        26     1.214     0.859 -58.71   0
       664    891.8332     84.1290 307.5663928  +6.6698229     732.5432      1148.29     1400.381       77.645     155.1667     310.2409      1.521     2.45     823.1212       54.685     144.5865         6     0.743     0.534 -55.78   0
       665    769.9724     82.9473 307.6170662  +6.6662716     4008.583     5050.836     5423.129     77.52166       155.29     310.1483      1.245     2.20     823.0412       54.685     932.3041        17     1.106     0.700 -51.35   0
       666    414.8802     83.6257 307.7645831  +6.6541921     1405.568     1913.852     2025.606     77.52166     154.9816     310.2409      1.340     2.59     826.1317       54.685     301.7269        12     1.020     0.726 -50.30   0
       667     94.6920     83.4976 307.8976181  +6.6435680     686.3244     947.9905     751.3561     77.76815     155.6593     310.1792      1.518     3.08     832.3833       54.685     112.4865         7     0.911     0.519 -58.62   0
       668    915.4700     82.3609 307.5566303  +6.6713358     579.6273      904.731     854.1754       77.645     155.1667     310.3026      1.732     4.31     822.9508       54.685     86.45947         5     0.984     0.539 -45.60   0
       669    756.8569     81.9965 307.6225474  +6.6662292     700.5703     1098.161     1452.153     77.15044     154.9816     309.9323      1.436     2.07     822.9695       54.685      180.385         8     0.789     0.612 -49.85   0
       670    532.2579     81.2048 307.7158947  +6.6590969     1492.144     1875.458     2059.049     77.15044     155.0433     309.9632      1.241     2.58     822.3739       54.685     284.1292        11     0.946     0.694 -29.59   0
       671     63.3075     80.1299 307.9107702  +6.6439100     3854.471     5041.435       5183.9     77.76815       155.29     310.2409      1.318     2.58     833.7043       54.685     667.0973        21     1.133     0.852 -60.97   0
       672    424.7274     79.3947 307.7606331  +6.6562669     1134.595     1422.198     1327.849     77.39812     154.7344     310.1483      1.087     3.69     825.7402       54.685     253.4716        10     1.182     0.621 -51.02   0
       673     47.9991     81.0961 307.9170979  +6.6429995     1130.932     1411.476     909.9712     77.27438     154.7962     309.8705      1.200     2.44     834.5052       54.685      223.829         9     0.798     0.690 -34.84   0
       674    652.1674     79.9749 307.6661136  +6.6635892     644.7888     879.0555     770.0052     77.27438     154.9816     310.0866      1.087     2.94       822.92       54.685     173.8752         7     1.033     0.468 -54.86   0
       675    587.2034     76.5112 307.6932217  +6.6628613     1607.222     1849.468     1549.153     77.27438      154.858     309.9323      1.101     2.37      822.618       54.685     303.9648         9     0.944     0.544 -59.73   0
       676      5.6965     75.6524 307.9348557  +6.6438331     3192.851     4348.129     5235.746       77.645     155.1667      291.606      1.450     2.68     835.7018       54.685     524.7615        18     1.092     0.846 -39.98  16
       677     78.4200     71.3266 307.9047867  +6.6480495     1041.757     1389.658     1366.974     77.39812      155.105     310.1792      1.367     2.98     832.3597       54.685     193.6185        10     0.993     0.718 -28.90   0
       678    764.7307     70.2817 307.6196661  +6.6713274     2426.284     2965.866     2675.796     78.01386     155.4132     310.2717      1.211     2.46      822.532       54.685     492.5401        15     1.128     0.654 -59.19   0
       679    405.2213     70.7543 307.7690265  +6.6591850     1362.152     1394.915     803.4607     77.39812     155.1667     310.0866      1.070     2.53     826.9484       54.685     231.0909        10     0.880     0.688 -63.38   0
       680    102.1539     69.9138 307.8949734  +6.6494257     1040.938     1290.608     1024.146     77.76815     155.0433     310.2409      1.217     2.24     831.6337       54.685     234.2521         7     0.829     0.495 -49.22   0
       681     91.1639     64.4127 307.8997239  +6.6513299     11520.48     14894.55     14950.53     77.27438     154.9816     309.9632      1.310     2.55     831.5011       54.685      1962.19        29     1.184     0.927 -57.04   0
       682    420.2244     64.0003 307.7630186  +6.6624731     3149.102     3984.561     3857.373     77.39812      154.858     310.0558      1.240     2.28     826.3097       54.685     657.4037        17     1.102     0.705 -54.48   0
       683    241.6399     63.6451 307.8372302  +6.6566693     787.0834     999.9713     933.8566     77.52166     155.1667     310.1175      1.099     2.69     831.3605       54.685     140.7833         6     0.804     0.500 -41.99   0
       684    633.9420     56.2433 307.6744778  +6.6727826     23118.56     28673.09     29390.06       77.645      155.105     310.2717      1.235     2.19     822.3228       54.685     5172.736        41     1.237     0.903 -56.29   0
       685    257.7086     58.2543 307.8307344  +6.6594309     1838.304      2468.64       3679.2       77.645     155.0433     310.3643      1.377     2.59      831.139       54.685     331.0302        14     0.980     0.793 -62.38   0
       686    663.9711     57.4312 307.6619608  +6.6732894     621.0035     853.3539     989.8624     77.27438     154.9198      309.994      1.211     4.25     822.3477       54.685     141.0672         7     1.156     0.446 -37.76   0
       687    943.1146     55.8344 307.5460256  +6.6832040      501.911     756.0917     910.2911     77.76815     155.0433     310.2409      1.279     3.84     821.9251       54.685     100.3862         5     0.803     0.527  51.11   0
       688    251.6804     52.7209 307.8334243  +6.6615145     2284.243     3197.274     4310.869     78.01386     155.4132     310.3951      1.576     2.61     831.0021       54.685     448.2065        16     1.223     0.777 -33.64   0
       689    533.7224     52.2401 307.7162532  +6.6711049     6637.323     8074.473     8608.821       77.645     155.1667     310.2717      1.185     2.39     822.0419       54.685     1374.826        21     1.090     0.789 -50.42   0
       690    769.4448     51.6852 307.6183267  +6.6791622     458.1873     596.7331     977.9086     77.76815      155.105     310.2409      1.211     3.42     821.8489       54.685     99.88898         5     0.769     0.440 -68.46   0
       691    689.8884     51.2554 307.6513978  +6.6766998     668.8866     1029.626     1550.191     77.76815     155.0433     310.3951      1.555     3.83     822.0874       54.685     134.9043         6     1.170     0.359 -61.25   0
       692    701.0000   1018.0615 307.6145818  +6.2778714     424.6918     514.4383     704.7476     77.02631     154.9198     301.9563      1.521     3.82     855.2005       54.685     70.73529         5     1.451     0.289  90.00  16
       693    621.5817     49.8521 307.6798268  +6.6750108     1109.831     1438.465     1737.889     77.27438     155.2284      309.994      1.205     2.37     822.1735       54.685     235.4589         7     0.798     0.579 -61.47   3
       694    620.0850     45.8873 307.6805809  +6.6765982     3773.954     4664.494     5117.812     77.52166     155.3516     310.3026      1.256     2.17      822.074       54.685     874.8124        17     1.116     0.724 -68.57   2
       695    505.5305     49.5507 307.7280568  +6.6712778     680.5289     720.2584     827.6829     77.76815      155.105     310.2717      1.076     3.10      822.155       54.685     129.5682         5     0.910     0.492 -47.03   0
       696    439.2986     47.9490 307.7556298  +6.6697354     28573.36     35741.93     36348.02     77.76815     155.1667     310.4567      1.252     2.33     825.2736       54.685     5731.196        39     1.207     0.899 -56.32   0
       697    319.9927     48.6539 307.8051774  +6.6654710     1305.983     1535.163     2284.874     77.27438     154.9816     309.9323      1.246     2.79     830.3284       54.685     213.9766        11     0.954     0.708 -72.64   0
       698    210.8184     49.2419 307.8505184  +6.6615880     535.9584     451.1207     451.1052     77.27438     154.9816     310.0249      1.067     2.92     830.9166       54.685     127.4163         5     0.856     0.420 -46.79   0
       699     25.2281     48.1419 307.9276642  +6.6558445     2761.124     3584.007     3240.093     77.39812     155.2284     310.1483      1.335     2.44     831.1128       54.685     506.0552        19     1.075     0.943 -29.99   0
       700    917.1058     47.6153 307.5571062  +6.6857365     2246.444     2847.435      2793.91     77.52166     154.9816     310.0558      1.287     2.50     821.9972       54.685     405.8517        14     1.010     0.783 -55.05   0
       701    552.3889     47.7764 307.7086462  +6.6735685     767.6816     805.4249     890.3965     77.39812     154.9816     310.1483      1.131     3.49     821.9707       54.685     135.3434         7     0.979     0.514 -44.72   0
       702    524.6389     47.7439 307.7201775  +6.6726593     743.1513     853.8298     1395.502     77.76815     155.2284     310.2101      1.105     3.88     822.0384       54.685     140.5015         6     0.876     0.491 -49.32   0
       703    247.6690     45.0824 307.8353468  +6.6645346     3816.058     4809.007     5196.494     78.01386     155.4132     310.2717      1.279     2.82      830.766       54.685     731.7577        18     1.208     0.757 -44.43   0
       704    300.6924     43.2384 307.8133777  +6.6670638     1480.987      1863.85     2382.606     77.89111      155.105     310.3026      1.393     2.66     830.5128       54.685     271.5178        14     1.027     0.776 -58.98   0
       705     63.5184     40.5148 307.9120114  +6.6602732     608.3754     775.0736     790.3304     77.52166     155.4748     310.3026      1.216     3.65     830.1799       54.685     107.5724         6     0.947     0.406 -19.96   0
       706    937.8352     37.8617 307.5488169  +6.6904501     1148.639     1442.917     1307.442     77.76815     155.1667     310.2101      1.286     2.41     821.4664       54.685     204.1503         8     0.769     0.661 -53.21   0
       707    689.1388     37.3548 307.6521726  +6.6824144     2260.388     2851.604      3193.61       77.645     155.0433     310.3334      1.226     2.65     821.7042       54.685     401.6064        11     1.061     0.586 -62.34   0
       708     93.9871     37.8291 307.8994424  +6.6624000     836.3251     973.6868     1287.376     77.27438     154.9198     310.1483      1.316     4.13     830.0336       54.685     174.9863         9     1.083     0.591 -44.09   0
       709    200.2156     33.1562 307.8554626  +6.6678757     1033.312     1344.163     895.0558     77.27438     154.9816     310.0558      1.297     3.40     830.3913       54.685     185.6864        11     1.021     0.728 -48.17   0
       710    259.8611     48.4799 307.8301673  +6.6635384     11533.15     14732.37     16038.15     77.89111     155.1667     310.2409      1.293     2.47     830.8411       54.685     2192.087        28     1.186     0.883 -57.15   0
       711    254.6711     32.4073 307.8328618  +6.6700014     1017.424     1399.284     1388.621     77.27438     154.6725     310.1792      1.249     2.65     830.3713       54.685     217.0612        10     1.041     0.583 -55.07   0
       712    177.3186     30.5133 307.8650646  +6.6682029     13519.39      17018.6     17491.42     77.52166     155.4132     310.3643      1.244     2.50     830.3168       54.685     2335.223        28     1.200     0.848 -54.15   0
       713    922.9472     27.9355 307.5553334  +6.6940557     4915.267     6341.914     6274.588     77.76815      155.105     310.2101      1.326     2.59     821.4448       54.685     993.3588        21     1.139     0.870 -55.48   0
       714    521.5762     28.4776 307.7220934  +6.6805123     3700.097     4569.491     4575.478     77.39812     155.0433     310.2101      1.178     2.53     821.7823       54.685     677.4441        17     1.035     0.819 -52.34   0
       715    459.6674     26.9099 307.7478695  +6.6791001     2249.264      2748.59     3070.458     77.89111       155.29     310.2101      1.176     2.33     823.5864       54.685     517.7772        13     1.059     0.636 -50.60   0
       716    723.8745     26.4703 307.6381021  +6.6880614     2292.319      2848.03     3032.838     78.01386       155.29     310.2409      1.188     2.34     821.0078       54.685     456.9114        13     1.025     0.688 -60.24   0
       717     78.6577     26.7553 307.9061828  +6.6664600     509.7056     741.6478      251.561       77.645     155.1667     310.3026      1.236     2.43     829.1892       54.685     104.2366         5     0.698     0.460  77.37   0
       718    987.8525     24.0964 307.5284909  +6.6977894     2187.087     3152.157     3686.189       77.645     155.1667     310.4875      1.561     3.05     819.3358       54.685     344.7713        17     1.211     0.815 -54.36   0
       719    782.6065     23.7201 307.6137891  +6.6911454     675.1238     719.2425     482.0071     77.39812     154.7344     310.0249      1.102     3.24     820.7678       54.685     154.1904         6     0.897     0.643 -72.85   0
       720    707.1398     20.7342 307.6452469  +6.6898744     9170.819     11334.94     11874.36     77.89111      155.105     310.2409      1.233     2.44     821.0414       54.685     1964.632        24     1.140     0.820 -58.85   0
       721    749.1695   1011.7198 307.5947932  +6.2820874     7884.376     12197.33     12773.15       77.645      155.105     310.2101      1.680     3.46     854.1954       54.685     1016.367        35     1.401     1.177 -52.53   0
       722    329.2990     19.9964 307.8022694  +6.6776134     1233.004     1550.197     1570.357     77.52166     154.9198     309.9323      1.305     3.53     830.0215       54.685     178.5922        11     1.139     0.604 -55.36   0
       723    544.5840   1012.3906 307.6797125  +6.2750204     4520.419     6825.937     7300.426     77.52166     154.9198     310.1483      1.693     3.38     855.3973       54.685     557.1467        31     1.381     1.107 -60.86   0
       724    383.0531     18.3244 307.7799903  +6.6800945     906.2877     1174.218     1098.693     77.76815     155.1667     310.2717      1.184     1.72     828.8719       54.685     219.3262         7     0.655     0.615 -15.85   0
       725    294.9315   1011.1573 307.7834037  +6.2672254      16088.4     23693.14      25464.4     77.76815      155.105     310.3334      1.602     3.39     854.4855       54.685     2371.134        53     1.812     1.105 -41.50   0
       726    674.4378     15.2389 307.6590185  +6.6910578     1125.601     1344.136     1235.932     77.52166     155.0433     310.1175      1.271     2.51     821.2895       54.685     223.0547         9     0.908     0.628 -60.65   0
       727    514.8246   1013.5428 307.6920297  +6.2735558     1186.324     1764.398     2106.868     77.39812     155.1667     310.0558      1.513     3.46     855.2859       54.685     172.8492        12     1.022     0.833  78.04   0
       728    810.3051   1011.1780 307.5694281  +6.2843375     1190.053     2060.526     2482.399     77.76815     154.9816     310.0866      1.916     6.07     851.3154       54.685     148.5154        18     1.360     0.999 -59.22   0
       729    419.2693   1011.4956 307.7317706  +6.2712241     1037.073     1684.454     1617.722       77.645       155.29     310.2717      1.734     4.50     855.6517       54.685     147.7211        12     1.123     0.833 -56.73   0
       730    266.1075   1008.6296 307.7954551  +6.2673090     965.8593     1332.679     1284.668     77.89111     154.9198     310.1483      1.343     3.19     854.3577       54.685     164.4641         9     1.053     0.561  15.13   0
       731    910.5213   1005.0173 307.5280231  +6.2902003     7952.851     13927.75     14600.76     77.39812     154.9198     310.1792      1.889     4.00     850.3416       54.685     897.9085        44     1.545     1.349 -63.78   0
       732     69.7345   1008.0898 307.8770000  +6.2609837     562.9788     531.6518     380.9729       77.645       155.29     310.2409      1.104     3.53     849.5126       54.685     95.08234         7     0.750     0.668 -88.20   0
       733    541.7985   1004.5720 307.6811296  +6.2781562     8832.002      12802.9      13322.5     77.27438     154.9198     310.0249      1.545     3.05      855.319       54.685     1252.935        35     1.432     1.050 -61.82   0
       734   1005.7285   1000.6486 307.4886377  +6.2951543     4184.943     7869.912     8863.081     77.76815     155.1667     310.2717      2.054     4.39     848.0927       54.685     490.4491        40     1.558     1.445 -69.12   0
       735    884.0827   1001.3247 307.5391231  +6.2908497     11312.04     19607.52     20896.67     77.89111     155.4748     310.3026      1.863     3.94     850.6129       54.685     1287.018        48     1.569     1.372 -44.31   0
       736    596.8603   1001.7745 307.6583618  +6.2811402     1435.004     2197.485     1820.988     77.39812     155.1667     310.1175      1.615     4.06     855.4381       54.685     219.9527        14     1.300     0.737 -72.84   0
       737    528.2451   1000.4328 307.6868948  +6.2794149     4582.625     6642.864     7150.583     77.52166     155.1667     310.0866      1.587     3.19     855.2213       54.685     625.7425        29     1.385     1.029 -55.52   0
       738    637.7249    999.6544 307.6414658  +6.2833722      1492.55     2142.389      1725.52       77.645     155.1667     310.2717      1.559     3.82     855.1205       54.685     210.7168        19     1.265     0.964 -23.48   0
       739     62.8977    999.4971 307.8801261  +6.2643034     904.5172     1479.906     1730.974     77.76815     155.6593     310.0866      1.689     6.10     849.2509       54.685     122.7388        12     1.222     0.857 -82.80   0
       740    793.7574    997.9359 307.5767389  +6.2892568     616.8687     786.8291     561.4003     77.76815      155.105     310.2717      1.308     4.17     851.6256       54.685     116.9054         7     1.250     0.587 -78.20   0
       741    481.3712    996.8641 307.7064752  +6.2793306     2464.237     3403.211     3539.679     77.52166     155.2284     310.1792      1.501     3.18     855.0317       54.685     328.3024        20     1.147     1.009 -63.17   0
       742    915.8657    988.8104 307.5263423  +6.2970692     39736.27     68720.59     72849.75     77.27438     154.9816     310.0866      1.844     3.83     850.0123       54.685     4697.868        75     1.617     1.433 -56.78   0
       743    223.4081    987.3834 307.8138930  +6.2746586     1878.015     2767.989     2573.227     77.39812     154.9198     310.0866      1.580     3.55     853.1477       54.685     273.4543        17     1.216     0.892 -58.13   0
       744    621.9798    985.4679 307.6484756  +6.2887072     926.8556     1418.954     1070.092     77.39812      155.105     310.1792      1.656     2.96     854.8503       54.685     156.7695         8     0.859     0.649 -53.95   0
       745    110.7361    986.3436 307.8607058  +6.2713307     635.6208     900.6872     494.5723     77.89111      155.105     310.2409      1.342     3.88     849.4323       54.685     111.4556         6     1.111     0.628 -16.62   0
       746    761.9980    980.6232 307.5905012  +6.2953526     6817.504     10657.28     11276.87     77.39812      154.858     310.0558      1.722     3.55     852.8242       54.685     889.7805        39     1.582     1.195 -70.61   0
