#   1 NUMBER                 Running object number                                     
#   2 X_IMAGE                Object position along x                                    [pixel]
#   3 Y_IMAGE                Object position along y                                    [pixel]
#   4 ALPHA_J2000            Right ascension of barycenter (J2000)                      [deg]
#   5 DELTA_J2000            Declination of barycenter (J2000)                          [deg]
#   6 FLUX_APER              Flux vector within fixed circular aperture(s)              [count]
#   9 FLUXERR_APER           RMS error vector for aperture flux(es)                     [count]
#  12 FLUX_RADIUS            Fraction-of-light radii                                    [pixel]
#  13 FWHM_IMAGE             FWHM assuming a gaussian core                              [pixel]
#  14 BACKGROUND             Background at centroid position                            [count]
#  15 THRESHOLD              Detection threshold above background                       [count]
#  16 FLUX_MAX               Peak flux above background                                 [count]
#  17 ISOAREA_IMAGE          Isophotal area above Analysis threshold                    [pixel**2]
#  18 A_IMAGE                Profile RMS along major axis                               [pixel]
#  19 B_IMAGE                Profile RMS along minor axis                               [pixel]
#  20 THETA_IMAGE            Position angle (CCW/x)                                     [deg]
#  21 FLAGS                  Extraction flags                                          
         1     42.5681     33.3076 307.9378120  +6.6308465     448896.9      1710860      2722927     94.30364      187.638     375.6495      3.500     9.64     1283.528     66.20775     55207.57       391     3.043     2.527 -80.25   4
         2    944.2007     25.9858 307.5625871  +6.6636408     1350.604     4345.568     5554.571     93.70678     187.4884     375.3506      2.967    10.60       1236.4     66.20775     199.5438        40     2.065     1.712  87.70   0
         3    184.9305     20.2301 307.8789833  +6.6409440     946.1053     2918.394     4771.598     94.00568     187.8621     375.5375      3.518     7.93     1272.088     66.20775     126.5458        17     2.022     0.870 -69.53   2
         4     65.3403     18.0609 307.9288592  +6.6378698     3119.341     12110.45     18369.44     94.15478     187.8621     375.6495      3.377     9.64     1280.843     66.20775     411.9155        87     2.719     2.167 -79.79   0
         5    866.5712     11.9257 307.5954018  +6.6668676      1881.72     6280.852     8484.118     94.00568     187.8621     375.5748      3.024     9.35     1236.253     66.20775     246.2725        57     2.346     1.872  81.90  16
         6    810.3335     13.0301 307.6187847  +6.6645626     1020.518     2890.439     4911.874     93.85635     187.8621     375.5375      3.525     8.16     1236.687     66.20775     147.4763        14     1.745     1.066 -82.51   2
         7    104.4292     10.9237 307.9128297  +6.6421006     1002.192     3157.961     5135.191     94.00568     187.9368     375.6495      3.401     9.20     1275.416     66.20775     136.4218        19     1.863     1.267  44.57  18
         8     49.1581      5.5114 307.9360342  +6.6424915     833.1537     1986.813     2995.806     94.15479     187.7874     350.5386      3.096     7.11     1283.879     66.20775     95.64001         9     1.682     0.843 -51.24  16
         9     46.0789    996.3552 307.9028910  +6.2350750     5357.114     14587.56     17797.77     94.15479     187.8621     375.6122      2.718     6.69     1299.973     66.20775     563.4471        73     2.295     1.847  87.81   0
        10    325.7555   1023.7307 307.7855685  +6.2330818     680.6291      1295.71     1200.764     81.02271     148.1161     281.5691      1.802     4.44     1302.883     66.20775     133.8326         7     1.350     0.416   6.94  24
        11    110.8253    986.5247 307.8762912  +6.2412622     3236.607      9101.26     12344.55     93.70678      187.638     375.5748      2.903     7.49     1299.994     66.20775      320.205        60     2.220     1.819  86.92   0
        12    839.8943    985.4401 307.5729469  +6.2657797     6919.996     17375.25     21172.32     94.30364     187.7874     375.7242      2.610     6.19      1299.99     66.20775     714.1696        64     2.221     1.651 -75.25   0
        13    623.9296    974.4387 307.6631968  +6.2631900     57953.98       180637     329821.6     94.00568     187.8621     375.6869      3.927    11.98     1301.269     66.20775     6322.068       221     4.275     2.004 -77.23   0
        14    257.5684    979.8505 307.8154615  +6.2488649     1265.025     3979.742     5246.274     94.00568     187.9368     375.5375      3.077    10.78     1302.397     66.20775     181.3844        34     2.032     1.595 -61.22   0
        15    834.1549    973.6037 307.5757431  +6.2704568     3348.792     8485.815     10735.43     93.40691     187.4884     375.2011      2.597     6.87     1299.247     66.20775     370.8982        55     2.274     1.540 -85.99   0
        16    473.1105    965.9913 307.7262493  +6.2616866     1638.513     4698.813     6933.141     93.70678     187.4884     375.3133      3.115    10.56     1301.196     66.20775     206.6877        43     2.284     1.760 -84.82   0
        17    932.1425    969.2724 307.5351154  +6.2754595     808.6359     1500.676     1714.529     94.30364     187.8621     375.5748      2.383     6.30     1297.002     66.20775     126.0072         8     1.211     0.920  67.90   0
        18    758.1370    965.9863 307.6076397  +6.2710864     3341.788     8907.682     11733.51     93.55697      187.638     375.4254      2.838     7.25     1299.259     66.20775     332.7058        57     2.185     1.679 -83.42   0
        19    616.0000    965.4788 307.6668059  +6.2666119     1436.717     3307.166      5762.34     93.25662     187.1139     375.2759      3.545     7.19     1301.157     66.20775      184.368        17     2.203     0.658  84.97   3
        20    613.5048    964.9677 307.6678619  +6.2667398     1743.039     3948.486     5743.812     94.30364     187.7127     375.6869      3.176     7.95     1301.195     66.20775     193.9166        21     1.804     0.980  80.48   3
        21    255.3541    968.6865 307.8167697  +6.2533809     799.0716     2119.796     2562.794     94.15479     187.7127     375.6122      2.569     8.03     1301.922     66.20775     119.7513         9     1.773     1.017 -26.22   0
        22    997.4544    955.0709 307.5084246  +6.2834437     4044.301     9046.622     10031.68     94.00568     187.7874     375.5748      2.317     5.57     1296.146     66.20775      434.436        49     1.968     1.467 -85.85   0
        23    756.8895    953.5546 307.6085876  +6.2761560     1405.101     3881.737     5541.677     94.15479     187.7127     375.7615      3.094     9.72     1298.431     66.20775     159.5712        31     1.835     1.744  17.55   0
        24    404.5259    951.1278 307.7553035  +6.2655315      712.717     2031.036     2794.152     94.45227     188.0114     375.6495      2.923     5.04     1300.875     66.20775      128.765         6     1.565     0.460  16.05   0
        25    790.8174    940.5198 307.5949179  +6.2826314     3791.786     10282.39     13269.67     93.70678     187.4884     375.5001      2.799     6.80     1297.073     66.20775     388.6852        61     2.323     1.679 -78.35   0
        26    588.1354    941.5436 307.6792280  +6.2755326     1298.298     2804.136     3867.464     94.30364     187.7874     375.6122      2.363     7.76     1300.934     66.20775     164.0184        19     2.194     0.767 -77.21   3
        27    584.9722    940.3088 307.6805870  +6.2759359     1692.287     4190.218     5823.486     94.30364     187.5632     375.4628      2.794     8.73     1300.904     66.20775      200.046        27     1.998     1.064 -82.40   3
        28    583.7104    933.4217 307.6813500  +6.2787256     3266.067     9888.083     13208.13     94.15479      187.638     375.4628      3.018     7.89     1300.796     66.20775      332.761        66     2.370     1.874 -73.00   3
        29    336.6733    940.3221 307.7839131  +6.2677309     6036.799     17338.63     23833.28     94.45227     188.1605     375.6495      2.998     6.89     1301.033     66.20775     571.2638        83     2.391     1.988 -84.53   0
        30    851.6833    938.3826 307.5696621  +6.2855127     606.2519      1215.29     1684.027     93.70678     187.4884     375.5375      1.896     3.91     1296.657     66.20775     92.74255         5     1.056     0.414 -15.21   0
        31    952.0785    933.9047 307.5280363  +6.2906544     4665.546     11564.82     14251.59     93.85635     188.1605     375.6495      2.612     6.05     1294.926     66.20775     481.6117        60     2.223     1.556 -82.13   0
        32    925.7439    930.1334 307.5391254  +6.2913392     6494.356     16546.01     20578.23     94.30364     187.7874     375.5748      2.640     6.35     1294.774     66.20775     647.5385        71     2.265     1.719 -77.06   0
        33      1.6762    931.3111 307.9236259  +6.2603405     985.1909     1927.123     1901.723     86.70941     155.5981      289.527      2.246     6.85     1300.375     66.20775     167.4875        14     2.252     0.584  81.08  24
        34    637.9027    931.4819 307.6588650  +6.2813099      613.338     1596.966     2014.005     94.00568     188.3096     375.6869      2.475     5.76     1299.328     66.20775     97.54358         7     1.482     0.631  66.42   0
        35    571.8253    929.4554 307.6864330  +6.2799640     1435.454     3284.763     4901.252     93.70678     187.8621      375.388      2.598     7.93     1300.734     66.20775     167.6477        23     2.114     0.831  77.40   3
        36    568.5150    929.0600 307.6878242  +6.2800174     1491.469     2893.608     4280.286     94.30364     187.9368     375.7242      2.580     7.72     1300.734     66.20775     178.6921        20     1.775     0.940  81.01   3
        37    523.5969    925.1473 307.7066519  +6.2801438     826.3798     2649.569     3601.136     93.40691      187.638     375.1264      2.915     9.32     1300.477     66.20775     127.4426        17     1.818     1.333  50.69   0
        38     31.4221    917.8145 307.9117168  +6.2668753     1225.971     3121.899     3570.499     93.85635      187.638     375.5001      2.638     8.40     1299.436     66.20775     172.4069        20     1.813     1.086  64.94   2
        39    957.4801    917.5842 307.5263501  +6.2975412     23487.89     56377.46     68558.61     93.70678     187.5632      375.388      2.565     5.96     1293.854     66.20775     2469.296        97     2.348     1.721 -78.09   0
        40    266.4691    915.2291 307.8139966  +6.2757242     762.7501     1803.648     2745.301     93.85635     187.8621     375.5375      2.374     5.10     1300.248     66.20775     118.7249         8     1.518     0.485 -85.24   0
        41    803.7621    909.2969 307.5906071  +6.2958931     3018.221     8337.283     11037.94     94.15479     187.7127     375.7988      2.965     7.34     1295.082     66.20775     334.6372        61     2.333     1.729 -75.29   0
        42    855.7774    911.0671 307.5688993  +6.2968767     1091.257     2679.899     3385.404     93.70678     187.7874     375.5375      2.507     7.51     1295.103     66.20775     163.9849        18     1.533     1.281 -13.53   0
        43     99.4754    907.6316 307.8837516  +6.2733175     1145.509     2972.849      4969.62     94.00568     187.9368     375.5748      3.192     9.48     1298.343     66.20775     134.6318        25     1.847     1.358 -49.14   2
        44    991.8446    904.3928 307.5125027  +6.3040932     3636.277      8774.09     10696.35     93.55697      187.638     375.2385      2.506     6.79      1292.47     66.20775     396.6549        52     2.194     1.487 -81.83   0
        45    964.7939    896.6709 307.5240260  +6.3063790     1146.969     2457.102      3402.96     93.55697     187.4136     375.5001      2.690     6.77     1292.265     66.20775      204.423        14     1.241     1.037 -88.30   0
        46    298.9220    892.7366 307.8012708  +6.2860442     1575.423     4745.646     6253.335     94.45227     187.9368     375.6122      2.954     8.59       1300.2     66.20775      188.115        48     1.998     1.877 -73.04   0
        47    686.3983    892.1323 307.6400415  +6.2990846     1882.133     5168.207     6211.752     93.55697     187.3387      375.388      2.741     7.99     1296.165     66.20775     200.0857        43     1.984     1.674 -78.07   0
        48     69.4646    889.7426 307.8968609  +6.2796765     934.1409     1878.515     2327.026     94.30364     187.7874     375.6495      2.217     7.57     1297.818     66.20775     108.5496        14     1.685     0.951  88.99   0
        49     65.3580    891.1271 307.8985217  +6.2789712     726.0889     1290.981     1739.472     94.00568     187.9367     375.6495      2.234     4.29     1297.882     66.20775      104.683         5     1.122     0.468  84.07   0
        50    934.4720    871.1851 307.5375224  +6.3158598     3336.418     8346.652     10595.67     93.55697     187.7127     375.4628      2.701     6.96     1291.142     66.20775     351.1534        56     2.241     1.587 -70.31   0
        51    372.4262    867.3568 307.7715606  +6.2989080     3327.794      10528.2     15147.81     93.70678     187.8621     375.5001      3.154     7.89     1299.181     66.20775     364.1604        78     2.497     2.020 -74.24   0
        52    292.3976    866.0515 307.8049103  +6.2967983      2386.94     7568.706      10534.7     93.40691     187.4884     375.1264      3.052     8.39     1299.727     66.20775     263.8787        69     2.411     2.012 -87.42   0
        53    918.8923    868.7338 307.5440907  +6.3163554     10863.71     11166.95     11224.47     94.00568      188.086     375.6122      0.717     1.70     1291.424     66.20775     4184.115        10     0.719     0.445 -68.37   0
        54    785.4407    848.5732 307.6003252  +6.3202534     836.6942     1827.335     2466.557     93.70678      187.638     375.4254      2.061     5.04     1292.078     66.20775     118.8876         9     1.483     0.485 -85.62   0
        55   1017.6883    846.9800 307.5037222  +6.3285444     695.6378     1722.562     2775.852     94.00568     187.5632      369.019      2.877     4.19     1287.301     66.20775     98.25037         6     1.320     0.380  77.93  16
        56    703.4618    843.4078 307.6346214  +6.3196772     889.8638     2286.177     3468.088     93.40692      187.638      375.388      3.203     7.43     1293.535     66.20775     120.2982        14     1.658     0.933 -73.78   0
        57    120.8863    839.4790 307.8772066  +6.3020432     719.2714     1710.673     2181.871     94.00568     188.2351     375.7615      2.384     7.64     1296.471     66.20775     103.4622        10     1.781     0.917 -80.95   0
        58     99.7746    838.9915 307.8860092  +6.3015440      988.923     2513.537     4182.603     93.70678      187.638     375.4254      3.533     9.82     1295.787     66.20775     155.6299        14     1.976     1.359  17.68   2
        59    245.6682    837.6478 307.8253412  +6.3069284     789.1086     2132.211     2773.737     94.15479     187.7874     375.6122      2.462     6.14     1299.105     66.20775      117.772         9     1.515     0.700  17.45   0
        60    701.0000    831.5508 307.6360551  +6.3244705     2151.346     4749.902     6520.575     93.25662     187.2638     375.0516      2.941     7.48     1292.991     66.20775     225.7478        23     2.342     0.899  80.86   3
        61    698.1207    831.8086 307.6372445  +6.3242697      2417.75     5287.906     7476.831     93.70678     187.4136     375.4254      2.847    10.49     1293.119     66.20775      274.478        43     2.406     1.908  89.98   2
        62    936.5747    828.6304 307.5381123  +6.3334231     1332.658      3355.41     4595.801     93.55697      187.638     375.4254      2.792    10.11     1289.274     66.20775       172.11        26     1.892     1.623 -43.60   2
        63    383.0124    825.6807 307.7685976  +6.3163905     5316.708     17393.76     24720.23     93.70678     187.4884     375.4254      3.170     7.84     1297.566     66.20775     518.3268        89     2.521     2.118 -86.45   0
        64    713.0152    816.1951 307.6315844  +6.3311790      540.873     1030.615     1733.876     93.70678     187.4884     375.4254      2.502     3.87     1291.506     66.20775     100.8232         5     0.847     0.507  50.53   0
        65    926.0612    810.3799 307.5431163  +6.3405803     854.9084     2056.667     2224.548     93.70678     187.8621     375.5001      2.572     6.71     1288.883     66.20775     126.2638        10     1.477     0.856  43.98   2
        66    130.5196    810.9437 307.8741878  +6.3140928     905.9308     2439.988     3381.248     94.30364     187.8621     375.6122      3.130     8.36     1295.841     66.20775     133.0381        13     1.675     1.166 -19.98   0
        67    897.3552    811.3350 307.5550308  +6.3392439       762.45     1526.002     2153.332     94.15479     187.7874     375.6122      2.477     4.63     1289.046     66.20775     108.3241         6     0.933     0.653 -50.48   3
        68    897.9144    809.0000 307.5548785  +6.3402222     884.0674     2091.636     2885.916     93.25662     187.2638     375.2011      2.160     5.11     1288.941     66.20775     131.9528         7     1.625     0.454   5.33   2
        69    861.6011    809.2665 307.5699828  +6.3389184     1306.095     3250.612     4112.972     93.25662     187.3387     375.3133      2.554     7.29     1289.056     66.20775     167.8793        23     1.662     1.249  40.80   0
        70    597.9640    800.6068 307.6800057  +6.3337951     109701.4     354511.5     504747.3     93.25662     187.5632     375.3506      3.158     7.67      1293.31     66.20775     10448.59       204     2.761     2.261 -79.50   0
        71    442.3340    803.3751 307.7446811  +6.3275202     2277.165     7739.049     11310.94     93.70678     187.8621     375.5001      3.258     9.00     1295.034     66.20775     264.6165        69     2.513     1.942 -67.20   0
        72    385.6235    801.6760 307.7683418  +6.3263449     3838.258     12753.42     19072.13     93.70678     187.7127     375.5375      3.258     8.36     1296.713     66.20775     406.4758        91     2.575     2.203 -79.22   0
        73    702.8054    798.2045 307.6364544  +6.3382386     1231.743     3541.463     5413.596     93.40691     187.4884     375.4628      3.329     9.32     1290.935     66.20775     152.9003        20     2.093     1.157  89.90   2
        74    935.9443    796.3794 307.5394850  +6.3466608     2500.509     6549.051     8764.312     93.55697     187.8621      375.388      2.774     6.79      1287.86     66.20775     296.4163        51     2.188     1.595 -82.44   0
        75    677.2530    791.6380 307.6473158  +6.3400961      1227.37      2480.95     5017.591     94.00568     187.9368     375.6122      2.792     5.35     1291.786     66.20775     149.1406        11     1.221     0.663 -77.61   3
        76    680.6237    791.1462 307.6459299  +6.3404093     898.8621     1836.376     3419.232     93.55697     187.8621      375.388      3.239     7.58     1291.511     66.20775      146.507        13     1.734     0.926 -78.76   2
        77    669.9820    786.6364 307.6505146  +6.3419126     792.5912      2288.22     4350.117     93.55697      187.638     375.3506      3.905     6.01      1291.56     66.20775     106.9973         7     1.164     0.873  27.68   2
        78    956.7862    783.5692 307.5312515  +6.3526120     994.8597     2128.225     2648.424     93.70678     187.5632     375.5375      1.985     5.59       1286.3     66.20775     170.0682        12     2.001     0.441  67.74   2
        79    954.2510    783.3307 307.5323149  +6.3526268     1258.822      2853.32     3512.638     94.00568     187.7127     375.6122      2.647     7.70     1286.343     66.20775     164.2001        16     1.738     1.035 -88.55   2
        80    415.7325    779.7629 307.7565693  +6.3363481      890.509     2167.094      3480.02     94.00568     187.8621     375.7615      3.555     9.01     1294.727     66.20775     119.2639        13     1.790     1.265  18.70   2
        81    549.5428    770.5311 307.7011975  +6.3445616     998.3281       3323.9     4913.049     94.30365     187.7874     375.5375      3.386    13.01     1291.077     66.20775     116.2777        27     2.571     1.831  80.08   2
        82    594.9772    767.3234 307.6823985  +6.3473792     1804.631     4592.815     7443.582     93.70678     187.7127     375.5001      3.522    12.92     1290.347     66.20775     206.9994        37     3.082     1.551 -59.49   2
        83    598.9526    766.6990 307.6807655  +6.3477670     1698.242     4038.293     6977.757     94.15479     187.7127     375.8362      3.329     9.87     1290.314     66.20775     203.3933        24     2.649     1.025 -45.72   3
        84    567.1239    760.3543 307.6942319  +6.3493253     6186.884     20299.64     29518.03     94.00568     187.9367     375.6495      3.229     8.00     1289.955     66.20775     601.8563       102     2.687     2.162 -76.55   0
        85    980.4758    758.0264 307.5222708  +6.3638911     1932.406     4733.923     5570.005     93.85635     187.7874     375.5748      2.654     7.83     1284.505     66.20775     259.2684        40     2.089     1.583 -74.49   0
        86    361.1184    749.1613 307.7803585  +6.3471231     915.4641     2989.911     4425.904     94.15479     187.9367     375.5375      3.336    10.81     1294.373     66.20775      145.653        22     2.464     1.322 -89.14   0
        87    825.0726    744.6611 307.5874126  +6.3642759      20880.4     61312.09     83436.11     94.30364     187.8621     375.6495      2.989     7.24     1285.671     66.20775     2241.155       121     2.621     2.035 -76.67   0
        88     79.3941    752.4021 307.8974967  +6.3364636     626.9423     1338.924     1883.876     93.40692     187.4884      375.388      2.844     5.24     1291.691     66.20775     76.02173         5     1.071     0.724  64.29   0
        89     60.0117    748.1479 307.9057109  +6.3375698     846.3216     2299.261     3258.754     93.40691     187.7874     375.2759      3.280     5.93     1291.419     66.20775     132.0459         9     1.295     0.763 -30.66   0
        90    748.2698    736.4998 307.6196607  +6.3651028     27437.22     89956.91     154675.5     94.15479     188.0114     375.6122      3.756    10.26     1286.429     66.20775     2993.437       209     3.596     2.613  37.75   0
        91    282.1039    721.5496 307.8142008  +6.3558606     649466.8      2314802      3559732     94.00568     187.7874     375.8362      3.397     9.15     1295.095     66.20775     62049.15       558     3.130     2.515 -85.70   4
        92    950.2820    739.6235 307.5354715  +6.3704644     3839.216     10308.54     14034.74     94.00568     187.5632     375.5375      2.883     7.30     1283.867     66.20775     399.5072        65     2.377     1.755 -83.20   3
        93    947.1877    731.0147 307.5370558  +6.3739018     2717.407     7503.061     9901.688     94.00568     187.4884     375.5375      2.866     8.07     1283.344     66.20775     302.7048        54     2.355     1.592 -73.61   3
        94    394.1766    737.1283 307.7670163  +6.3531624     6264.432     14853.38     20966.02     93.70678     187.7127     375.6122      2.787     9.21     1293.095     66.20775     660.3082        66     2.912     1.616  84.60   3
        95    390.2433    736.9447 307.7686597  +6.3531079     5098.814      11070.7      14289.8     94.15479     187.8621     375.6122      2.489     8.12     1293.163     66.20775      594.006        38     2.393     1.056 -87.36   3
        96      4.3465    738.6730 307.9292067  +6.3396183     1279.014     3985.488     5353.804     94.00568     187.3387     334.5687      3.055     9.77     1290.756     66.20775     182.3685        37     2.080     1.757 -74.61  24
        97    453.9884    734.8629 307.7422008  +6.3560699     6169.024     21851.09     33056.93     93.55697      187.638      375.388      3.345     8.80     1292.554     66.20775     610.9844       102     2.709     2.235 -79.50   0
        98    990.0632    733.7020 307.5191174  +6.3742059     979.5219     2300.661     2682.396     94.00568     188.0114     375.6495      2.395     7.89     1283.463     66.20775     137.4525        16     1.870     0.931  84.32   0
        99    688.0245    730.5812 307.6449401  +6.3655513     2223.677     6824.625     9947.508     93.85635      187.638     375.5375      3.184     8.15     1286.519     66.20775     242.9265        62     2.226     1.992 -79.43   0
       100    456.8850    717.5193 307.7415952  +6.3632954      15258.5     53350.89     81169.14     93.85635     188.2351     375.7242      3.363     8.48     1291.237     66.20775     1568.535       139     2.868     2.309 -81.72   0
       101    722.2574    722.1635 307.6309822  +6.3701396      751.805     1958.127     2560.631     94.15479     187.8621     375.6122      2.826     7.32     1285.525     66.20775     133.2166         9     1.727     0.870 -10.15   0
       102    573.2199    716.3137 307.6932165  +6.3676313     2125.253     5446.503     8595.771     93.85635     187.5632     375.5375      3.026    10.25     1286.971     66.20775     219.5405        53     2.745     1.585 -86.75   2
       103    576.7726    715.8319 307.6917545  +6.3679466     1558.392     3345.629     4743.876     93.55697     187.5632      375.388      2.333     5.65     1286.874     66.20775     229.5033        15     1.593     0.714  72.25   3
       104    819.6479    712.9205 307.5907646  +6.3771460     4130.452      12576.4     17125.84     94.15479     187.9368     375.5375      3.010     7.88     1283.732     66.20775     436.4974        80     2.544     1.940 -77.28   0
       105    491.2428    713.8185 307.7274230  +6.3659514     1324.653     4826.291     8864.682     93.55697     187.7127     375.3506      4.215    13.90      1290.28     66.20775     157.5013        55     2.818     1.906  69.68   0
       106    177.0206    704.9778 307.8585112  +6.3591942     3245.632     11305.62     21564.42     93.85635      187.638     375.5375      4.722    14.50     1290.884     66.20775      367.759       152     4.345     2.649  24.43   2
       107    965.0671    701.2902 307.5306372  +6.3867091     2802.675     7498.353     9623.582     94.30364     188.0114     375.6122      2.757     7.32     1281.376     66.20775     298.8967        56     2.294     1.634 -77.03   0
       108   1013.7488    703.3998 307.5103015  +6.3874412     639.0105     1213.568     2356.752     93.25662     187.2638      375.089      3.468     4.97     1280.827     66.20775     119.3793         5     1.050     0.665 -67.60   0
       109    606.8151    698.5815 307.6798461  +6.3760291     742.9644     1959.745     2948.638     93.85635     187.4884     375.5001      2.635     5.57     1284.945     66.20775     111.8544         8     1.519     0.576  57.90   0
       110    721.0914    699.3260 307.6322555  +6.3794897     740.7177     1810.422     1989.017     94.15479     188.0114     375.6495      2.239     4.53     1283.716     66.20775     100.4379         6     1.280     0.455   5.44   0
       111    959.1580    694.1810 307.5333415  +6.3894376     1134.286     3200.721     4327.931     93.55697      187.638      375.388      2.965     9.58     1281.031     66.20775     173.0133        23     1.679     1.536 -80.50   1
       112    988.8241    692.5028 307.5210511  +6.3911022     1280.317     3448.437      3648.72     94.30364     187.5632     375.4628      2.572     9.92     1280.434     66.20775     157.8248        29     1.870     1.768  62.42   0
       113   1018.4525    692.8698 307.5087059  +6.3919246     817.9942      1825.51     2532.906     94.00568     187.7127     362.1897      2.541     5.20     1279.915     66.20775      105.119         9     1.189     0.643  83.93  16
       114   1003.0833    680.2516 307.5155374  +6.3966071     1242.936     2958.821     3550.526     94.15479     187.7874     375.7242      2.540     7.78     1279.149     66.20775     148.6752        20     1.858     0.913 -77.89   0
       115     91.5557    660.7388 307.8956175  +6.3745479     750.8264     1726.404     2596.977     94.00568     187.8621     375.7615      2.228     5.78     1288.006     66.20775     98.15076         8     1.884     0.499 -87.75   2
       116     87.4843    660.5020 307.8973203  +6.3745102     655.5842     1513.162     2959.588     94.15479     188.3096     375.6869      1.441     3.50     1288.099     66.20775     101.5519         5     1.596     0.222  26.89   2
       117    701.9293    648.8223 307.6419745  +6.3996203     1891.938     6559.766     9166.851     93.70678     187.7874     375.6122      3.141     9.72     1280.474     66.20775      247.676        58     2.228     1.989 -55.26   0
       118    166.2670    645.1949 307.8650609  +6.3834137     904.3447     2835.536     4150.601     93.55697     187.5632      375.388      3.296    11.64     1287.054     66.20775     134.8285        19     2.106     1.791  18.43   2
       119    818.6187    640.8647 307.5936772  +6.4067342     6841.286     21554.89      29557.1     93.70678     187.8621     375.4254      3.051     7.55     1278.438     66.20775     767.0796        91     2.503     2.043 -77.92   0
       120    677.6005    645.3561 307.6522209  +6.4002435     577.6338     1475.143     2636.582     93.25662     187.4884     375.1638      3.055     3.93     1280.303     66.20775     84.84546         5     1.070     0.413 -74.50   0
       121    949.0436    640.3737 307.5394042  +6.4112255     1418.924     4174.267     4827.779     93.70678     187.9368     375.5375      2.680    10.61     1277.724     66.20775      185.472        36     1.966     1.597 -41.32   0
       122    292.4439    635.0020 307.8128962  +6.3917813     1748.456     6257.814     9937.959     93.40691     187.3387     375.2011      3.465    10.83     1286.758     66.20775     224.9391        67     2.631     1.982 -74.16   0
       123    697.2674    634.0308 307.6444255  +6.4055475     2086.457     4629.245      5906.73     94.00568     187.8621     375.5748      2.536     8.73      1279.73     66.20775     259.2974        30     2.497     1.000 -83.79   3
       124    700.6029    633.8076 307.6430448  +6.4057491     2030.541     5230.182     6963.374     93.40692     187.4884     375.4254      2.872     9.28     1279.724     66.20775     196.7848        33     2.122     1.194 -84.93   3
       125    770.7227    622.4203 307.6142502  +6.4127400     1319.258     3973.738     5232.186     93.70678     187.5632     375.5748      3.048    10.61      1277.98     66.20775     184.4558        39     2.079     1.857 -70.55   0
       126     57.0021    623.3434 307.9112979  +6.3887747     503.8951     1043.468     2687.301     93.40691     187.4884     375.2759      3.854     4.55     1286.431     66.20775     74.08386         6     1.146     0.514  51.27   0
       127    975.2098    619.4717 307.5292319  +6.4206782     1207.168     2891.384     2931.448     93.55697     187.4136      375.388      2.396     7.67     1276.173     66.20775     172.1517        20     1.441     1.239  32.69   0
       128    114.8635    614.1683 307.8875331  +6.3944648     6777.339     25113.84     38442.68     93.85635     187.9367     375.5748      3.404     8.91     1285.188     66.20775     813.8597       107     2.797     2.254 -84.60   0
       129    759.5522    605.1987 307.6194941  +6.4194520     1136.627     3284.851     4837.775     93.40692     187.4136      375.089      3.215    10.03     1277.234     66.20775     126.3563        22     2.100     1.335  16.25   2
       130    782.6536    604.2352 307.6099110  +6.4206087     1432.913     4436.879     6099.252     94.00568     187.8621     375.6495      3.125    10.99     1276.367     66.20775     170.1556        43     2.236     1.727 -64.22   0
       131    613.1525    601.8922 307.6805486  +6.4159866     911.8224     2994.053     4520.353     94.15479     187.7874     375.7615      3.337     7.24     1279.048     66.20775     133.6061        13     1.744     0.843  79.38   0
       132   1020.6706    598.9009 307.5110161  +6.4306283      3510.04     9313.794      11305.9     94.00568     187.4136      334.317      2.658     6.68     1274.701     66.20775     374.9437        58     2.233     1.657 -79.64  24
       133    179.4984    592.9474 307.8613663  +6.4053302      6458.86     23317.05     38275.56     94.00568     187.8621     375.8362      3.591     9.10     1283.945     66.20775     697.3304       121     2.858     2.404 -80.49   0
       134    469.0000    593.7260 307.7408352  +6.4145861     614.1235     1508.953     3300.513     93.25662     187.1139     375.3506      1.981     3.83      1282.27     66.20775     108.5281         5     1.457     0.289  90.00   0
       135    465.9992    592.5526 307.7421249  +6.4149693     687.2653     1983.587     3357.289     93.40691     187.4136      375.089      2.739     5.10     1282.251     66.20775     91.01868         7     1.823     0.403 -62.21   0
       136   1015.6934    581.9763 307.5136704  +6.4374225      3015.25     8300.212     11359.83     94.30364      187.638     375.4254      2.987     7.16     1273.196     66.20775     330.6384        63     2.270     1.841 -87.62  16
       137    611.6790    577.4935 307.6820049  +6.4259683     12407.23     27865.88     35026.29     93.85635      188.086     375.6869      2.531     7.73     1277.073     66.20775     1257.706        60     2.638     1.202  89.68   3
       138    607.5538    577.2979 307.6837288  +6.4259126     13174.75      30327.5     42192.23     94.15479     187.7127     375.8362      2.781     8.96     1277.195     66.20775     1272.747        70     3.015     1.276  88.15   3
       139    218.5535    573.1013 307.8457983  +6.4147821     816.9668     2172.833     4118.184     94.15479     187.7127     375.8362      3.860     8.23     1282.374     66.20775     112.6307        12     1.706     1.109  75.27   2
       140    508.9952    561.4927 307.7253018  +6.4291576     16441.72     38304.79     46944.55     93.70678     187.4884     375.3133      2.517     8.01     1279.615     66.20775     1690.026        66     2.584     1.305  88.51   3
       141    504.6509    561.5533 307.7271081  +6.4289893     16352.22     37471.76     51208.16     94.30364     187.7127     375.6869      2.791     8.75     1279.744     66.20775     1612.274        77     3.061     1.293  87.55   3
       142    780.4094    544.1902 307.6129164  +6.4452193     1502.777     3484.865     5670.872     93.70678      187.638     375.5001      3.242    10.25     1272.528     66.20775     187.2732        32     2.377     1.233  58.20   2
       143    776.7411    545.0765 307.6144129  +6.4447342     1479.379     3099.514     4354.667     94.30364     187.9368     375.5748      2.799     8.13     1272.576     66.20775     190.1981        21     2.038     0.906  76.19   3
       144    832.1216    539.8483 307.5915391  +6.4487064     4483.148     14253.47     20128.34     94.15479     187.9367     375.5375      3.139     7.92     1272.289     66.20775     516.6193        82     2.512     2.002 -68.62   0
       145    654.0639    539.0187 307.6656903  +6.4431827     729.7132     1847.777     3578.624     93.70678     187.8621     375.4254      3.292     5.90     1272.889     66.20775     100.6487        11     1.551     0.632  82.04   0
       146    657.9677    537.2155 307.6641275  +6.4440527     706.1061     1931.223     3442.949     93.70678     187.5632     375.5001      3.287     4.76     1272.687     66.20775     90.41272         5     0.928     0.694  24.08   1
       147    907.1362    521.2133 307.5609536  +6.4588348     860.3177     2414.414     4754.384     93.55697      187.638      375.388      3.902     5.99     1269.308     66.20775     160.7811        10     1.538     0.656 -64.13   2
       148    865.3374    520.8826 307.5783655  +6.4575960      960.346     2187.181     3877.111     94.30364     187.8621     375.5748      3.305     5.85     1270.933     66.20775     110.6365        10     1.099     0.877 -78.12   0
       149    297.0519    516.2972 307.8150921  +6.4407319     2208.931     6078.284     9541.375     94.00568     187.8621     375.8735      3.364    13.69     1277.004     66.20775     240.2736        56     2.781     2.015  84.14   2
       150    292.6724    516.5037 307.8169079  +6.4405021     1583.525     3439.841     5061.395     93.85635      188.086     375.5748      2.654     7.60     1277.043     66.20775     189.8684        21     1.902     0.850 -76.87   3
       151    847.4244    511.7967 307.5861358  +6.4607419     50417.71     163730.8       235430     93.70678     187.4884     375.4254      3.184     7.94     1270.369     66.20775     5821.816       185     2.800     2.329 -68.65   0
       152    231.5020    510.5000 307.8425795  +6.4409454     16104.48     37544.47     49410.57     94.15479     188.3096     375.4254      2.724     9.10     1277.975     66.20775     1708.849        77     2.943     1.379 -86.15   3
       153    227.1972    510.4998 307.8443715  +6.4408029     13552.87     32238.33     42999.21     93.85635     187.5632     375.2385      2.756     9.19     1278.024     66.20775      1276.18        69     2.940     1.283 -87.62   3
       154      8.9002    513.3969 307.9351397  +6.4323756     639.7473     1372.794     2908.187     93.85635     187.5632     375.2011      1.370     3.48     1282.569     66.20775     130.4692         5     1.145     0.305 -23.13   3
       155      8.6914    509.2446 307.9353709  +6.4340756     1434.961     4085.509       6416.5     94.15479     187.7874     375.7615      3.622    11.96     1282.354     66.20775     174.0311        42     2.396     1.822 -25.65  18
       156    153.4380    506.6132 307.8752099  +6.4399574     1587.567     5716.459     9399.929     93.70678      187.638     375.2759      3.507    11.50     1279.094     66.20775     173.2322        66     2.510     2.160 -84.99   0
       157   1017.5719    503.8692 307.5155765  +6.4695943     704.6016     1368.409     1593.408     93.85635     187.8621     370.1955      2.548     3.91     1266.307     66.20775     117.8547         5     0.897     0.489  84.04  16
       158    883.6150    499.2980 307.5715006  +6.4670707     1334.219     4249.694     5673.481     94.15479     187.5632     375.3506      2.927    11.55     1268.645     66.20775      173.123        41     2.282     1.627 -86.23   0
       159    405.0057    497.6919 307.7707978  +6.4519505     4685.822     10446.63     13415.24     93.70678     187.4884     375.3133      2.466     7.64     1274.191     66.20775     507.2156        47     2.488     1.207  89.85   3
       160    400.7634    497.4949 307.7725706  +6.4518912     4132.732     10723.25     16308.12     94.30364     187.7127     375.7615      3.005    10.48     1274.264     66.20775     403.2114        58     3.142     1.303  89.56   3
       161    836.5217    492.5236 307.5913391  +6.4683064     1983.342     4832.487     6912.396     94.45227     188.1605     375.7242      3.049     8.24     1269.133     66.20775      238.166        41     2.377     1.345 -86.76   2
       162    840.0000    492.9659 307.5898758  +6.4682390     1520.039     3007.729      4439.88     92.95531     187.5632     375.2759      2.487     7.64     1269.114     66.20775     168.4117        16     2.135     0.764 -81.79   3
       163    570.7621    492.2508 307.7019837  +6.4596613     1784.888     4935.909     7782.425     93.85635     187.7874     375.5375      3.491    12.77     1272.255     66.20775     195.9996        44     2.831     1.648 -43.08   2
       164    567.3461    490.3155 307.7034726  +6.4603442     1359.438     3518.846     4844.792     94.15479     187.8621     375.7988      2.655     5.78     1272.146     66.20775     157.5894        10     1.221     0.770 -74.92   3
       165    218.6986    485.3822 307.8487804  +6.4508470     1627.469     3639.444     4407.888     94.15479     187.7127     375.3133      2.188     8.32     1276.359     66.20775     201.2839        24     2.180     0.888 -88.62   3
       166    214.3001    485.8163 307.8505964  +6.4505228     1685.635     4653.031     6929.612     94.15479     187.5632      375.388      3.045    10.76     1276.495     66.20775     170.4636        48     2.642     1.451 -86.29   3
       167    313.5948    482.0444 307.8093927  +6.4553602     22552.98     53627.36     72364.63     93.40691     187.4136     375.2011      2.792     9.54     1274.973     66.20775     2370.488        79     3.031     1.360 -79.30   3
       168    309.0862    482.2704 307.8112618  +6.4551181     19843.58      48387.6     65517.18     94.30364     188.1605     375.6495      2.758     9.29     1274.895     66.20775     1917.071        73     2.948     1.286 -84.32   3
       169     88.9727    483.9846 307.9028304  +6.4471227      1416.71     4347.524      7707.53     93.70678      187.638     375.5001      3.851    12.21     1279.418     66.20775     173.2611        49     2.409     2.315 -37.23   2
       170    613.1249    484.4128 307.6846191  +6.4642810     880.4418     2385.378     3992.044     93.55697     187.4884      375.388      3.597     7.61     1271.193     66.20775     116.0801        14     1.686     0.962 -63.87   0
       171    834.1753    474.1541 307.5929493  +6.4757808     4985.095      16486.1     23938.66     93.70678     187.8621     375.4628      3.191     7.89     1267.777     66.20775     544.1025        91     2.594     2.121 -88.19   0
       172    537.9725    472.8015 307.7163063  +6.4665747     10810.32     39024.59     65917.57     93.55697     187.5632     375.3506      3.633     9.02     1271.205     66.20775     1082.196       144     2.916     2.548 -78.62   0
       173    700.2094    468.7251 307.6489076  +6.4736011     725.0813     1751.346     3769.835     93.70678     187.3387     375.4254      3.616     3.68     1269.168     66.20775     99.30676         5     0.832     0.627 -40.25   1
       174    184.5044    460.8723 307.8638651  +6.4597901     7231.593     17684.96     25137.87     94.00568     188.0114     375.5748      2.948     9.47     1275.354     66.20775     787.1422        72     3.018     1.662 -87.11   3
       175    180.3817    460.9927 307.8655772  +6.4596040     5661.701     14693.02     20286.23     93.70678     187.4884     375.4254      2.858     9.11     1275.504     66.20775     556.4608        46     2.623     1.266  88.18   3
       176    369.1911    462.5464 307.7869241  +6.4652144     1011.883     2566.573     4290.382     93.40692     187.7874     375.2759      2.605     6.55     1273.001     66.20775     161.8071        13     1.814     0.663 -76.30   2
       177    365.1495    461.5912 307.7886397  +6.4654734     897.9062     2303.252     3862.972     93.55697     187.7127     375.2385      3.070     7.40     1273.094     66.20775     117.3032        11     1.679     0.939 -83.99   2
       178    149.7330    459.2545 307.8783960  +6.4593029     873.3138     2025.682       3202.7     94.15479     187.7874     375.5001      3.222     7.75     1276.384     66.20775     137.4296        11     1.473     1.141  15.29   2
       179     30.9178    460.6497 307.9278077  +6.4547895     485.3376     774.3526     1892.244     94.15479     187.8621     375.6495      2.093     4.95     1279.275     66.20775      91.9624         6     1.422     0.488  25.72   0
       180   1007.5092    454.4543 307.5214666  +6.4895783     2067.992     5425.834     7096.711     94.00568      187.638     375.7615      2.818     8.68     1262.732     66.20775     242.7224        48     2.364     1.561 -83.45   0
       181     46.7726    445.2242 307.9217437  +6.4616566     6179.414      23899.7     38115.93     93.55697     187.7127     375.4254      3.503     9.32     1278.228     66.20775     762.8584       113     2.849     2.342 -84.33   0
       182    481.3896    441.5275 307.7409436  +6.4775629     10763.55     24850.16     32907.68     93.55697     187.4136     375.4628      2.666     8.84     1270.334     66.20775     1092.423        66     2.861     1.285 -84.20   3
       183    477.3189    441.5667 307.7426369  +6.4774123     10348.62     26429.45     36198.25     94.00568     187.7874     375.6122      2.871     9.41     1270.299     66.20775     1013.838        67     2.918     1.282 -87.80   3
       184    685.9119    441.1482 307.6558120  +6.4844667     3503.266     9456.168     14071.94     94.15479     187.7127     375.7242      3.142     9.10     1266.565     66.20775     359.3933        67     2.916     1.691 -85.67   3
       185    689.6201    441.1542 307.6542681  +6.4845865     2900.354     5994.918     7363.642     93.70678     187.7874     375.4254      2.259     6.98     1266.567     66.20775     314.9767        22     1.907     0.899 -79.32   3
       186     31.1912    439.3216 307.9284351  +6.4635661        58711     140637.5       194827     93.70678     187.2638     375.4254      2.809     8.88     1278.054     66.20775     6043.534       127     3.016     1.809 -84.06   3
       187     27.1865    439.2277 307.9301054  +6.4634718     39535.74     90109.19     117904.2     93.70678      187.638     375.5001      2.600     9.09     1278.086     66.20775     4028.374        56     2.883     1.113 -83.03   3
       188    244.5851    439.3671 307.8396002  +6.4706203     4422.112     17489.91     29700.92     93.70678     187.5632     375.5001      3.674    10.07     1271.773     66.20775     533.8707       110     2.858     2.459 -87.49   0
       189    608.0931    440.1415 307.6882438  +6.4823148     657.4716     1658.994     2388.676     94.00568     187.7874     375.7988      2.512     5.54     1266.757     66.20775     97.35107         5     1.126     0.768   8.98   0
       190    981.8340    435.1075 307.5328219  +6.4966883     1776.256     4736.741     6819.621     94.30364     187.7127     375.6869      3.131    10.61     1261.644     66.20775     177.4958        41     2.340     1.626 -67.16   2
       191    654.3229    434.3800 307.6691968  +6.4862078     1733.517     4472.248     7641.004     93.70678     187.5632     375.5748      3.494    11.92     1265.955     66.20775      199.808        46     2.833     1.453  79.91   2
       192    658.3998    434.0477 307.6675109  +6.4864788     1524.397     3408.567     4722.052     93.25662     187.4136      375.089      2.482     8.65     1265.943     66.20775     209.4471        23     2.089     1.001  81.45   3
       193    611.5273    436.7573 307.6869310  +6.4838193     678.5859     1588.282     2666.471     94.00568     187.9368     375.6495      2.696     5.07     1266.398     66.20775     104.0048         8     1.500     0.486 -85.30   0
       194   1004.2231    427.1479 307.5237747  +6.5006961     1422.841     3577.817     4130.922     93.55697     187.8621     375.4628      2.593     8.91     1261.041     66.20775     167.6758        24     1.843     1.202  82.38   2
       195    570.6266    424.6372 307.7043775  +6.4874524     1840.835     4620.518     7551.121     93.70678      187.638      375.388      3.389     9.15     1266.595     66.20775     227.9333        38     2.417     1.420 -83.66   3
       196    566.5806    425.5959 307.7060288  +6.4869248     1854.983     4888.321     7285.628     93.70678     187.4136      375.388      3.072    10.12     1266.831     66.20775     183.6714        40     2.363     1.311  82.79   3
       197    924.3596    420.6595 307.5572478  +6.5007388     1119.241     3119.983     5335.602     94.15479     187.8621     375.6869      4.212     9.83     1260.848     66.20775     163.9111        25     1.931     1.395 -43.11   0
       198    754.1882    409.9557 307.6284640  +6.4995394     838.2768     1582.334     2832.458     93.55697     187.7127     375.2759      1.934     3.79      1263.82     66.20775     134.3018         5     0.823     0.501 -66.77   3
       199    755.7589    412.9532 307.6277066  +6.4983589     841.0467     2072.013     3080.232     94.00568     187.8621      375.388      2.522     7.83     1264.079     66.20775     112.4036        14     2.084     0.823 -29.56   2
       200    757.6940    408.0982 307.6270685  +6.5004185     640.0336      1429.45      2541.23     94.15479     188.5329     375.4254      2.714     3.99     1263.648     66.20775     116.0784         5     1.041     0.439 -77.23   3
       201    427.1851    412.0372 307.7645302  +6.4878953       765.65     2460.207     4156.497     93.70678      187.638     375.3506      3.132     6.78     1267.984     66.20775     120.7467        10     1.457     0.884  22.71   2
       202    653.1522    405.7487 307.6706732  +6.4979394     2940.018     7879.546     10945.32     94.30364     187.7127     375.6122      3.012     9.26     1263.444     66.20775     314.6699        59     2.576     1.857 -81.51   3
       203    657.0000    405.0054 307.6690970  +6.4983719     2259.885     4604.847     6599.296     93.25662     187.4136     375.3506      2.496     8.34     1263.344     66.20775     261.1318        25     2.679     0.725 -86.81   3
       204    817.5116    401.9883 307.6023755  +6.5048997     4662.694     16421.65     25002.59     93.70678     187.4884     375.4254      3.372     8.92     1262.615     66.20775     516.7609        97     2.677     2.191 -78.42   0
       205    339.5337    402.2953 307.8013580  +6.4890022     861.1878     1749.481     3324.481     94.15479     188.0114     375.6495      2.668     3.94     1267.738     66.20775     98.19971         6     0.975     0.456  -0.52   0
       206   1001.5955    398.0078 307.5258719  +6.5125893     694.2021      1503.11     2568.201     93.40691     187.4884     375.4254      2.764     4.26     1258.473     66.20775     118.5029         5     1.143     0.452  79.49   0
       207    157.3584    394.9926 307.8774523  +6.4859727     1313.619      2921.76     5170.474     93.40691      187.638     375.2759      3.037     8.04     1273.197     66.20775     169.3137        21     1.819     0.995 -87.38   3
       208    153.2785    395.1428 307.8791455  +6.4857757     1122.091     2751.518     4392.852     94.15479     187.8621     375.5748      3.273     8.83     1273.397     66.20775     133.8901        18     1.962     1.110  87.51   3
       209    795.3305    393.1867 307.6119138  +6.5077879     694.3935     1297.935     1932.394     93.55697     187.7127     375.4628      2.833     4.85     1262.355     66.20775     98.48083         5     1.067     0.625  23.60   0
       210    790.9301    393.3687 307.6137396  +6.5075682     694.2199     1496.156     2607.269     94.00568     187.8621     375.6122      3.031     4.20     1262.355     66.20775     96.07532         5     0.804     0.627 -79.81   0
       211    393.0952    389.4951 307.7795029  +6.4960354     956.5115     2265.649     4335.669     94.15479     188.6073     375.5001      3.408     8.20       1266.1     66.20775      112.938        12     2.031     0.925   7.34   2
       212    754.2104    373.8081 307.6297023  +6.5144003     4357.766     10491.19     15759.39     93.55697      187.638     375.5001      2.991     8.79     1260.718     66.20775     469.1831        60     2.910     1.378  89.20   3
       213    757.9948    373.7482 307.6281288  +6.5145496     3719.515     8327.217     10178.62     93.40691     187.5632     375.2011      2.394     7.07     1260.718     66.20775     383.6498        36     2.251     1.030 -83.14   3
       214    856.8102    374.2329 307.5869711  +6.5176032     664.8486      1394.51     2200.711     93.55697     187.5632     375.4254      1.977     3.78      1259.99     66.20775     133.5034         6     1.363     0.301 -64.47   0
       215    675.3953    370.0687 307.6626452  +6.5133406     938.2176     2304.348     4152.551     93.55697     187.4136      375.388      3.576     6.51     1260.233     66.20775     118.6154        12     1.616     0.737  58.72   0
       216    646.4090    365.2220 307.6748808  +6.5143775     4070.499     9606.394     13501.83     93.70678     187.5632     375.4254      2.857     8.91     1260.479     66.20775      402.795        37     2.469     1.079  89.40   3
       217    650.4751    365.2123 307.6731882  +6.5145155     4635.423     12652.99     22696.26     93.55697     187.4884      375.388      3.792     9.09     1260.378     66.20775     475.5726        89     3.051     1.985  87.43   3
       218    980.7995    363.3865 307.5357224  +6.5261389     1299.242     3892.034     5354.332     93.70678     187.4884     375.3506      2.914    11.48     1255.403     66.20775     166.3879        34     2.197     1.670 -88.28   0
       219    422.8957    360.3767 307.7681046  +6.5089907     7241.252     16505.27     21412.05     94.30364     187.5632     375.4628      2.593     8.52     1263.152     66.20775     736.1039        56     2.713     1.277 -87.97   3
       220    418.1360    360.2467 307.7700907  +6.5088868      6531.73     16516.79     23038.43     94.00568     187.7874     375.6495      2.851    10.21     1263.263     66.20775     654.6057        65     3.036     1.301 -89.91   3
       221    949.0604    354.5451 307.5492415  +6.5287305     1833.145      4735.75     6522.278     94.30364     187.7874     375.5748      3.013     9.21     1255.508     66.20775     234.1998        42     2.279     1.752 -79.47   2
       222    280.3398    350.3443 307.8278023  +6.5083999     3647.226     8746.668     12679.56     94.30364     187.8621     375.6495      3.035    10.64     1265.045     66.20775     406.8358        53     2.917     1.441 -76.93   3
       223    275.5032    351.3451 307.8297812  +6.5078284     2916.739     6679.218     9051.459     94.00568     187.8621     375.8362      2.795    10.25     1265.239     66.20775     284.9838        41     2.846     1.028 -85.15   3
       224    178.3998    339.4773 307.8706194  +6.5094913     1188.791     4921.524     7775.035     93.25662     187.1139     375.2759      3.515    12.55     1269.183     66.20775     186.1078        57     2.340     2.078 -41.25   0
       225    202.3946    334.5375 307.8608012  +6.5123169     801.7632     1956.768     3168.262     93.40692     187.5632     375.3506      3.267     7.10     1267.859     66.20775     115.6135         9     1.567     0.902 -82.44   0
       226    424.7243    329.9733 307.7683961  +6.5215497     557.9127     1661.243     2997.322     94.00568     187.7874     375.5748      3.283     7.88     1260.367     66.20775     120.9149         9     1.880     0.923  47.48   0
       227     18.5088    330.3791 307.9375012  +6.5079292     801.4207     2103.013     3769.508     94.00568      187.638     375.4254      3.415     5.68     1277.905     66.20775      104.113         8     1.307     0.694 -66.81   0
       228    479.7065    323.8199 307.7457176  +6.5258959     1793.882     4217.565     6141.748     94.00568      187.638     375.4254      2.854    10.20     1258.624     66.20775     219.5874        35     2.465     1.178  87.18   3
       229    475.2886    323.8282 307.7475567  +6.5257466     1773.857     4373.256     6055.123     94.30364     187.5632     375.5001      2.890    10.22     1258.733     66.20775     195.6741        37     2.560     1.137 -89.76   3
       230     76.5084    325.1081 307.9135381  +6.5120203     1006.515     2326.659     3739.115     94.15479     188.4585     375.6495      2.878     4.63     1275.652     66.20775     127.8182         7     0.998     0.609  70.70   2
       231     72.1192    323.6755 307.9154152  +6.5124637     675.9799     1922.008     3790.056     94.45227     188.1605     375.7242      3.994     5.77     1275.861     66.20775      129.311         8     1.315     0.921 -56.95   2
       232    816.1984    320.9210 307.6057185  +6.5381832     3978.038     8993.678     12985.72     93.40691     187.1889     375.3506      2.615     7.72      1256.09     66.20775     392.2877        46     2.503     1.175  83.18   3
       233    820.1081    319.9500 307.6041242  +6.5387110      3131.84     6935.871      9427.31     94.00568     187.7127     375.8362      2.478     7.69     1256.002     66.20775     353.9968        40     2.550     1.046  83.34   3
       234    525.5266    308.3776 307.7271748  +6.5337573     823.9942     2508.331     3712.679     93.70678      187.638     375.5375      3.250     6.84     1255.648     66.20775     112.4268        11     1.815     0.722  81.30   0
       235    883.2448    303.2896 307.5784109  +6.5476375     10809.32     34795.58     50211.44     94.15479     187.7874     375.7242      3.194     7.98      1253.87     66.20775     1205.524       112     2.740     2.118 -81.22   0
       236    496.2852    309.9706 307.7392944  +6.5321368     628.4138     1407.062     2217.084     94.15479     187.4884     375.4254      2.962     4.72     1256.889     66.20775     112.6154         5     1.059     0.597   0.63   0
       237    653.3560    297.8919 307.6743147  +6.5422856     627.1637     1760.599     2539.011     94.15479     187.7874     375.7615      2.756     6.69     1253.615     66.20775      89.2074         9     1.685     0.745  26.64   0
       238    738.0006    289.7069 307.6393544  +6.5484401     22947.86     56045.46     76098.81     93.55697     187.3387     375.2385      2.755     8.42     1253.359     66.20775     2288.909        79     2.887     1.407  85.51   3
       239    741.8134    289.4037 307.6377774  +6.5486904     18734.39     41489.08     52779.06     93.70678     187.4884     375.4628      2.490     7.52     1253.271     66.20775     1900.575        60     2.605     1.234 -89.20   3
       240    141.9389    285.2847 307.8876806  +6.5305605     1586.922     3522.307     5433.906     94.30364     187.9368     375.6495      2.659     8.83     1271.189     66.20775     191.1505        28     2.105     1.092 -83.06   3
       241    137.7013    284.6222 307.8894679  +6.5306924     1395.073      3447.76     5745.785     94.00568     187.5632     375.3506      3.010    11.05      1271.48     66.20775     164.2705        39     2.906     1.170 -87.86   3
       242    604.4044    287.0680 307.6950704  +6.5451207     763.6691     1925.014     3757.356     93.40691     187.4136     375.3506      4.078     7.02     1252.387     66.20775     115.0001        10     1.503     0.918 -39.82   0
       243    583.6415    283.3192 307.7038449  +6.5459768     1681.419     4821.305     7434.552     94.15479     187.8621     375.5375      3.056    11.91     1252.107     66.20775     187.5282        44     2.680     1.474 -86.07   3
       244    588.2883    282.2901 307.7019457  +6.5465532     1732.132     3586.594     5716.751     93.85635     188.4585     375.7242      2.469     9.11     1252.038     66.20775     172.7864        31     2.483     0.934  88.96   3
       245    446.6660    278.1070 307.7610565  +6.5435965     6198.762      17186.4     24216.72     94.00568      188.086     375.6122      2.984     9.75     1255.518     66.20775      604.796        72     2.981     1.491  89.78   3
       246    451.1627    277.6235 307.7592010  +6.5439438     6310.595     13928.57     17314.07     93.70678     187.5632     375.3506      2.425     7.73     1255.374     66.20775     691.7612        47     2.642     1.035 -85.89   3
       247    539.6950    269.1497 307.7226327  +6.5503513     1994.352     4765.541     6797.897     94.00568     187.7127     375.8362      2.682     9.27     1251.274     66.20775     218.2507        30     2.557     0.939 -69.22   3
       248    536.0562    268.3301 307.7241761  +6.5505681     2302.462     6400.353     10250.03     94.30364     187.7874     375.5748      3.452    10.56     1251.331     66.20775     225.1719        55     2.845     1.463 -74.74   3
       249    804.7836    266.7847 307.6123390  +6.5600627     1041.245     2456.192      4012.77     93.85635     187.4884     375.5375      3.253     7.26     1251.606     66.20775      118.494        15     1.477     1.001  51.36   2
       250    427.3006    256.3535 307.7698728  +6.5518991     1082.853     1686.053     2232.095     94.15479     187.7127     375.8735      1.744     3.59      1255.48     66.20775     158.0707         7     0.957     0.626 -38.38   3
       251    429.7883    251.8860 307.7689917  +6.5538179     1904.494     4313.547     6478.134     93.70678     187.5632     375.4254      2.825     8.56     1255.115     66.20775     222.1493        35     2.241     1.182  87.65   3
       252    425.3947    251.7818 307.7708246  +6.5537155     1707.178     3809.659     5680.777     93.70678     187.4136     375.4254      2.734     9.44     1255.493     66.20775     184.7808        34     2.379     1.044 -85.31   3
       253    793.7924    248.1975 307.6175568  +6.5673420      16524.4     42532.14     59326.28     93.40691     187.4884      375.388      2.887     8.21     1250.178     66.20775     1733.657        91     2.973     1.546  88.06   3
       254    797.5159    248.0052 307.6160131  +6.5675436     12882.86      27857.9     34327.64     93.55697     187.4136     375.2759      2.400     7.25     1250.172     66.20775     1336.229        44     2.298     1.116 -85.18   3
       255    465.0099    248.0040 307.7544609  +6.5565776     541.2844     1683.752     3114.032     93.55697     187.4884     375.4628      3.318     8.06     1252.103     66.20775     86.22559         9     1.674     1.084 -69.66   0
       256    970.0186    244.7113 307.5442988  +6.5745721      971.701     2185.413     2720.786     93.85635     187.5632     375.5001      2.670     5.44     1248.218     66.20775     147.1917        11     1.298     0.846  71.34   0
       257    791.6901    232.6686 307.6189681  +6.5736566     1882.856     4280.711     7332.093     94.30364     188.0114     375.6122      3.398    13.36      1249.05     66.20775     228.6069        46     2.569     2.136 -86.42   3
       258    795.9618    232.0000 307.6172125  +6.5740721     1338.795     2383.236     3412.406     92.95531     187.5632     375.3506      1.823     4.62     1248.967     66.20775     177.2123        11     0.998     0.833 -25.72   3
       259    811.3295    229.9116 307.6108856  +6.5754366     792.8771     2352.155     4016.988     94.30364     188.1605     375.6122      3.086     6.48     1248.806     66.20775     115.4136        11     1.789     0.660  -0.12   0
       260    291.5247    217.5579 307.8277499  +6.5633567     1489.789     3441.591     5990.081     94.00568     187.8621     375.6495      3.199     9.85     1260.533     66.20775        183.1        26     2.557     1.059  64.67   2
       261    287.3340    216.9616 307.8295155  +6.5634631     1235.359     3370.513     5842.842     94.00568     187.7874     375.7242      3.537     8.20     1260.906     66.20775     152.0288        18     1.893     0.994 -67.68   3
       262     19.5399    210.2643 307.9412478  +6.5573398     15885.95     62756.96     101065.4     94.15479     187.7874     375.6495      3.536     9.53     1280.931     66.20775     2157.093       148     2.990     2.409 -81.01   0
       263    764.7421    197.8732 307.6313900  +6.5870734     1629.959     4300.591     7007.465     94.30364     187.8621     375.5748      3.501    10.57     1247.823     66.20775      180.656        34     2.252     1.384  71.32   2
       264    944.7096    198.1283 307.5564424  +6.5928904     704.8713     1433.367      1732.79     94.00568     188.1605     375.6122      2.218     4.43     1246.636     66.20775     103.5439         7     1.288     0.434  64.68   0
       265    268.0083    180.1321 307.8388396  +6.5779634      655.845      1379.24     2836.711     93.55697     187.5632     375.5001      3.363     5.45     1264.593     66.20775     112.6169         8     1.463     0.572 -75.38   0
       266    497.8741    173.0358 307.7433718  +6.5884819     5555.638     15211.63     21040.26     94.00568     187.9367     375.6122      2.940     9.78     1246.616     66.20775     539.3271        62     2.979     1.316  83.71   3
       267    502.1137    172.1516 307.7416370  +6.5889854     5773.294     13609.45     18599.84     94.15479     187.7874     375.6495      2.742     8.26      1246.55     66.20775     582.2731        58     2.813     1.378 -88.75   3
       268    823.6491    171.5246 307.6077702  +6.5998448     4089.946     10030.71     14311.67     94.00568     187.9368     375.6495      2.840     8.97     1246.747     66.20775     436.2604        54     2.761     1.456  88.88   3
       269    828.0000    171.0298 307.6059755  +6.6001914     3308.586     6806.321     8677.489     93.25662     187.5632     375.3506      2.276     7.37     1246.696     66.20775      376.235        33     2.290     0.939 -88.17   3
       270     27.8463    159.1819 307.9395654  +6.5786142     1615.851     3609.877     5468.961     93.55697     187.7127     375.3133      2.838    11.63     1280.424     66.20775     182.4521        37     2.857     1.319 -66.02   2
       271     24.0059    158.2896 307.9411955  +6.5788536     1103.699     2749.574     4563.125     93.55697     187.4884     375.3133      2.877     9.02     1280.699     66.20775     143.6797        22     2.672     0.849 -71.29   3
       272    621.4424    158.1719 307.6924319  +6.5986710      1072.17     2926.512     5442.905     93.70678     187.8621     375.4628      3.339     7.73     1245.885     66.20775     117.8568        19     2.053     0.815  86.09   2
       273    625.6996    156.5984 307.6907136  +6.5994583     1145.986     2917.198     5458.841     93.55697     187.5632     375.2759      3.660     7.98     1245.934     66.20775     139.6198        18     1.704     1.046  36.13   2
       274    983.8890    154.9024 307.5416169  +6.6119482     988.6089     2622.003     4053.861     94.15479      188.384     375.6122      3.029     9.55     1242.831     66.20775     142.8226        17     2.040     1.248 -80.54   0
       275    930.4653    154.1166 307.5638907  +6.6105152     3991.487     12258.73      16084.2     94.30364     188.1605     375.6869      2.945     7.69     1245.084     66.20775     473.1952        76     2.446     1.912 -79.92   0
       276     57.0226    151.5073 307.9276839  +6.5827374     6505.587     24594.46     38921.89     94.15479      187.638     375.4254      3.468     9.05     1278.632     66.20775     783.0139       109     2.813     2.308 -81.59   0
       277   1017.0146    151.8927 307.5279264  +6.6142738     3923.681     10998.31     14224.08     93.85635      187.638     373.5901      2.876     7.07     1241.348     66.20775     469.3944        70     2.376     1.818 -85.07  16
       278    727.0280    152.3896 307.6486648  +6.6045291     858.0951     2311.024     3729.723     93.70678      187.638     375.4628      3.458     8.10     1246.571     66.20775     103.5812        16     1.902     0.966 -81.11   0
       279    780.7485    140.1714 307.6267166  +6.6113215     11522.57     39956.77     59657.82     93.70678     188.0114     375.5001      3.294     8.21     1245.951     66.20775     1302.512       120     2.765     2.232 -81.32   0
       280    384.0183    139.9654 307.7919265  +6.5983139     1835.435      6820.65     10957.67     93.55697      187.638     375.3506      3.525    11.67     1254.267     66.20775     224.1406        78     2.613     2.278 -69.74   0
       281    920.2343    142.3167 307.5685578  +6.6150297     871.5972     2078.368     2648.106     94.15479     187.8621     375.5748      2.728     5.70      1244.36     66.20775     122.5865         9     1.255     0.729  11.34   0
       282   1014.2398    138.7553 307.5295343  +6.6195834     1074.726     3146.111     4635.613     93.85635     187.8621     375.5001      3.222     9.95     1241.183     66.20775     144.6866        21     1.872     1.475 -17.96  16
       283    947.5701    137.2944 307.5573476  +6.6179931     2675.614     6443.652     7696.258     94.30364     187.5632     375.5001      2.586     7.57     1243.237     66.20775     287.0109        41     2.170     1.298 -77.70   3
       284    951.1734    137.0347 307.5558561  +6.6182183     1547.116     2935.757     4219.376     93.40691     187.5632     375.3506      2.229     6.58     1243.141     66.20775     230.1619        17     2.063     0.590 -83.40   3
       285    490.3905    137.0304 307.7477343  +6.6030361     1229.542     3284.735       5467.7     93.55697      187.638      375.388      3.203    11.85     1246.291     66.20775     151.5363        33     2.652     1.475  89.42   3
       286    494.8202    136.8270 307.7458967  +6.6032661     1344.151      2774.89     4070.919     93.55697     187.5632     375.4628      2.515     8.39     1246.243     66.20775     178.7291        19     2.027     0.972 -89.43   3
       287    147.1323    130.3470 307.8908988  +6.5944245     1021.366      2365.57     3717.116     94.00568     187.7874     375.5001      2.777     8.03     1274.421     66.20775     123.8033        17     1.840     0.980  69.32   3
       288    151.8528    127.9428 307.8890167  +6.5955693     1411.649     3494.552     5362.131     94.15479     187.8621     375.6122      3.212     9.40     1274.263     66.20775      177.868        28     1.908     1.488  66.15   2
       289    318.2056    125.5111 307.8198321  +6.6020787     7657.485      21274.1     30339.88     93.55697     187.4884     375.3133      3.021    10.56     1262.866     66.20775     718.4264        74     3.089     1.430  77.77   3
       290    322.3041    124.9239 307.8181458  +6.6024557      8727.37     20060.29     27837.33     93.70678     188.0114     375.6869      2.715     8.50     1262.486     66.20775     891.9326        63     2.871     1.341  79.54   3
       291    295.8195    127.7926 307.8290746  +6.6003999     1734.164     4969.676     7483.024     93.70678     187.5632      375.388      3.663    11.76     1265.192     66.20775     213.4354        39     2.170     1.833 -10.75   2
       292    292.9565    125.7078 307.8303391  +6.6011622     1370.608     2290.166     4660.672     94.15479     187.8621     375.7615      3.082     4.80     1265.654     66.20775     194.9601        11     1.319     0.758 -42.03   3
       293    297.7645    124.4190 307.8283817  +6.6018511     1611.858     3698.701     5990.564     93.55697      187.638     375.3506      4.018    10.51     1265.223     66.20775     194.0099        25     2.425     1.269  35.97   3
       294    442.2140    120.9521 307.7683521  +6.6080539     12401.11      33157.2     45726.87     93.40691     187.7874     375.2759      2.973     9.85     1249.009     66.20775     1168.966        82     3.101     1.485  84.85   3
       295    446.5481    120.2146 307.7665729  +6.6085003      12269.3     27498.54     35365.43     93.40692     187.8621     375.3133      2.555     7.99     1248.676     66.20775     1204.891        59     2.715     1.187  88.89   3
       296    202.3249    121.3031 307.8682309  +6.5999714       1126.1      2657.08     5522.571     93.70678      188.086     375.6495      4.028    13.46     1272.414     66.20775     163.9834        27     2.587     1.948  33.57   2
       297    350.8102    118.1184 307.8065117  +6.6061965     4757.319     11403.42     18203.38     93.70678     187.4884     375.4254      3.036     8.55      1259.73     66.20775     472.6582        66     2.910     1.588 -88.58   3
       298    345.8046    118.3025 307.8085897  +6.6059552     4172.365     11022.77      15579.1     93.85635     187.4884     375.2385      2.896    10.53     1260.284     66.20775     400.3727        56     2.900     1.280  84.51   3
       299    783.1516    116.0017 307.6265502  +6.6213366     9488.045     32696.77     48627.75     93.40691     187.4136     375.1264      3.276     8.39     1245.094     66.20775     1116.247       117     2.724     2.253 -84.23   0
       300    101.9845    114.3875 307.9102524  +6.5994880     2554.408     6900.397      11819.7     94.00568     187.4884     375.5375      3.514    11.57     1275.836     66.20775     270.4553        62     2.922     2.192 -83.42   2
       301     98.2929    114.4208 307.9117884  +6.5993519     2031.862     3620.702     5223.366     94.00568      187.638      375.388      2.410     5.86     1275.962     66.20775     202.1335        17     1.261     1.074  -8.82   3
       302    321.4429     91.2536 307.8196719  +6.6162685     8099.477     19529.85     26747.26     94.15479     187.8621     375.6122      2.878     9.07     1264.699     66.20775     842.1388        74     3.075     1.511  88.95   3
       303    316.4097     91.2159 307.8217691  +6.6161175     7112.878     17334.82     24976.59     93.85635     187.5632     375.5001      2.972     9.51     1265.257     66.20775     699.2682        62     3.004     1.235  89.32   3
       304     66.4841     90.3118 307.9258714  +6.6082073     1247.327     2448.357     4636.964     93.85635      188.086     375.6869      3.071     6.46     1278.666     66.20775     182.4518        15     2.244     0.522 -83.11   2
       305     62.1739     89.5624 307.9276922  +6.6083723     1210.385     3200.557     5371.787     93.70678      187.638     375.4254      3.749    10.88     1279.013     66.20775     150.1873        24     2.180     1.513 -72.37   2
       306    750.3177     87.1955 307.6412178  +6.6320972     2175.645      7851.12     12314.98     93.55697     187.4136     375.2759      3.421     9.77     1242.973     66.20775     258.7495        78     2.572     2.138 -81.45   0
       307    160.0246     87.0373 307.8870346  +6.6126556     1129.195      3034.53     6371.772     93.70678      187.638     375.3133      5.046     9.16     1273.795     66.20775     139.7938        26     2.254     1.040  57.44   2
       308    163.4007     85.6727 307.8856761  +6.6133284     1359.885     3156.444     5636.536     93.40692     187.3387     375.4254      3.655     4.33     1273.698     66.20775     203.2574        14     1.169     0.850  63.73   3
       309    430.2409     80.5253 307.7747382  +6.6242771     1168.997     2911.576     4883.175     94.00568     187.8621     375.6495      3.259     9.81     1251.178     66.20775     138.4679        23     2.120     1.266  61.22   2
       310    434.6248     80.2185 307.7729232  +6.6245481      1058.83     2525.441     4185.991     93.55697     187.5632     375.5375      3.157     7.20     1250.877     66.20775      121.729        15     1.479     1.096  87.12   3
       311    398.1360     81.3045 307.7880804  +6.6228954      815.843     2065.288     3748.311     94.00568     188.0114     375.6495      3.076     5.48     1254.882     66.20775     109.2616         7     1.079     0.785 -64.30   1
       312    394.0706     79.5838 307.7898329  +6.6234683     860.9445     1952.517     3693.763     93.55697     187.7874     375.4628      2.954     5.34     1255.508     66.20775     137.3259         8     1.320     0.609 -73.57   0
       313    248.2750     69.2306 307.8509042  +6.6228995     1411.051     5333.289     9996.421     94.00568     187.9368     375.6122      4.236    15.01     1271.302     66.20775     181.4115        65     2.881     2.176 -79.08   2
       314    712.3293     68.3491 307.6576885  +6.6385931     1107.601     2295.139     4362.086     94.00568     187.7874     375.6495      2.604     5.77     1242.541     66.20775     176.8663        10     1.694     0.553 -61.14   3
       315    708.5184     67.0090 307.6593219  +6.6390184     1930.756     5195.973     8515.626     93.70678     187.4136     375.4254      3.402    12.60     1242.573     66.20775     204.7495        53     2.505     2.165  84.06   2
       316    660.7590     65.4931 307.6792632  +6.6380671     2856.791     8292.305      13632.8     94.30364     187.7874     375.7242      3.594    15.69     1243.783     66.20775      354.493        72     2.919     2.345 -80.81   3
       317    664.0795     56.3915 307.6781949  +6.6419182     15567.38     41383.32     60902.05     93.70678     187.4136     375.4254      3.072     8.79     1243.215     66.20775      1563.11        83     2.964     1.561  79.58   3
       318    668.0000     55.9886 307.6765762  +6.6422131     12880.32     27447.29     33718.14     93.55697     187.4136     375.3506      2.395     7.37      1243.08     66.20775      1373.48        43     2.514     1.057 -89.70   3
       319    391.2328     60.4116 307.7916790  +6.6312558     1067.919      2917.09     5319.001     93.55697     187.5632     375.4628      3.216     9.19     1256.798     66.20775     142.0394        21     2.495     0.944 -58.56   3
       320    386.8709     60.9729 307.7934760  +6.6308808     1006.882     2634.377     4702.383     93.70678     187.7127     375.5375      3.409     9.03     1257.313     66.20775     133.7565        20     2.543     0.896 -71.92   2
       321    347.3957     50.1067 307.8102912  +6.6340420     1131.158     2735.692     5491.013     93.70678     187.4884     375.2759      3.870    11.38     1263.173     66.20775     139.8129        19     2.547     1.417 -44.54   2
       322    198.4529   1015.4519 307.8388260  +6.2322732     7334.229     19864.69     25381.75     94.30365     187.7127     375.6495      2.827     6.81     1302.768     66.20775     726.0011        84     2.440     1.875  88.89  16
       323    728.1163     41.5434 307.6520401  +6.6501330     907.5721     2380.284     4450.602     94.15479     187.8621     375.7242      4.226     8.13     1240.798     66.20775     139.7659        14     1.733     1.065 -86.76   2
       324    469.4908     30.7213 307.7601181  +6.6460479     974.7711     2846.684     4314.567     93.85635     188.1605     375.6869      3.048     9.15     1252.061     66.20775     124.2821        19     1.851     1.261  75.83   2
       325    474.0432     30.7955 307.7582197  +6.6461679     1065.728     2612.417     4368.271     93.40691     187.4884     375.2759      3.104     6.87     1251.811     66.20775     124.2897        14     1.492     0.887 -65.40   2
       326    641.9169   1018.4406 307.6541929  +6.2456941     1054.932     2614.276     2606.607     94.15479     187.9368     362.2672      2.557     8.24     1303.077     66.20775     160.3297        15     1.700     1.115 -46.53  16
       327    872.0020   1012.8994 307.5586400  +6.2555474     1711.828     3990.555     4834.929     93.55697     187.5632     375.2759      2.488     7.64     1301.473     66.20775     194.3831        30     1.825     1.184 -76.72  16
       328    512.9434   1013.7194 307.7080241  +6.2433810     1652.771     4568.708     5860.604     94.30364     187.8621     375.6122      2.787     8.03     1302.039     66.20775     192.5709        35     1.902     1.559  60.53  16
       329    792.1604   1011.4089 307.5919157  +6.2535334     775.8298     1535.811     1113.983     93.40691      187.638     375.3133      1.767     5.15     1302.267     66.20775     117.3448         7     1.135     0.659  25.49   0
       330    615.9104   1008.5335 307.6653567  +6.2489095     1478.677     3909.551     4642.874     94.30364     188.0114     375.5375      2.652     9.88     1302.114     66.20775     155.7739        34     1.926     1.506 -51.69   0
       331    745.0662    996.6816 307.6120206  +6.2580373     1901.331     5189.645     5840.469     94.45227     188.1605     375.6869      2.636     7.83     1301.506     66.20775     226.6215        43     2.045     1.522 -75.69   0
