#   1 NUMBER                 Running object number                                     
#   2 X_IMAGE                Object position along x                                    [pixel]
#   3 Y_IMAGE                Object position along y                                    [pixel]
#   4 ALPHA_J2000            Right ascension of barycenter (J2000)                      [deg]
#   5 DELTA_J2000            Declination of barycenter (J2000)                          [deg]
#   6 FLUX_APER              Flux vector within fixed circular aperture(s)              [count]
#   9 FLUXERR_APER           RMS error vector for aperture flux(es)                     [count]
#  12 FLUX_RADIUS            Fraction-of-light radii                                    [pixel]
#  13 FWHM_IMAGE             FWHM assuming a gaussian core                              [pixel]
#  14 BACKGROUND             Background at centroid position                            [count]
#  15 THRESHOLD              Detection threshold above background                       [count]
#  16 FLUX_MAX               Peak flux above background                                 [count]
#  17 ISOAREA_IMAGE          Isophotal area above Analysis threshold                    [pixel**2]
#  18 A_IMAGE                Profile RMS along major axis                               [pixel]
#  19 B_IMAGE                Profile RMS along minor axis                               [pixel]
#  20 THETA_IMAGE            Position angle (CCW/x)                                     [deg]
#  21 FLAGS                  Extraction flags                                          
         1    621.2715     28.2807 307.6737185  +6.6948847     3175.049     6704.624     8514.061     93.44988     186.2374     371.6629      2.389     8.87      1209.57     65.50511     352.4742        34     2.353     1.077  48.73   3
         2    623.6351     25.7732 307.6728211  +6.6959977     3118.323      6966.36     10765.87     92.56409     185.5726     371.3672      2.918     9.53     1209.538     65.50511     368.5933        32     2.369     1.139  42.24   3
         3    629.2971     32.6025 307.6702323  +6.6933671      3872.76     8514.082     11187.19      92.7123     185.5726     371.2563      2.985    14.79     1209.655     65.50511     419.3539        56     4.136     1.472  79.28   3
         4    632.0120     29.9832 307.6691926  +6.6945378     3270.064     6813.918     9725.706     92.86029     185.4986     371.5151      3.123    12.03     1209.607     65.50511     414.3492        54     3.934     1.302  86.15   3
         5    393.6921     26.0986 307.7684590  +6.6882395     2846.143     6094.045     7530.051     93.15556     186.4585      371.589      2.425     9.63     1222.334     65.50511     310.3165        40     2.420     1.266  52.29   3
         6    653.9516     24.1165 307.6602668  +6.6976851     7098.712      19421.7     31336.69     93.15556     185.8684     371.6629      3.412     7.95     1209.523     65.50511     816.7874       110     2.788     2.274 -37.02   0
         7     38.8188     20.3371 307.9162670  +6.6788146     1368.757     3930.825     4711.624      92.7123     185.8684     371.4781      2.783     9.47     1243.462     65.50511     203.9977        33     2.025     1.644 -85.15   0
         8    130.4265     16.5923 307.8782920  +6.6834108     1950.696     4554.511     6741.668      92.7123     185.6466     371.4411      2.851    10.35      1241.02     65.50511     218.4871        39     2.446     1.548  54.67   3
         9    862.3992     14.5187 307.5738840  +6.7085388     827.7109      1628.98     2042.111     92.26693     185.3505     371.2932      1.994     5.10     1201.941     65.50511     140.0037         9     1.345     0.546  57.95   0
        10    772.3716      4.5336 307.6116752  +6.7096841     1111.353     3705.976     3939.373     92.86029     185.7945     333.7034      2.635     9.62     1202.742     65.50511     169.1919        32     2.152     1.696  29.36  24
        11    597.4048      1.8033 307.6845521  +6.7050203     3477.112      5508.07     5618.172     86.90236     155.4557      288.413      1.686     5.79     1208.981     65.50511      556.516        24     1.719     0.839   5.43  24
        12    762.3385    990.6818 307.5821983  +6.3023992     807.5269     1890.073     1960.552     93.30283     185.8684     371.6259      2.315     3.76     1271.669     65.50511     127.6141         5     0.859     0.472  79.18   2
        13    984.6066   1023.4669 307.4886945  +6.2962067     837.1991     938.6523     1249.868     83.18892     150.7927     283.3215      1.217     3.61     1269.266     65.50511     182.7037         7     0.879     0.662  15.57  24
        14    862.8907   1023.7245 307.5392773  +6.2920846     885.7913     1470.532     1909.031     80.16285     146.9185     278.6302      1.752     4.99     1272.347     65.50511     202.4471        10     1.632     0.431  -4.23  24
        15    506.9819   1023.7780 307.6872066  +6.2802920     746.9375     1089.816     793.8327     79.12844     145.6985     277.2964      1.358     3.58     1275.402     65.50511     188.5326         5     0.889     0.415  -1.30  24
        16    460.6351   1022.4600 307.7065150  +6.2793001     1458.546     2591.458     2575.712     93.15556     167.1189      301.904      1.843     7.41     1275.121     65.50511     165.2126        20     1.529     1.005  35.63  24
        17      5.3909    987.3381 307.8969299  +6.2786700     1389.181     2795.698      3229.17     92.41563     185.7206     345.1517      2.093     7.35     1273.787     65.50511      184.448        21     1.563     1.089  37.88  16
        18    855.5588    985.4420 307.5436289  +6.3076407      728.463     1254.338     1369.998     92.86029     185.8684     371.4781      1.653     3.94     1269.766     65.50511     117.3113         5     0.984     0.452 -13.58   0
        19    271.6010    984.2125 307.7863932  +6.2888118     557.7534     1132.458     1588.366      92.7123     185.4986     371.4042      2.043     3.76      1275.75     65.50511     75.95996         5     1.018     0.399   5.57   0
        20    979.5960    981.7209 307.4921975  +6.3132690     670.6429     1288.952     1416.103      92.7123     185.2764     371.3302      1.921     4.81     1267.582     65.50511     108.9923         6     1.215     0.541 -27.81   0
        21    548.0172    981.2659 307.6716033  +6.2991946     1068.707     2201.609     2363.257     92.56409     185.7945     371.4781      2.217     6.77     1274.536     65.50511     130.6926        14     1.185     1.086  24.18   0
        22    266.0939    976.5816 307.7889436  +6.2917779     615.3813     1567.629     2277.556     93.00803     185.5726     371.4781      3.690     8.76     1275.673     65.50511     109.1572        10     2.247     0.953  64.90   0
        23    588.2751    976.9908 307.6550161  +6.3022918     809.0292     1516.577     1397.009      92.7123     185.3505     371.4411      1.717     5.57     1273.491     65.50511      114.184         7     1.339     0.653  33.08   0
        24    735.2004    972.6295 307.5940941  +6.3089519     725.7748     1426.798     1451.589     92.41563     185.6466     371.4042      2.511     4.19     1271.401     65.50511     93.10779         6     0.741     0.676  64.81   0
        25    871.8855    968.3240 307.5374255  +6.3152439      4935.19     10162.16      10978.6     93.30283     186.2374     371.6998      2.072     4.80     1268.367     65.50511     522.3593        44     1.765     1.381  63.87   0
        26    309.6536    964.3971 307.7712558  +6.2982523     5234.843     12951.04     14973.97     92.41563     185.6466     371.1823      2.472     5.91     1275.697     65.50511     676.5392        56     2.015     1.600  59.23   0
        27    408.0744    965.5396 307.7303084  +6.3010465     1238.484      2847.26      3352.85     93.44988     185.8684     371.6259      2.488     7.63     1274.901     65.50511     146.6876        20     1.596     1.269 -64.12   0
        28    229.7316    963.4266 307.8045080  +6.2959986     3751.412     9484.479     11246.17      92.7123     185.7206     371.5151      2.564     6.00     1275.301     65.50511      490.527        49     1.933     1.572  53.35   0
        29    558.6603    957.5408 307.6679901  +6.3093377     761.9507     1491.544     881.0322     93.15556     185.8684     371.6629      1.898     5.69     1273.721     65.50511     94.13025         7     1.287     0.707  43.54   0
        30    723.4404    946.8494 307.5998617  +6.3192019     1000.792     1795.457     1651.834     93.30283     185.8684      371.552      1.845     6.30       1270.3     65.50511     148.5712        10     1.214     0.918 -65.24   0
        31    954.3096    940.3846 307.5041151  +6.3294936     672.3887     1813.507     2546.021     92.86029     185.6466     371.4411      2.941     5.47     1265.736     65.50511     116.8772         7     1.056     0.801 -36.96   2
        32    642.6986    939.9757 307.6336582  +6.3193680     1465.047     3415.186     4458.803     93.30283     185.5726     371.4042      2.757     7.63     1271.075     65.50511     170.3527        25     1.723     1.342  49.39   0
        33    507.8037    941.4138 307.6896804  +6.3143082      625.704     1084.034     1045.398      92.7123     185.4986     371.4781      2.254     4.51     1274.102     65.50511     104.9041         5     0.984     0.587  46.16   0
        34     57.6567    936.0538 307.8769680  +6.3015723     1091.105     2457.461     2808.739     93.30283     185.8684     371.6259      2.401     7.49     1273.515     65.50511     183.5178        19     1.868     1.101  72.70   0
        35    183.4178    935.2297 307.8247247  +6.3060952      1154.58     2958.303     3045.396      92.7123     185.6466      371.552      2.332     8.50     1274.852     65.50511     124.2787        22     1.767     1.143  56.62   0
        36    637.2212    929.1957 307.6363030  +6.3236353     3786.032     9015.588     10028.18      92.7123     185.5726     371.3672      2.393     5.54     1270.964     65.50511     413.0222        46     1.791     1.580  46.87   0
        37    874.8804    925.4622 307.5376405  +6.3330307     1912.834     4058.733     4635.677     93.30283     185.9422      371.589      2.207     7.05     1265.312     65.50511     221.4937        24     1.684     1.138  65.43   0
        38    320.3769    922.6821 307.7682273  +6.3158224     8424.518      21739.5     25795.56     93.00804     185.4986     371.5151      2.576     5.93     1275.089     65.50511     958.4993        67     2.092     1.712  57.95   0
        39     39.5426    936.3812 307.8844856  +6.3008344     1784.055     3924.729     3607.815      92.7123     185.7945     371.4042      2.289     6.00     1273.339     65.50511      202.922        26     1.726     1.168  42.97   0
        40     84.1018    912.7325 307.8667769  +6.3120759     1007.974     2261.403     2687.239     93.15556     186.0161     371.6629      2.518     8.05     1273.173     65.50511     140.7378        14     1.735     1.044  51.33   0
        41     67.3416    907.1688 307.8739343  +6.3138141     1290.126     3499.072     3916.767     92.86029     185.8684      371.552      2.481     7.88     1272.879     65.50511     211.4966        26     1.877     1.368  61.66   0
        42    865.4626    906.7614 307.5421924  +6.3404372     1240.135     2547.857     2516.301     93.15556     185.8684     371.6998      2.153     8.21     1264.419     65.50511     139.1322        21     1.554     1.213  35.34   0
        43    799.3686    905.7970 307.5696998  +6.3386524     1780.186     4091.118     4594.517     92.41563     185.6466     371.3672      2.429     6.73     1267.799     65.50511     192.0868        31     1.692     1.363  35.25   0
        44    835.7969    906.2407 307.5545418  +6.3396725     1248.504     2478.805     3028.063     92.26693     185.4986     371.3302      2.084     6.98     1265.918     65.50511     149.6211        16     1.386     1.038  37.02   0
        45    535.4412    897.6973 307.6796865  +6.3332641     171015.8     437401.1     513818.7     93.15556     185.7206     371.8845      2.541     5.98     1271.428     65.50511     17731.33       191     2.251     1.929  56.54   0
        46    379.7306    900.3849 307.7443195  +6.3269933     3866.949      9837.36     11537.22     92.56409     185.7945     371.5151      2.551     6.09     1273.554     65.50511     415.2454        53     2.029     1.609  62.15   0
        47    323.0190    898.9006 307.7679435  +6.3257238     6267.155     16396.43     19420.19     93.15556     185.7206     371.3672      2.558     6.06     1274.444     65.50511     745.8324        65     2.028     1.777  61.99   0
        48    641.3227    894.6153 307.6357788  +6.3380413      1815.17     4493.493     4873.804      92.7123     185.4986     371.4411      2.475     6.33     1269.534     65.50511     197.8158        32     1.590     1.418 -89.86   0
        49    873.6362    893.5664 307.5392442  +6.3461522      3490.83     7657.375      9156.97     92.86029     185.5726     371.3302      2.359     5.24     1263.571     65.50511     344.3578        40     1.646     1.513  61.73   0
        50    615.8426    888.6075 307.6465756  +6.3396773     1736.768     4549.546     5657.189     92.56408     185.6466     371.2932      3.001     7.58     1269.835     65.50511     206.7592        37     1.942     1.412  51.71   0
        51   1007.1269    887.6146 307.4839550  +6.3530122      3239.69     6552.745     6477.271     92.56408     185.5726     371.5151      2.077     4.88     1261.371     65.50511     349.3113        36     1.679     1.294  70.01   0
        52    804.4294    888.0983 307.5681994  +6.3461233     1011.105     2242.536     1958.061     93.30283     185.5726     371.6629      2.195     8.44     1266.433     65.50511     108.1339        18     1.652     1.205  85.74   0
        53    608.9522    882.4249 307.6496510  +6.3420006     1164.812     2924.594     3986.574      92.7123     185.8684     371.5151      2.973    10.44     1269.588     65.50511     140.0095        22     2.014     1.508  46.18   2
        54    892.4689    881.3794 307.5318306  +6.3518032     1915.657     4609.083     5259.906      92.7123     185.7945     371.5151      2.426     6.70     1262.539     65.50511      224.015        32     1.671     1.475  41.22   0
        55    351.2641    876.6487 307.7569648  +6.3358437     1381.636     3167.933     3417.256     93.00804     185.7206     371.6998      2.406     5.89     1272.973     65.50511     164.6887        20     1.496     1.106  42.38   2
        56    215.9815    872.0192 307.8133567  +6.3332617      586.709     1196.788     1882.929     92.86029     185.7945      371.552      1.573     4.81     1273.976     65.50511     85.75256         6     1.427     0.460  30.39   0
        57    487.0032    867.5341 307.7008525  +6.3441065     1629.937     4232.358     4328.659     92.26692     185.5726     371.3672      2.384     8.91     1271.636     65.50511     157.6322        36     1.834     1.509  61.17   0
        58    831.5922    865.4902 307.5576784  +6.3563503     634.9277     1503.596     2473.537      92.7123     185.4986     371.3302      2.832     6.32     1263.617     65.50511     113.0168         7     1.329     0.844  24.65   0
        59    533.8592    863.2711 307.6815208  +6.3474182     3101.603     8022.786     10626.87     93.30283     185.8684     371.6998      2.902     7.10     1269.198     65.50511      351.376        55     2.193     1.721  35.50   0
        60    451.9591    862.0114 307.7156087  +6.3452240     692.9125     1755.051     1614.197     92.41563     185.6466     371.2932      2.372     7.88     1271.533     65.50511      117.007        12     1.423     1.222  28.64   0
        61    541.2656    861.3601 307.6785073  +6.3484522     659.5435     1340.175     2602.691     93.15556     185.7945     371.7737      3.729     5.47     1268.746     65.50511     113.3148         5     0.993     0.848  69.71   1
        62    504.5344    857.3582 307.6939129  +6.3488868      9506.65     25426.66     30141.93     93.15556     185.7945     371.7368      2.602     6.11     1269.961     65.50511     1050.799        77     2.131     1.843  62.05   0
        63    918.0472    855.4193 307.5220816  +6.3633604     2567.252     5715.442     6107.518     92.56408     185.8684     371.4042      2.196     5.38     1260.832     65.50511      277.226        37     1.704     1.409  51.85   0
        64    297.2906    846.0366 307.7804490  +6.3466846     1670.619     4229.626     4638.759     93.30283     185.7945     371.6629      2.576     7.32     1273.694     65.50511      210.913        35     1.771     1.634  50.97   0
        65     14.8567    847.7766 307.8977896  +6.3365753     882.7542     1843.177     2368.948      92.7123     185.8684     371.4042      2.448     7.71      1270.98     65.50511      120.085        12     1.383     1.202  -9.36   0
        66    762.5848    841.7689 307.5871738  +6.3638596     29955.38     74084.21     84761.78      92.7123     185.5726      371.552      2.460     5.76     1263.797     65.50511     2881.732        95     2.110     1.755  57.62   0
        67    219.4446    818.7258 307.8137444  +6.3553687     782631.9      2557804      3241715     93.00804     185.9422     371.6629      2.932     6.97     1272.183     65.50511     64029.15       589     2.819     2.287  67.32   4
        68    887.6473    836.9374 307.5353486  +6.3699841     5256.274      11714.5     13420.25     93.00803     185.7206     371.6629      2.333     5.33     1260.966     65.50511      517.322        52     1.950     1.539  63.47   3
        69    884.6805    828.1472 307.5368814  +6.3735137     3976.566      9097.78     9701.952     93.15556     185.8684     371.6629      2.249     5.87     1260.804     65.50511     392.7075        42     1.805     1.434  62.54   3
        70    685.7639    833.6115 307.6193872  +6.3646860     37562.77     110156.1     161031.1     92.56409     185.6466     371.2932      3.213     9.54     1265.065     65.50511     4339.102       168     3.548     1.910  32.05   0
        71    329.5852    834.0619 307.7674347  +6.3526982     9180.502     26302.89     32277.21     92.56408     185.7945     371.4042      2.699     6.48     1271.846     65.50511     1068.985        81     2.266     1.843  53.28   0
        72    391.4462    831.8751 307.7417946  +6.3556534     10051.41     28280.79     35114.07     93.00804     185.9422     371.6259      2.744     6.43     1270.258     65.50511      1222.11        88     2.257     1.922  53.33   0
        73    928.1487    830.2874 307.5187381  +6.3740650     1356.953     3047.942     3395.264     93.15556     185.7206     371.7368      2.361     7.52     1259.956     65.50511      166.048        21     1.504     1.162 -63.40   0
        74    625.1688    827.6543 307.6447804  +6.3651395     3001.449     8348.958     9752.599     93.00804     185.9422      371.552      2.582     6.88     1265.344     65.50511      322.132        50     1.859     1.819  71.52   0
        75    660.2616    817.3035 307.6305454  +6.3705722     1258.839     3087.746      3234.34     92.86029     185.9422     371.6998      2.359     7.12     1264.079     65.50511     172.0468        20     1.658     1.250  74.93   0
        76    394.3511    814.5370 307.7411804  +6.3629045     24210.38      68529.3     84006.27     93.00804     185.7945     371.6998      2.716     6.50     1269.272     65.50511     2770.955       104     2.268     1.945  55.87   0
        77    512.0485    813.5211 307.6922881  +6.3672259     3324.329     9029.557     11005.64     93.15556     185.9422      371.589      2.654     6.74     1265.993     65.50511     386.8997        54     2.004     1.768  42.32   0
        78    428.4142    811.4190 307.7271271  +6.3653210     2041.686     5890.568     9557.529      92.7123     185.4986     371.4781      3.658    13.72     1268.216     65.50511     249.3395        61     3.222     1.625  55.65   2
        79    757.0961    809.9058 307.5905423  +6.3768272     5931.247     15092.57     17339.32     93.15556     186.6057     371.5151      2.462     5.87     1262.011     65.50511     615.6465        57     1.942     1.678  56.14   0
        80    108.1505    792.4268 307.8609102  +6.3625207     1048.284     2190.271     3128.068      92.7123     185.9422      371.552      2.664     7.30     1269.553     65.50511     142.4325        13     1.626     0.917  43.81   3
        81    123.4416    802.4072 307.8542114  +6.3589109     1587.276     3948.339      5213.88     92.41563     185.4986     371.2932      2.637     8.73     1270.101     65.50511     205.5427        26     1.673     1.427 -84.14   3
        82    115.1976    802.4672 307.8576362  +6.3586119     5351.784     15031.16     21025.01     92.41563     185.4246     371.4042      3.210     6.72     1269.999     65.50511     697.3217        82     2.738     1.939  19.87   3
        83    108.2263    798.8782 307.8606573  +6.3598610     1583.805     3953.477     6784.098     93.00803     185.7945      371.589      3.433     8.33     1269.804     65.50511      205.223        26     2.042     1.078  42.03   3
        84    778.7116    802.9635 307.5817931  +6.3804065     649.3289     1564.312     2242.932     93.15556     185.7206     371.6259      2.396     3.88     1261.449     65.50511     104.1143         5     1.365     0.316  27.42   0
        85    902.5778    798.3230 307.5304570  +6.3864121     3719.879     8686.837      10146.3      92.7123     185.6466      371.552      2.358     5.77     1259.464     65.50511     378.2471        46     1.810     1.597  43.93   0
        86    951.9453    798.1680 307.5099388  +6.3881050     974.3181       2246.6      2491.76     93.00804     185.8684      371.589      2.231     7.07     1258.073     65.50511     117.6255        15     1.694     0.826   7.92   0
        87    658.6110    796.4028 307.6319451  +6.3791427     785.5654     1937.719     1791.459      92.7123     185.4986     371.4411      2.468     8.22     1262.345     65.50511     112.3843        12     1.673     1.130  63.37   0
        88    545.1844    795.1833 307.6791400  +6.3758910     1011.959     2870.558     4347.123     92.86029     185.4986      371.552      2.986     9.55     1264.117     65.50511      135.219        22     1.680     1.515  41.94   0
        89    926.2375    789.7272 307.5209137  +6.3907402     1822.389     3811.889     4378.024     93.00804     185.8684     371.6998      2.104     6.33     1258.272     65.50511     204.0658        25     1.458     1.376  22.44   0
        90    896.9348    790.3242 307.5330754  +6.3895268     1954.065     4477.363     4628.742     93.30283     185.8684      371.589      2.327     7.55     1258.888     65.50511     225.6423        27     1.584     1.271  76.32   0
        91    956.7811    789.5414 307.5082221  +6.3918245      1169.06     2248.912     2281.088      92.7123     185.7206     371.4042      1.984     7.23     1257.346     65.50511     149.6058        18     1.365     1.073 -28.81   0
        92    795.2368    787.6655 307.5754448  +6.3872656     555.5662     1417.846      1589.26     93.00804     185.7945     371.6998      1.929     6.04     1260.057     65.50511     119.4883         7     1.855     0.553  74.36   0
        93    941.1318    777.7615 307.5151291  +6.3961695     1665.898     3492.947     4259.878     93.00803     185.8684     371.7368      2.172     6.88     1256.902     65.50511     166.5088        30     1.844     1.178  64.55   0
        94    913.8400    780.3391 307.5263875  +6.3942053     700.6191     1210.701     1431.077     93.15556     185.8684     371.6998      2.128     4.27      1257.66     65.50511     96.78748         6     0.762     0.682  62.71   0
        95    887.7855    778.8524 307.5372698  +6.3939589     837.2299      1636.72     1174.991     92.41563     185.7945     371.3302      1.912     6.74     1258.094     65.50511     112.2988        10     1.446     0.882 -75.46   0
        96   1015.0507    771.7239 307.4846037  +6.4010989     4964.971     10204.31     11678.38     93.15556     185.9422     371.6259      2.185     4.98     1254.929     65.50511     525.7028        44     1.743     1.428  53.96  16
        97    982.4893    771.1634 307.4981599  +6.4002566      1178.56     2365.599     2294.195     93.15556     185.7945     371.6259      2.051     6.21     1255.546     65.50511     147.6693        16     1.303     1.102  32.63   0
        98    870.0794    768.1859 307.5449943  +6.3977762      730.028     1831.674     2124.244      92.7123     185.5726     371.3672      2.641     6.50     1257.448     65.50511     134.6022         8     1.185     1.001  83.26   2
        99    222.3230    784.9955 307.8137044  +6.3693835     860.8272       2456.1      3378.95      92.7123     185.2764     371.4411      3.528     8.85     1270.614     65.50511     147.4027        14     1.635     1.337 -48.00   0
       100     27.3064    758.1296 307.8956942  +6.3739828     1338.988      3263.68     3759.212     93.15556     185.9422     371.6259      2.617     6.65     1268.028     65.50511     200.8988        26     1.742     1.547  61.34   0
       101    826.9497    758.4901 307.5632553  +6.4003532     883.9957      1855.43     1708.386     93.15556     185.6466     371.8106      2.164     6.43     1257.066     65.50511     110.6389        11     1.232     0.942 -75.63   0
       102    639.1815    745.9506 307.6417453  +6.3993199     2720.082      7469.66     8043.733     92.56409     185.9422     371.4042      2.574     7.10     1259.057     65.50511     270.4458        44     1.914     1.590  57.79   0
       103    586.5717    746.8093 307.6635875  +6.3972241     619.5194     1575.201     2025.039      92.7123     185.6466     371.4781      2.546     5.58     1259.612     65.50511     90.95312         7     1.077     0.815   6.94   0
       104    102.4517    741.9000 307.8650137  +6.3831812     1627.122     4253.522     5028.413     93.15556     185.8684     371.8845      2.623     9.68     1267.743     65.50511     205.2787        31     2.076     1.316  40.12   0
       105    975.9976    740.6603 307.5018969  +6.4126304     1655.063      3415.12     4023.702     92.41563     185.4986     371.2932      2.211     5.88     1253.934     65.50511     186.8253        26     1.491     1.318  53.66   0
       106    613.5779    741.7938 307.6525315  +6.4001879     923.7065     2655.629       3233.5      92.7123     185.6466     371.4042      2.799     9.42     1258.815     65.50511     166.1483        20     1.770     1.400  42.23   0
       107    756.0836    737.9428 307.5934179  +6.4064909     9582.212     25620.01     30752.46     93.15556     185.8684     371.7368      2.589     6.26      1255.82     65.50511     945.4155        78     2.125     1.833  56.32   0
       108    886.2509    737.6635 307.5393110  +6.4109059     1969.476     4926.088     5741.846     93.15556     185.7945     371.6629      2.498     6.69     1254.454     65.50511     248.7632        37     1.778     1.484  62.15   0
       109    229.6507    732.3093 307.8124647  +6.3913684      2457.43     7903.804      11320.3     93.15556     185.6466     371.8476      3.328     7.65     1267.238     65.50511     403.5681        61     2.251     1.971  85.93   0
       110    636.6768    731.0102 307.6432968  +6.4054025     3205.755     9136.752     11007.85      92.7123     185.4246     371.4042      2.673     6.82     1257.873     65.50511     346.7483        52     1.994     1.714  68.38   0
       111    708.1993    719.1490 307.6139668  +6.4126634      1657.35      4552.77     5674.579     92.41563     185.4246     371.1083      2.698     8.00      1255.47     65.50511     194.8125        36     1.720     1.591 -85.72   0
       112    974.5816    715.6500 307.5033370  +6.4229049     5315.351     11722.15     12782.48     92.56409     185.9422     371.3672      2.247     5.42     1252.075     65.50511     526.6388        52     1.911     1.544  55.49   0
       113    912.6733    716.1230 307.5290596  +6.4206672     1255.929     3022.811     2911.456     93.44988     186.1637     371.6629      2.196     8.76     1252.392     65.50511     137.9886        25     1.539     1.392  48.69   0
       114     52.2678    711.2082 307.8869295  +6.3941761     11011.72     31580.89     39431.59     92.56409     185.5726     371.5151      2.743     6.48     1266.369     65.50511       1433.5        88     2.318     1.890  62.48   0
       115    514.0986    710.7659 307.6949492  +6.4096975     815.8509     2015.245     2677.831     93.15556     185.7206     371.7737      2.436     5.82     1259.984     65.50511     107.9371        10     1.691     0.564  20.90   0
       116    904.1587    708.5867 307.5328564  +6.4234963     581.3038      1155.02     1404.163     92.41563     185.6466     371.2932      1.557     3.44     1251.988     65.50511     95.69019         5     1.215     0.282  55.10   0
       117    482.7548    708.3030 307.7080643  +6.4096750     683.6376     1399.432     1705.683     93.15556     185.7206     371.8106      2.289     6.02     1260.948     65.50511     105.1908         7     1.466     0.694   2.71   0
       118    697.7369    702.6516 307.6188796  +6.4191254     1675.532      4250.76     5151.233     93.15556     185.7945      371.589      2.492     7.72     1254.363     65.50511     198.0981        30     1.781     1.367 -89.32   0
       119    720.0126    701.3069 307.6096643  +6.4204170     1880.971     5245.859      5305.58     92.86029     185.5726     371.4042      2.488     7.41     1253.664     65.50511     216.4667        41     1.836     1.634 -69.11   0
       120    550.6068    701.2111 307.6800979  +6.4148499     1041.317     2054.513     2082.019      92.7123     185.6466     371.5151      2.111     4.94     1258.149     65.50511     142.3201         8     1.129     0.613  33.66   3
       121    552.8373    698.0746 307.6792778  +6.4162181     1257.839     2746.801     3689.019     93.00803     185.9422     371.6629      2.633     7.19     1257.931     65.50511     164.4213        21     1.707     1.099  32.08   2
       122    992.7828    697.0403 307.4964031  +6.4311849     2996.962     6668.091     7135.614      92.7123     185.6466     371.4042      2.293     5.77     1250.526     65.50511      319.496        35     1.679     1.384  52.15   0
       123    958.1548    695.9275 307.5108380  +6.4305021     4730.522     10974.12     12089.84     93.00804     185.9422     371.6259      2.353     5.48     1250.598     65.50511     437.3198        50     1.828     1.571  67.62   0
       124    116.9843    690.0419 307.8607525  +6.4050642     9745.093     29640.93     37113.58     92.56409     185.5726     371.3672      2.801     6.80     1264.604     65.50511     1400.367        86     2.296     1.929  64.35   0
       125    403.9480    689.7381 307.7414627  +6.4147229     1256.606     3274.891     4350.922     93.15556     185.7945      371.589      2.691     8.75     1262.378     65.50511     170.3301        23     1.660     1.487  41.60   0
       126    953.1425    679.0324 307.5134972  +6.4373089     4081.311     9740.062     11429.25     93.00804     185.9422      371.552      2.448     5.89     1249.341     65.50511     409.9679        55     1.990     1.641  55.64   0
       127    546.8295    674.5178 307.6825808  +6.4257403     18876.67     58476.53     73050.38     93.00804     185.6466      371.589      2.824     7.11     1257.435     65.50511     2031.161       106     2.312     2.043  60.05   0
       128   1008.4648    674.0120 307.4906667  +6.4412053     56052.95     126824.1     142023.9     92.56408     185.6466     371.4411      2.291     5.43       1248.6     65.50511     5306.601       103     2.009     1.681  58.19   0
       129    155.0033    671.3605 307.8455882  +6.4140378     1240.443     3432.775      3639.76     92.11799     185.5726     371.2932      2.679     9.65     1263.416     65.50511     154.3564        26     1.957     1.328  47.99   0
       130    442.9645    660.3045 307.7262492  +6.4281631     17385.65     29847.27     32831.18     93.30283     185.7206     371.7737      1.858     6.25     1258.962     65.50511     2097.793        29     2.077     0.797  29.68   3
       131    445.0946    657.3298 307.7254654  +6.4294614     25094.09     57029.93     72937.38     93.00804     185.9422     371.6259      2.548     7.31     1258.628     65.50511     2788.607        89     2.465     1.767  34.96   3
       132   1022.0898    657.1252 307.4855764  +6.4486232     2107.719     4083.303     4364.254     93.15556     172.6156     308.4727      2.020     6.02     1246.729     65.50511     210.2915        26     1.545     1.171  67.90  24
       133    290.3560    646.5348 307.7901679  +6.4287808     955.2497     2139.914     3315.009     93.15556     185.7945     371.6259      3.025     4.87     1260.687     65.50511     137.1481         9     1.094     0.631  29.11   0
       134    714.6445    642.9774 307.6138869  +6.4443104      1550.86     2607.517     3263.363     92.56408     185.7206     371.4411      1.864     6.69      1250.25     65.50511     203.4172        15     1.849     0.678  58.26   3
       135    717.4153    640.7895 307.6128095  +6.4453049     1990.039       3874.4     4774.807     92.86029     185.5726     371.5151      2.219     7.90     1250.154     65.50511     236.2168        24     1.713     1.353 -87.61   3
       136    714.6774    639.6871 307.6139855  +6.4456693     1225.612     1844.291     2457.582     93.15556     186.2374     371.7368      1.578     5.04     1250.125     65.50511     201.7719         7     1.154     0.624 -53.96   3
       137    769.5695    636.9571 307.5912559  +6.4486107     6016.533     17270.66     20634.64      92.7123     185.7945     371.4411      2.702     6.68     1249.368     65.50511     581.5209        75     2.126     1.895  60.19   0
       138    592.7546    636.6193 307.6647822  +6.4429007     933.6727     2229.937     3077.078      92.7123     185.7206     371.4042      2.788     7.37     1251.641     65.50511     133.2257        12     1.533     0.992  16.39   2
       139    594.1174    633.7050 307.6643152  +6.4441485     1082.578     2299.914     3135.427     92.86029     186.2374     371.7737      2.546     6.75     1251.387     65.50511     167.0446        14     1.769     0.723  18.43   2
       140   1008.4204    635.3675 307.4920003  +6.4571515     1173.103     2334.417     2752.629     92.56409     185.6466     371.4411      2.266     6.76     1244.719     65.50511     166.4674        15     1.234     1.037  40.41   0
       141    845.2949    619.8929 307.5603526  +6.4581545     1319.848     3375.828      3790.76     93.15556     186.5321      371.552      2.439     9.54     1247.885     65.50511     163.4066        29     1.899     1.338  55.17   0
       142    803.9114    616.1385 307.5776872  +6.4583368     985.5046     2546.262     3524.562     93.15556     186.0161     371.6998      2.850     7.39     1247.803     65.50511     143.5911        17     1.870     0.817  25.95   2
       143    231.6213    615.2175 307.8156607  +6.4397528     2170.868     4700.326     6125.658     92.86029     185.6466      371.552      2.321     7.85     1260.194     65.50511     233.0172        23     2.189     0.788  41.74   3
       144    233.5141    612.0111 307.8149837  +6.4411389     3230.347     6932.304     9241.177      92.7123     185.5726     371.4411      2.437     6.64     1260.008     65.50511     423.2667        42     2.288     1.195  40.83   3
       145    783.6534    610.3125 307.5863089  +6.4600717     49337.55     86310.06     99941.55     93.15556     185.7206     371.7737      1.964     5.82      1247.85     65.50511     6216.692        47     2.079     0.964  38.82   3
       146    785.3424    607.6602 307.5856971  +6.4612220     66507.79     142651.7     166462.4     93.30283     185.7945     371.6629      2.315     6.48     1247.727     65.50511     6275.397       127     2.521     1.768  14.55   3
       147    166.7115    607.6599 307.8429065  +6.4407136     21005.51     68333.11     90909.19     93.00804     186.0161     371.7368      2.998     7.77     1260.116     65.50511     2504.703       122     2.491     2.126  64.45   0
       148     90.6779    603.9340 307.8746456  +6.4397216     2392.207     7540.829     9397.101     93.30283     185.9422      371.589      2.874     7.84     1260.053     65.50511     316.1616        59     2.256     1.799  59.33   0
       149    955.6190    601.9803 307.5150912  +6.4691882     678.3039     1502.178     2022.602     92.86029     185.7945      371.552      2.552     4.65      1243.37     65.50511     76.83044         5     1.045     0.588  16.76   0
       150    821.0490    597.2896 307.5712044  +6.4666814       1955.3     4193.409     5128.402     93.15556     185.6466     371.8106      2.488     9.95     1246.704     65.50511     225.4023        28     1.863     1.592 -84.42   2
       151    820.9969    594.3271 307.5713271  +6.4679023     1437.155     2536.414     2975.214     92.56408     185.3505     371.4411      1.545     5.26     1246.519     65.50511     193.6321        11     1.438     0.543 -28.71   3
       152    340.0898    594.6970 307.7712669  +6.4518236     5648.132     19658.54     26018.13     93.15556     186.3848     371.6259      3.039     7.94     1255.798     65.50511     722.4526        85     2.387     2.078  55.63   0
       153    774.3145    590.6548 307.5908625  +6.4678752     2151.008     3786.158     4903.761     93.15556     185.8684     371.8106      2.069     6.45     1246.987     65.50511     242.6565        21     1.875     0.850  51.38   3
       154    775.5067    588.0088 307.5904571  +6.4690065     2355.871     5097.152     5793.825      92.7123     185.4246     371.4042      2.188     8.00     1246.785     65.50511     233.6641        29     2.013     1.023  37.02   3
       155    143.6172    593.1424 307.8530064  +6.4459362     903.8171     2324.456     3643.716     92.56408     185.7945     371.3302      3.124     5.86     1259.188     65.50511     131.5271        11     1.492     0.648  89.68   2
       156    508.2062    588.8915 307.7015670  +6.4597957     2276.687      5581.45     8564.091      92.7123     185.4986     371.4042      3.262    12.42     1251.751     65.50511     302.7971        41     2.656     1.697 -47.64   2
       157    505.0508    587.3685 307.7029310  +6.4603196      1856.67     2931.859     3812.304     93.00803     185.9422      371.552      1.823     4.73     1251.686     65.50511     237.9995        13     1.051     0.937  85.01   3
       158    153.5702    582.9125 307.8492194  +6.4504887     2468.109     8135.038      10959.4     93.30283     185.6466     371.5151      3.078     8.58     1258.422     65.50511     378.8892        68     2.377     1.987  64.20   0
       159     25.3358    581.6404 307.9025775  +6.4467457     2065.173     6423.695     7816.637     93.15556     185.7945     371.7368      2.845     7.61     1260.314     65.50511     267.8801        51     2.101     1.837  68.99   0
       160    551.5283    582.4677 307.6837741  +6.4638820     889.7272     2703.104     4036.313     93.15556     186.0161     371.6259      3.643     9.39     1249.833     65.50511     110.9408        19     2.096     1.174   2.54   0
       161    248.8459    579.1636 307.8097357  +6.4552031     31291.99     100467.1     133572.1     92.86029     185.8684     371.5151      2.972     7.48     1256.823     65.50511     4258.799       139     2.536     2.137  59.29   0
       162    771.6819    571.1463 307.5926227  +6.4758388     6611.273     19743.59     23973.22     93.15556     185.8684     371.6998      2.754     6.97     1245.871     65.50511     638.1665        73     2.152     1.891  62.89   0
       163    474.3343    571.6578 307.7162399  +6.4657847      13008.1     27761.06      32900.6     93.30283     185.7945     371.6629      2.274     6.47     1251.274     65.50511      1368.88        44     2.192     1.066  35.47   3
       164    476.2855    568.5065 307.7155365  +6.4671498     15736.37     35748.05     44284.07     93.00804     186.3848     371.7368      2.507     7.12     1250.975     65.50511     1625.669        75     2.647     1.351  34.27   3
       165    948.0881    571.2071 307.5192706  +6.4816391     776.4318     1780.456     1694.244     92.56408     185.4986     371.3302      2.561     5.01     1241.383     65.50511       123.67         7     1.244     0.570  27.55   0
       166    188.7568    566.4285 307.8351557  +6.4584611     1010.434     2554.273     4847.444      92.7123     185.9422     371.5151      4.366     8.45     1256.692     65.50511     154.9329        16     1.758     1.170 -55.40   0
       167    636.1378    563.9924 307.6492257  +6.4743078     1175.155     3248.785     4917.456     92.41563     185.6466     371.4042      3.357     9.83     1246.622     65.50511     154.7246        25     2.261     1.303  38.14   2
       168    303.6826    560.9882 307.7875591  +6.4645250     1222.675     2568.373     3640.518      92.7123     185.5726     371.4411      2.473     8.70     1254.168     65.50511     165.4258        21     2.200     0.960  40.42   3
       169    305.4746    557.8878 307.7869203  +6.4658640     1570.378     3457.855     4437.029     93.15556     186.2374     371.7368      2.431     7.63     1253.917     65.50511     190.4965        25     2.042     0.986  34.54   2
       170    372.4326    562.1066 307.7589359  +6.4663460     574.3957     1303.669     1617.019     93.30283     185.7206     371.6998      3.044     4.68     1252.492     65.50511     111.0656         5     0.866     0.718 -44.54   0
       171    119.8565    557.6661 307.8641030  +6.4597852     9491.445     30460.06     39324.56     93.30283     185.7945     371.6259      2.937     7.22      1257.66     65.50511     1295.318        92     2.382     2.033  59.90   0
       172     85.2701    555.8029 307.8785469  +6.4594031      1098.87     3402.667     4419.791     92.56409     185.4246     371.4042      3.071    11.23     1258.514     65.50511     136.7185        32     2.136     1.643  62.07   0
       173   1021.9225    556.9684 307.4890543  +6.4899501     710.3126     1527.705     1852.684     93.00804     174.2781     311.2644      2.237     7.22     1236.663     65.50511      105.981         8     1.637     0.893 -68.17  24
       174    848.3693    556.8161 307.5612245  +6.4842862     848.3143     1884.866     2012.024      92.7123     185.5726      371.552      2.411     6.56     1243.383     65.50511      111.223         8     1.375     0.879  34.45   0
       175    483.0163    556.1749 307.7131598  +6.4724618     659.4725     1540.496      2903.33     92.86029     185.7206      371.552      3.333     3.97     1249.679     65.50511     86.99194         5     0.860     0.524  55.73   0
       176    944.9639    551.6928 307.5212342  +6.4895890      2563.37     6338.072     7190.162     93.30283     185.7206     371.7368      2.471     6.75      1240.14     65.50511     255.8442        41     1.876     1.501  73.68   0
       177    516.1588    545.5251 307.6997437  +6.4779550     561.4902      1132.16     2076.019     93.00804     185.8684     371.6629      2.130     5.26     1248.138     65.50511     92.56995         5     1.058     0.739  81.74   0
       178    415.5049    540.4812 307.7417675  +6.4766992     12320.77        24466     27750.54     92.86029     186.1637     371.7368      2.127     6.58     1250.303     65.50511     1343.671        41     2.151     1.019  35.92   3
       179    417.5734    537.2918 307.7410167  +6.4780839     15577.99     35125.79     43581.23     93.30283     185.5726     371.4411      2.494     6.99     1250.018     65.50511     1739.515        67     2.529     1.295  33.76   3
       180    623.4662    539.4897 307.6553317  +6.4839999     3961.267     7778.164     9686.012     93.15556     186.0161     371.6259      2.181     6.85     1245.543     65.50511     421.3539        31     2.241     0.914  35.05   3
       181    626.3949    537.2183 307.6541915  +6.4850342     3840.579     7111.667     8844.524      92.7123     185.4246     371.4042      2.018     4.97     1245.311     65.50511     479.4385        27     1.860     0.906  59.90   3
       182    623.6600    536.3143 307.6553596  +6.4853167     3476.475     5367.375     6464.655     93.30283     185.9422     371.7368      1.652     4.69     1245.294     65.50511      409.224        15     1.411     0.806  47.24   3
       183    181.1913    538.3972 307.8392631  +6.4697768     5561.449     11014.19     12527.73     92.41563     185.4986     371.4411      2.072     6.38     1254.594     65.50511     582.6014        30     1.824     1.045  29.09   3
       184    182.9017    535.3035 307.8386581  +6.4711103     7503.765     17080.59     22129.41     93.15556     186.4585     371.4411      2.623     7.37      1254.31     65.50511     837.7108        59     2.623     1.385  31.39   3
       185    545.2294    534.6426 307.6880284  +6.4834091     1127.624      2735.39     3260.566      92.7123     185.7945     371.4781      2.444     8.83     1246.772     65.50511     146.5938        20     2.043     1.066 -86.95   2
       186    548.6320    534.0146 307.6866350  +6.4837810     831.5454     1633.668     2446.774      92.7123     185.5726      371.552      2.513     5.26      1246.63     65.50511     122.0093         9     1.200     0.652 -87.52   3
       187    148.8367    536.4637 307.8527818  +6.4694986     764.0942     1481.466     2409.696     93.00804     185.8684     371.6629      3.008     6.42     1255.302     65.50511     104.6973         9     1.489     0.777  59.28   0
       188    958.3802    534.9296 307.5162264  +6.4969495     711.8853     1273.706     2273.265      92.7123     185.7206      371.552      2.347     5.01     1237.877     65.50511     108.7069         5     1.162     0.612 -24.78   0
       189    920.2045    531.7208 307.5322098  +6.4970140      2302.85     6003.496     6896.015      92.7123     185.2764     371.3302      2.565     6.64     1239.286     65.50511     248.9451        42     1.887     1.529  60.40   0
       190    592.5985    532.4249 307.6684080  +6.4858933     2019.301     4065.117     5321.476      92.7123     185.4986     371.3672      2.378     7.15     1245.708     65.50511     226.7554        24     1.858     0.929  40.57   3
       191    594.9809    529.5834 307.6675145  +6.4871448     2210.934      4061.63      5606.88     92.86029     185.5726     371.5151      2.338     5.46     1245.527     65.50511     263.9968        23     1.669     0.971  55.12   3
       192    591.6980    528.2996 307.6689234  +6.4875658      1564.09     2337.152     3312.942     93.15556     186.3111     371.4411      1.851     2.81     1245.435     65.50511     252.5743         9     0.880     0.714  -9.31   3
       193    942.7093    524.0690 307.5231126  +6.5009143     1793.442     4227.404     4531.243     93.15556     186.0161      371.589      2.407     7.29     1237.453     65.50511     171.5756        31     1.692     1.394  50.34   0
       194    504.2095    523.2548 307.7054740  +6.4867492     2253.202       3799.9     4873.527     92.41563     185.7945     371.2932      1.920     5.05     1246.551     65.50511      247.146        20     1.404     1.025  46.59   3
       195    506.6289    520.6951 307.7045555  +6.4878857     2760.054     6209.897     8462.915     93.30283     185.5726      371.552      2.714     8.61     1246.347     65.50511     313.3885        39     2.339     1.357  30.43   3
       196    351.4892    524.1906 307.7689427  +6.4812973      825.751     1707.152     2384.282     92.86029     185.4986     371.4042      2.009     4.89      1249.58     65.50511     130.1914         7     1.382     0.489  41.79   0
       197    352.9889    520.7437 307.7684373  +6.4827695     992.0927     2080.141      3289.68     92.41563     185.7945     371.2563      2.670     5.69     1249.259     65.50511     120.8748        11     1.439     0.634  47.19   0
       198    860.3282    518.6653 307.5575525  +6.5004249      1034.56     1974.135     3354.849     93.15556     185.9422     371.6998      3.011     6.73     1240.002     65.50511      140.427        12     1.903     0.668  37.51   3
       199    863.1671    516.3741 307.5564501  +6.5014642     1364.219     2987.051     5229.319     92.56409     185.6466     371.4411      3.799     8.76     1239.666     65.50511     158.3906        23     1.998     1.072  29.41   2
       200    869.8111    510.1783 307.5538986  +6.5042404     923.8325     2743.454     3388.896      92.7123     185.5726     371.4411      2.775     8.51      1238.94     65.50511     125.7578        15     1.664     1.216   9.57   2
       201    909.1150    512.7384 307.5374679  +6.5044815     579.7245     1106.708     1118.287     93.30283     186.0161     371.6629      1.845     3.41     1237.683     65.50511     93.26855         5     0.980     0.342  44.19   0
       202    693.2999    507.9807 307.6273704  +6.4993136     1229.626     3733.073     4727.922     93.15556     185.7206     371.3672      2.904    10.77     1241.744     65.50511      143.504        35     1.954     1.654  80.83   0
       203    363.7792    508.7189 307.7643626  +6.4880899     1112.043     2056.482     2865.799     92.86029     185.4986      371.552      2.254     6.74     1248.119     65.50511     167.0767        15     1.784     0.715  52.47   3
       204    366.1183    505.9292 307.7634855  +6.4893187     1347.758     3098.668     4421.513     93.44988     186.2374     371.6629      3.000     7.90     1247.844     65.50511     217.9924        22     2.160     0.860  40.65   2
       205    590.9988    504.5085 307.6700273  +6.4973605     3037.039     6331.567     8653.184     92.26693     185.4246     371.3672      2.372     7.13     1243.778     65.50511     352.9862        29     2.232     0.866  52.49   3
       206    593.9616    501.9414 307.6688831  +6.4985180     3319.729     7352.096     10566.55     93.15556     185.9422     371.6998      2.634    11.04     1243.503     65.50511     605.8674        40     2.912     1.166  41.20   3
       207     56.9955    506.5887 307.8919933  +6.4787701     884.3195     1654.948     2467.164      92.7123     185.5726     371.5151      2.423     4.76     1256.353     65.50511     123.5529         7     0.985     0.652  58.94   0
       208    753.9493    500.8062 307.6023961  +6.5042800       5362.7     9586.728     11087.87     92.56408     185.6466     371.2193      1.913     5.43      1240.88     65.50511     589.8777        30     1.908     0.955  30.73   3
       209    755.3372    497.8466 307.6019200  +6.5055472     6283.748     14328.04     18024.54     93.00804     185.7206     371.6629      2.451     7.00     1240.632     65.50511     644.9993        46     2.247     1.201  26.95   3
       210    275.8627    498.3587 307.8012732  +6.4894456     954.7572     2012.039     3210.328     93.15556     185.7945     371.6998      2.607     6.17     1248.903     65.50511     129.1926        12     1.646     0.651  34.69   2
       211    940.2177    494.0293 307.5251719  +6.5132287     889.4842     2205.954     2252.413      92.7123     185.6466      371.552      2.389     7.86     1234.318     65.50511      111.228        12     1.377     1.255 -84.02   0
       212     92.6443    491.4966 307.8776896  +6.4861847      1667.59     5361.058     6610.431     93.15556     185.7945     371.8106      2.931    10.78     1254.315     65.50511     208.7904        48     2.144     1.773  73.03   0
       213    729.8350    489.3841 307.6128132  +6.5081962     967.6172     2802.222     3177.536      92.7123     185.5726     371.4411      2.703     8.85     1240.037     65.50511     127.2697        18     1.677     1.303 -14.57   2
       214    994.2901    488.6194 307.5028711  +6.5172449     2216.997     5967.907     7713.767     93.00804     185.5726     371.4411      2.709     6.99      1231.46     65.50511     214.5771        41     1.837     1.552  53.84   0
       215    330.4398    485.7504 307.7790121  +6.4964612     1005.403     2663.892      4420.05     93.15556     185.8684      371.552      3.556    12.14     1246.532     65.50511     160.8763        20     2.504     1.640  21.89   2
       216    692.0331    472.4816 307.6291093  +6.5139211     4872.479     8873.012      9705.14     93.00803     185.7945      371.589      1.967     6.17     1238.986     65.50511      601.675        29     1.954     0.873  44.11   3
       217    694.7074    470.1471 307.6280770  +6.5149729     5387.702     11895.13     14770.35     93.00804     185.7945     371.8845      2.510     9.67     1238.807     65.50511     553.7212        47     2.431     1.240  38.06   3
       218    613.5348    468.8187 307.6618762  +6.5128347     1003.377     2189.364     3489.522      92.7123     185.8684     371.5151      2.961     6.20     1240.276     65.50511     117.5703        13     1.452     0.743   5.61   2
       219    585.3417    463.7647 307.6737724  +6.5139868     4494.597     9210.326     12125.38     93.00804     185.8684      371.589      2.416     8.06      1240.37     65.50511      509.901        40     2.864     0.893  36.02   3
       220    587.6866    460.9911 307.6728921  +6.5152090     5852.225     14035.97     20506.09      92.7123     185.4986     371.4411      3.034     8.82     1239.992     65.50511     647.2308        68     3.093     1.294  35.08   3
       221    612.7860    464.9795 307.6623188  +6.5143943     883.3616     2115.061     3870.886     92.86029     185.4986     371.5151      3.719     5.39     1239.879     65.50511     119.6987         8     0.946     0.867 -17.37   1
       222    918.2812    460.5965 307.5354328  +6.5263016     1664.874     4516.635     5325.449     92.41563     185.3505     371.2932      2.589     8.64     1232.404     65.50511     186.3694        30     1.669     1.478  54.08   0
       223    356.7523    458.9061 307.7689909  +6.5084124     8458.438     18204.68     21247.66     93.00804     185.7206     371.7737      2.260     7.02     1243.235     65.50511     890.5896        37     2.254     1.017  35.57   3
       224    358.7554    455.8801 307.7682617  +6.5097276     10223.33     22809.51     28090.79     93.15556     185.8684     371.6259      2.428     7.33      1242.87     65.50511     1122.245        59     2.524     1.239  37.06   3
       225    104.7885    456.7691 307.8738328  +6.5009193     954.7323     2242.101     3496.829     92.56408     185.5726     371.4781      2.829     7.70      1251.96     65.50511     123.1207        14     1.760     0.943  62.41   2
       226    886.1270    450.8702 307.5491354  +6.5292540     2079.373     4305.815     4502.895     93.30283     186.0161     371.6259      2.176     8.06     1233.663     65.50511     216.5062        30     2.140     1.053  66.57   3
       227    888.6970    450.0145 307.5480959  +6.5296920     1662.563     2728.469     3062.406     93.00803     185.5726     371.3672      1.774     6.10     1233.401     65.50511     221.8235        13     1.644     0.637  56.72   3
       228    214.5681    449.8735 307.8284227  +6.5074163     3852.657     7830.963     9317.099     93.00804     185.8684     371.6259      2.186     6.98     1247.143     65.50511     422.4858        33     2.107     0.986  34.14   3
       229    216.4279    446.4261 307.8277676  +6.5089008     5174.274     11137.13     14042.39     92.56409     185.6466     371.4411      2.451     7.26     1246.824     65.50511      629.111        48     2.424     1.208  37.64   3
       230   1019.9441    437.6843 307.4939370  +6.5391105     4841.571     11712.07     12948.21     93.15556     185.8684     341.1502      2.390     6.12     1227.678     65.50511     478.5204        51     1.939     1.546  60.61  24
       231    114.9742    438.4932 307.8702253  +6.5087998     1675.936     3467.381      4091.44     93.30283     185.5726     371.4411      2.248     7.94     1250.532     65.50511     181.0363        25     2.013     0.962  31.78   3
       232    117.4018    435.6682 307.8693129  +6.5100463     1846.962     3901.976     5691.816     92.41563     185.3505     371.4042      2.486     9.32     1250.336     65.50511     230.9005        30     2.410     1.006  32.66   3
       233    139.4815    432.1246 307.8602536  +6.5122433     970.9971     2786.514     4300.286     93.44988     186.1637     371.6998      3.231     8.61     1249.068     65.50511     110.7053        16     1.839     1.126 -77.80   2
       234    362.2054    425.1052 307.7678815  +6.5225417     780.0792     1750.235     2978.001     92.86029     185.4986     371.3302      3.033     5.75     1239.291     65.50511     100.8997         8     1.093     0.876  48.55   0
       235    413.6049    422.2022 307.7466075  +6.5254454     2221.301     4715.815     5428.905     92.41563     185.3505     371.3672      2.136     6.71     1237.267     65.50511     278.2198        27     1.991     0.943  37.63   3
       236    415.7192    419.0147 307.7458375  +6.5268309     2406.739     5943.789     7359.711      92.7123     185.5726     371.4411      2.517     7.76      1236.78     65.50511     284.9631        42     2.338     1.256  34.66   3
       237     12.4869    420.4596 307.9134597  +6.5128289     1364.161     3293.861     4382.392     93.15556     186.0161     371.7368      2.778     7.63     1254.639     65.50511     159.7495        21     1.595     1.193  47.34   2
       238    754.4758    419.0071 307.6049688  +6.5380534     4178.783     9336.617     13058.23      92.7123     185.2764     371.4411      3.126    10.69     1234.289     65.50511     545.9675        52     3.023     1.796  28.79   3
       239    756.6929    416.3548 307.6041374  +6.5392213     4476.743     9525.607     11396.51     93.15556     185.7945     371.7737      2.254     7.08     1233.955     65.50511     462.5317        36     2.083     1.088  47.24   3
       240    997.8320    413.0127 307.5039724  +6.5485627     1467.045     2465.419     3425.107     92.56409     185.5726      371.552      1.996     7.37     1226.782     65.50511     194.7806        16     1.888     0.886  55.15   3
       241   1000.4433    411.5081 307.5029377  +6.5492698     1413.154     2233.458     2800.992     93.15556     185.8684     371.7737      1.797     4.16     1226.671     65.50511     215.7135        14     1.310     0.756  58.54   3
       242    463.9062    403.3318 307.7263365  +6.5349010     833.8856     2879.564     3999.402     93.00804     186.0161     371.6629      3.154    10.44     1235.181     65.50511     118.2727        17     2.620     1.159  42.15   2
       243    819.4995    400.3132 307.5785663  +6.5479169     13261.74     30417.85     37712.02     93.15556     186.3848     371.6998      2.512     7.76     1231.439     65.50511     1278.609        64     2.555     1.389  73.62   3
       244    822.3085    399.6314 307.5774214  +6.5482911     10578.44     18974.67     22464.61     93.30283     185.6466     371.6259      1.999     4.73     1231.418     65.50511     1289.094        32     1.780     1.108  55.01   3
       245    437.4983    404.2701 307.7372858  +6.5336379     801.6378     1812.847     2440.294     93.00804     186.0899     371.6629      2.630     5.24     1235.558     65.50511     129.3253         8     1.091     0.764  66.10   2
       246    591.8384    394.6318 307.6734341  +6.5427307     946.1977     2206.983     2684.759      92.7123     185.5726     371.4042      2.588     6.66     1233.077     65.50511     120.6213        13     1.770     0.703   8.00   2
       247    592.9149    390.8299 307.6731164  +6.5443353     851.6014     1965.674     3027.982     93.15556     185.6466     371.4781      3.150     8.16     1232.656     65.50511     102.3318        11     2.057     0.904  34.69   2
       248    675.9991    388.0071 307.6386620  +6.5482505     25772.97      51372.2     58599.26     92.41563     185.4986     371.4042      2.157     6.29     1231.876     65.50511     3015.438        52     2.143     1.105  34.40   3
       249    677.9250    385.1299 307.6379594  +6.5495016      26820.4     60873.27     73715.56     93.30283     186.0161     371.6259      2.433     7.46     1231.591     65.50511     2768.843        69     2.499     1.280  31.98   3
       250    540.3063    382.0787 307.6952930  +6.5462039      1005.84     2994.499     4260.077     92.86029     186.0899     371.6629      3.033     8.66     1232.749     65.50511     153.8835        18     1.885     1.111  20.71   2
       251     77.1425    384.8282 307.8877996  +6.5296855     1837.518     3693.405     4843.997      92.7123     185.9422     371.5151      2.160     7.95     1250.316     65.50511     205.3118        22     1.898     0.931  23.41   3
       252     78.0973    381.2047 307.8875271  +6.5312125     2315.208     5043.242     6147.924     92.86029     185.4986     371.2563      2.372     7.53     1250.149     65.50511     274.2992        33     2.235     1.007  32.00   3
       253    521.9753    381.1642 307.7029472  +6.5459738     2099.199     4639.271     6331.407      92.7123     185.6466     371.3302      2.688    10.55      1232.65     65.50511     238.0126        37     2.715     1.142  62.17   3
       254    524.8085    378.5005 307.7018602  +6.5471669     2442.742     4862.271     5831.561     92.86029     185.4246     371.4411      2.167     6.58     1232.437     65.50511     301.6589        26     1.785     1.017  47.12   3
       255    385.0243    376.9832 307.7600411  +6.5431571     7334.254     15270.87     17854.27     92.86029     185.7206      371.552      2.213     7.23     1234.791     65.50511     766.1003        42     2.132     1.085  29.20   3
       256    386.8439    373.4761 307.7594046  +6.5446647      8876.87     20584.69     26704.37     93.00804     185.9422     371.6629      2.582     7.52     1234.488     65.50511     1004.247        57     2.547     1.299  33.04   3
       257    254.0273    376.5558 307.8145297  +6.5389829     922.6361      1969.65     2896.875      92.7123     185.9422     371.5151      2.348     5.90     1240.203     65.50511     111.7968        10     1.290     0.761  57.87   0
       258    248.9760    377.9315 307.8165830  +6.5382474     607.9159     1371.729     2060.888      92.7123     185.7206      371.589      2.381     3.87     1240.532     65.50511     119.9614         5     0.851     0.505  64.67   0
       259    474.0930    367.0957 307.7233406  +6.5501920     2507.363     5274.292     6858.202     93.15556     186.5321      371.552      2.279     7.55     1231.474     65.50511     296.8258        27     2.045     0.935  25.37   3
       260    475.9443    363.7542 307.7226851  +6.5516323     2914.195     6775.343     8735.895     93.15556     185.8684     371.6259      2.544     8.00     1231.089     65.50511     304.9985        39     2.334     1.160  26.08   3
       261    742.4595    364.3271 307.6118324  +6.5602209     1169.522     2525.257      3921.16     93.30283     185.8684     371.6259      2.531     7.74     1229.417     65.50511     147.4377        19     1.743     0.961  62.72   3
       262    745.0657    362.4665 307.6108120  +6.5610749     1105.577     2364.306     3027.931     93.15556     185.8684     371.6629      2.667     6.10     1229.204     65.50511     159.4919        10     1.548     0.675  38.82   3
       263    362.7695    347.2862 307.7703132  +6.5546732      1717.48     2976.065     3700.592     93.30283     185.5726     371.5151      2.090     5.75     1233.055     65.50511     198.4329        11     1.410     0.660 -68.88   3
       264    364.2450    351.6402 307.7695504  +6.5529254      2222.02     4463.356      5190.49     92.86029     185.8684     371.4781      2.093     6.43     1233.145     65.50511     293.7261        21     1.805     0.794  30.50   3
       265    366.6514    348.6181 307.7686533  +6.5542524     2559.648     5266.553     6257.099     92.56409     185.9422     371.3302      2.201     5.62     1233.062     65.50511     285.4098        30     1.775     1.092  50.80   3
       266    221.9199    349.4840 307.8288100  +6.5490870     867.3323     1997.541     3192.654     93.00803     186.2374     371.7368      3.144     7.05     1240.247     65.50511     100.5304        11     1.310     1.062  24.91   0
       267    731.7609    346.7462 307.6168818  +6.5671222     18574.09     40036.29     48685.82     93.00804     185.9422     371.6259      2.363     9.90     1227.807     65.50511     2203.872        54     2.546     1.120  55.98   3
       268    734.3867    344.1705 307.6158777  +6.5682719     17746.62     35247.45     41971.16      92.7123     185.6466     371.5151      2.203     7.77     1227.502     65.50511     1966.314        57     2.277     1.183  48.73   3
       269    966.6368    342.1758 307.5193580  +6.5767663     955.3138     1922.196     2275.539      92.7123     185.6466     371.3302      2.333     7.42     1222.509     65.50511     114.3185        12     1.806     0.853  71.90   0
       270    907.3498    341.3568 307.5440423  +6.5751478     1048.748      2853.93     3314.827     93.30283     185.8684     371.6629      2.510     9.25     1224.504     65.50511     149.0331        20     2.206     1.082  61.38   2
       271    405.7196    343.0822 307.7525962  +6.5578335     713.2098     1479.413     2591.551     93.15556     186.1637     371.7368      2.083     5.92     1232.292     65.50511      93.7937         8     1.517     0.650  12.06   0
       272    811.2012    336.0221 307.5842105  +6.5741738     487.3883     1087.391     1623.111      92.7123     185.4986     371.2932      2.643     4.33      1226.29     65.50511     89.88245         4     0.936     0.570  29.86   2
       273    729.7651    330.9815 307.6182500  +6.5735618     2154.704     4483.385     5711.696     92.56408     185.6466     371.3672      2.459     8.46     1226.216     65.50511     237.4744        31     2.148     1.123  48.99   3
       274    732.1908    328.5573 307.6173240  +6.5746424       2077.1     4846.183     5413.102     92.56409     185.6466     371.3302      2.390     7.44     1226.012     65.50511     276.0259        24     1.909     0.954  41.94   3
       275    169.4577    331.1939 307.8512538  +6.5548899     888.0477     1940.691     3118.779     92.56409     185.7206     371.2932      3.213     5.98     1243.466     65.50511     110.8005         9     1.262     0.797 -19.01   0
       276    749.5895    326.3646 307.6101631  +6.5761226     812.4848     1935.246     3332.036     92.56409     185.6466     371.3672      3.095     6.23     1225.674     65.50511     115.1022        10     1.774     0.614  84.31   2
       277    746.8707    329.2297 307.6111960  +6.5748503     833.8204     2036.883     3105.384     93.00803     185.8684      371.589      2.965     6.28     1225.977     65.50511      117.303        10     1.701     0.651  53.15   2
       278    338.0765    322.0638 307.7814463  +6.5642615     828.8126     2247.246     3195.769     93.44988     185.8684      371.589      2.758     6.48     1233.758     65.50511     124.0237         9     1.482     0.795  67.25   2
       279    985.5672    318.1675 307.5123028  +6.5872983     3046.247     7399.179     8748.301     92.56409     185.5726     371.3302      2.439     6.34     1219.714     65.50511     323.5558        43     1.845     1.585  61.28   0
       280    463.8596    317.5047 307.7292938  +6.5703170     601.3213     1986.255     3096.615     93.00803     185.8684     371.7368      2.791     6.88     1226.931     65.50511     124.7065        10     1.940     0.684 -22.57   0
       281    225.5435    316.0945 307.8284487  +6.5629858     1740.875     4329.683     5978.417     93.00803     185.8684     371.8476      2.755     8.79      1238.41     65.50511     223.6241        30     2.105     1.113  29.19   3
       282    227.5242    312.6831 307.8277421  +6.5644594     2022.884     4166.674     5639.811     93.30283     186.2374     371.7368      2.529     7.54     1238.187     65.50511     268.0226        33     2.199     1.109  27.57   3
       283    787.5949    313.4438 307.5947983  +6.5827110     1937.957     2158.162     2159.145     92.41563     185.4986     371.2563      0.850     1.50     1224.334     65.50511     533.8646         5     0.600     0.465 -65.52   0
       284    131.7819    299.8405 307.8679980  +6.5665744     794.4115      1667.03     2291.456      92.7123     185.6466     371.3302      2.837     5.22     1245.225     65.50511     111.1869         8     1.291     0.596  24.54   0
       285    538.4680    297.9304 307.6989359  +6.5808679     798.1175      1502.23     2464.834     93.15556     186.0161      371.589      2.615     4.92     1223.261     65.50511     113.3636         7     1.306     0.524  25.81   0
       286    883.7634    296.8797 307.5553678  +6.5927235     775.2325     1827.764     2524.193     93.00803     185.9422     371.6259      2.788     6.24     1221.768     65.50511     97.41455         9     1.210     0.906 -31.38   0
       287    705.0036    293.0360 307.6298437  +6.5884016     1674.353     3659.588     5486.976     92.11799     185.7206     371.4042      2.437     8.61     1222.427     65.50511     206.2954        25     2.207     0.937  30.56   3
       288    702.2460    295.1963 307.6309167  +6.5874189      1766.59     3547.528      4939.58     92.41563     185.5726     371.2193      2.541     6.90      1222.63     65.50511     218.8575        21     1.974     0.802  50.21   3
       289    643.9892    292.4589 307.6552385  +6.5866207     693.3769     2361.879     3283.611     92.41563     185.7206     371.2932      2.767     9.80      1222.33     65.50511     125.9468        14     2.207     1.213   8.95   0
       290    202.9650    278.7923 307.8391184  +6.5776279     656.0919     2491.949     3359.136     92.56408     185.6466     371.3672      2.880    10.30     1239.284     65.50511     149.7922        16     2.213     1.336 -53.76   0
       291    844.3743    275.9351 307.5724638  +6.6000658      697.889     1797.698     3180.949      92.7123     185.8684     371.5151      3.750     6.89     1220.712     65.50511     111.3633         9     1.255     1.062   0.30   2
       292    435.9707    271.0048 307.7424842  +6.5885806     6845.534     14506.47     16448.58     92.56409     185.6466     371.4042      2.236     6.76     1224.326     65.50511     818.3756        37     2.171     1.015  38.92   3
       293    438.6880    268.0062 307.7414568  +6.5899081     7337.159     17280.58     23974.01     92.56408     185.4986     371.3302      2.732    10.13     1223.865     65.50511      830.887        58     2.646     1.377  34.86   3
       294    761.8272    269.5474 307.6070131  +6.5999738     4658.138     9301.865     11564.37     92.86029     186.0161      371.552      2.216     5.37     1220.917     65.50511     541.5676        35     1.926     1.068  40.91   3
       295    763.6860    266.7618 307.6063351  +6.6011848      4940.83     11998.85     15847.16     93.15556     185.7945     371.6259      2.787     7.37     1220.742     65.50511     519.5282        48     2.443     1.265  34.46   3
       296    127.1841    261.7831 307.8712171  +6.5821257     864.5005     1744.348     2926.009     92.86029     185.4986      371.552      2.761     4.39     1244.957     65.50511     133.8527         7     1.050     0.522  24.60   0
       297    560.4761    256.9148 307.6911860  +6.5985227     1485.515      3207.59     4415.345     93.30283     186.2374     371.6998      2.605     9.99     1219.156     65.50511     194.2892        29     2.646     1.052  55.32   3
       298    562.6140    253.8915 307.6904003  +6.5998412     1539.525     3312.761     4285.001     92.86029     185.5726     371.3672      2.464     6.46     1218.876     65.50511     180.0814        23     1.729     0.986  55.28   3
       299    901.2959    258.1552 307.5493961  +6.6092828     659.5245     1601.026     1968.916     93.15556     185.7206     371.8106      2.889     4.85     1217.941     65.50511     92.28638         5     1.096     0.607  30.14   0
       300    522.7338    256.2212 307.7069066  +6.5975582     793.8174     2143.561     3565.941      92.7123     185.8684      371.552      3.521     6.04     1219.301     65.50511     138.1045        10     1.544     0.664  79.63   2
       301    868.0651    251.1320 307.5634566  +6.6110838     4785.657     13890.11     16649.23     93.15556     185.8684     371.6629      2.671     6.92     1218.269     65.50511     519.1904        62     2.077     1.787  65.03   0
       302    954.4958    248.8838 307.5275857  +6.6148647     4773.476     12165.54     14017.16     93.15556     186.3111     371.7368      2.493     6.65     1215.529     65.50511     489.3763        54     2.020     1.601  65.25   0
       303    921.7363    251.5707 307.5411192  +6.6126747     1228.843     3613.691     3812.761     92.86029     185.8684      371.552      2.571     9.78     1216.755     65.50511     172.0044        30     1.730     1.542  33.74   0
       304    665.2878    251.1647 307.6477917  +6.6043663     1140.828     2697.038      4172.25     93.15556     185.7206     371.6259      3.524    10.34     1219.625     65.50511     147.8695        17     2.249     1.325  88.43   2
       305    475.2740    244.5219 307.7270452  +6.6008127     742.5241     2351.591     3464.997     93.44988     186.1637     371.6629      3.524     8.78     1219.188     65.50511     125.6121        16     1.838     1.172 -22.96   0
       306    485.3434    241.8197 307.7229499  +6.6022616     814.5395     2177.088       4116.8     92.56409     185.7945     371.4042      3.916     7.10     1218.407     65.50511     134.7695        10     1.793     0.788  29.81   2
       307    858.8846    241.8640 307.5675909  +6.6146052     802.9041     1806.535     3073.704     93.30283     186.0161     371.6629      3.251     5.37     1217.767     65.50511     139.1328         7     1.685     0.483  25.07   2
       308    718.2305    237.1918 307.6262499  +6.6118841     14105.37     46716.32     59807.18     92.56408     185.6466     371.3672      2.903     7.59     1218.981     65.50511     1496.017       104     2.375     2.082  55.97   0
       309    321.4313    236.7527 307.7912931  +6.5989129      2305.28       7555.6     10972.59      92.7123     185.8684     371.5151      3.200     9.18     1230.722     65.50511     231.4528        71     2.465     2.091 -79.48   0
       310    951.8713    235.9240 307.5291189  +6.6201262     1413.772     3850.025     4427.203     93.44988     186.1637     371.6259      2.741     9.62     1214.443     65.50511     179.3419        34     1.942     1.559  60.37   0
       311    886.0948    234.1179 307.5565380  +6.6187003     3194.456      9145.28     10864.67     92.86029     186.2374     371.7737      2.680     7.27     1216.208     65.50511     340.1205        59     2.120     1.805  46.91   0
       312    991.6135    234.2970 307.5126448  +6.6221087     713.3589      2105.26     2987.908     93.00804     185.5726     371.3672      2.957     6.38     1213.508     65.50511      107.776         8     1.500     0.761 -73.14   2
       313    429.4806    235.7756 307.7463899  +6.6029029     1499.719     2806.931     3797.542     92.86029     185.5726      371.589      2.185     6.79     1222.039     65.50511     207.7222        20     1.766     0.918  27.55   3
       314    431.0467    232.2950 307.7458577  +6.6043912     1671.575     3797.696     4519.553     93.00804     185.7945     371.7737      2.560     9.15     1221.559     65.50511     195.2765        28     2.172     1.076  33.18   3
       315     85.2493    226.5125 307.8898683  +6.5952842     1444.779      2907.85     3155.208     93.15556     185.7206     371.6998      2.028     7.75     1247.698     65.50511     170.9742        20     1.867     0.899  40.19   3
       316     88.9063    224.1753 307.8884278  +6.5963704     1796.116     3719.844     4875.022     93.30283     185.5726     371.4411      2.414     9.11     1247.371     65.50511     192.6306        32     2.270     1.347  62.74   3
       317    256.6837    223.6998 307.8186685  +6.6021479     10086.34     22028.16     25320.33     93.15556     186.4585     371.7368      2.311     6.74     1235.053     65.50511     1016.262        45     2.186     1.137  33.69   3
       318    258.7349    220.4983 307.8179253  +6.6035372     11705.91     26425.73     33813.42     93.15556     185.9422     371.6629      2.588     8.25      1235.07     65.50511      1309.86        62     2.658     1.294  33.18   3
       319    231.9982    224.9889 307.8288906  +6.6007954     2000.657         4074     5114.172      92.7123     185.4986     371.4042      2.151     7.22     1236.677     65.50511     206.6697        28     1.903     1.079  34.95   3
       320    233.8925    221.4460 307.8282244  +6.6023204     2242.992     4932.779     6573.468     93.15556     185.7945     371.7737      2.467     8.47     1236.711     65.50511     267.5367        35     2.421     1.090  28.70   3
       321    380.4456    219.1067 307.7673543  +6.6081542     15490.81      33619.4     39853.04     93.00803     185.7945     371.7737      2.363     7.16     1224.783     65.50511     1622.975        63     2.450     1.261  37.79   3
       322    383.1569    215.9170 307.7663360  +6.6095604     16394.78     35883.96     45133.06     93.15556     185.8684      371.589      2.492     9.48     1224.412     65.50511     1848.947        62     2.602     1.254  35.14   3
       323    139.1066    217.6222 307.8677757  +6.6007455     1548.305     3887.537     6165.711     93.15556     185.6466     371.4042      3.349    10.03      1243.75     65.50511     234.6367        29     2.040     1.645  47.76   2
       324    284.7508    216.8663 307.8072301  +6.6059005     5606.536      12063.9     14083.33     93.00804     185.7206      371.589      2.283     6.75      1233.42     65.50511     558.7117        48     2.384     1.155  34.30   3
       325    287.3420    213.9739 307.8062516  +6.6071802     6114.122     13788.65     20539.79      92.7123     185.8684     371.4411      2.914    10.09     1233.384     65.50511     683.8849        66     3.052     1.341  27.90   3
       326    719.6021    214.4414 307.6264564  +6.6213178     11961.66     26031.15     33784.66     92.41563     185.5726     371.2932      2.493     9.23     1217.563     65.50511     1339.727        58     2.671     1.314  64.88   3
       327    722.3796    212.1900 307.6253781  +6.6223388     10342.65     19338.72     22382.09      92.7123     185.4986     371.4411      2.036     5.18     1217.431     65.50511     1263.187        37     1.911     1.101  61.36   3
       328     36.6355    212.6737 307.9105613  +6.5993756     2825.083     5749.925     7094.829     93.00804     185.8684      371.589      2.170     8.01     1251.756     65.50511     281.9042        36     2.341     1.132  45.09   3
       329     39.1538    209.8835 307.9096100  +6.6006109     3434.339     6810.956     7694.128     93.15556     185.8684     371.6259      2.185     7.82     1251.587     65.50511     436.6926        33     2.229     1.030  40.44   3
       330    979.3436    193.4852 307.5191383  +6.6385458     1085.107     2742.573     3945.315     93.15556     185.8684     371.8106      2.824     7.91     1210.928     65.50511     147.4795        18     1.617     1.219  80.91   0
       331    255.5510    189.9048 307.8202990  +6.6160559     9254.754     20483.51     25746.85     93.00803     185.7206     371.8106      2.477     8.72     1236.416     65.50511     931.1284        53     2.420     1.280  45.76   3
       332    258.1248    187.1763 307.8193222  +6.6172673     10351.46     21452.72     26754.99      92.7123     185.7206      371.552      2.366     9.23     1236.385     65.50511     1224.692        51     2.588     1.138  42.46   3
       333      1.4471    188.4687 307.9260278  +6.6081912     1196.355     2186.957     2656.939     82.69227     149.8794     281.9613      1.934     6.05     1254.797     65.50511     181.1024        15     1.561     0.835  63.63  27
       334      3.1964    185.4369 307.9254046  +6.6095005     1698.723     3099.308     3477.217     92.11799     175.5341      313.024      1.904     6.59     1254.628     65.50511      228.868        18     1.598     0.843  49.78  19
       335    572.4271    188.0587 307.6885707  +6.6273329      871.223     1833.634     2769.636      92.7123     185.9422     371.4411      2.840     6.67      1215.07     65.50511     111.6973        10     1.258     0.993  82.83   0
       336    687.2222    186.1440 307.6408905  +6.6319239     2676.651     5765.005     7550.761      92.7123     185.8684     371.4042      2.542     9.59     1215.883     65.50511     314.2477        34     2.554     1.005  58.37   3
       337    689.5967    183.7486 307.6399847  +6.6329909     2491.275     5272.345     6865.502     92.41563     185.5726     371.1453      2.375     9.11     1215.747     65.50511     274.3821        30     2.111     1.096  52.94   3
       338     97.9260    183.5384 307.8860731  +6.6134394     1721.894     3663.398     5015.737     93.44988     185.8684     371.6259      2.527     9.80     1246.619     65.50511     200.3656        28     2.491     1.076  67.08   3
       339    100.5378    180.8746 307.8850784  +6.6146255     1845.155     3655.233     4817.373     93.44988     185.8684     371.6259      2.201     7.26     1246.417     65.50511     212.0422        26     2.027     0.918  54.80   3
       340    371.1599    176.8729 307.7726636  +6.6252740     1518.787     3849.853     6331.196     93.00803     185.9422     371.6998      3.526    11.49     1224.532     65.50511     181.0454        32     2.590     1.444  25.65   2
       341    333.6777    179.2149 307.7881725  +6.6230629      882.014     2469.888     4565.473      92.7123     185.4986     371.4411      3.584     8.54       1229.2     65.50511      144.381        16     2.017     1.011 -15.28   2
       342    980.6807    171.2980 307.5193380  +6.6477458     827.7574     1948.658     1691.903     93.00804     186.2374     371.6998      2.261     6.09     1209.409     65.50511      109.208         9     1.150     0.907 -15.70   0
       343    185.9548    165.6635 307.8500762  +6.6237449     1859.972     6445.599     8550.087     93.15556     185.7945     371.6629      3.072     9.15     1241.379     65.50511      246.922        55     2.166     1.970  76.69   0
       344     67.3793    167.3945 307.8993320  +6.6190839     617.0541     1784.561     2800.925      92.7123     185.5726     371.4042      2.539     6.80     1249.219     65.50511     88.59644        10     2.440     0.532  31.33   0
       345    646.3723    165.7437 307.6585782  +6.6389903     2124.872     4475.705     5803.545      92.7123     185.9422     371.5151      2.340     6.97     1214.699     65.50511     258.4219        25     1.780     1.019  38.19   3
       346    648.5042    162.8688 307.6577897  +6.6402473     2138.833     5038.414     6710.064     93.00803     186.0161     371.6629      2.614     9.41     1214.566     65.50511     269.0168        31     2.317     1.066  27.52   3
       347    602.3477    154.8488 307.6772618  +6.6420285     17989.72     38652.77      62935.5     93.30283     185.7206     371.6259      3.578    11.13     1214.103     65.50511     1963.727       132     3.871     2.321 -78.97   3
       348    604.6302    151.8022 307.6764166  +6.6433613     17147.22        38232     47580.85     92.56409     185.6466     371.4042      2.426     7.53     1213.946     65.50511     1848.835        54     2.282     1.190  45.71   3
       349    328.2246    156.9830 307.7912028  +6.6320558     1298.657     3555.776     5815.535     92.86029     185.7206      371.552      3.492     9.70     1230.149     65.50511     162.6873        23     1.881     1.395 -89.18   2
       350    282.7917    147.1420 307.8104365  +6.6346073     1155.119     3829.761     5111.211     92.41563     185.7206     371.3302      3.164    11.06     1235.788     65.50511     157.5425        32     2.103     1.621  80.66   0
       351    666.3961    138.4011 307.6511841  +6.6509364     1133.703     2410.859     3204.013     92.41563     185.3505     371.3302      2.674     5.39     1213.061     65.50511     182.0894        15     1.448     0.861  43.08   2
       352    669.5114    135.6259 307.6499832  +6.6521847      1055.32     2252.551     2516.805     93.30283     185.6466     371.4411      2.457     4.68     1212.932     65.50511     143.0175        10     1.007     0.747  82.38   3
       353    411.2292    127.2019 307.7577000  +6.6471010     1275.254     3245.864     5473.142     92.56408     185.6466     371.4042      3.374     8.98     1217.031     65.50511     153.7874        22     1.758     1.281 -88.71   2
       354    881.7155    123.0642 307.5621464  +6.6643840     1882.986     5198.407     6125.381     93.30283     186.0161     371.6629      2.670     8.38     1207.875     65.50511     173.3046        44     1.983     1.646  48.16   0
       355    862.5178    124.2210 307.5700923  +6.6632726     1011.839     2440.081     2910.718     92.86029     185.4986      371.552      2.478     6.89     1208.597     65.50511     133.0647        14     1.575     0.845  85.80   2
       356    373.2211    121.7129 307.7736968  +6.6481044     632.6591     1509.929     1642.874     93.15556     185.5726     371.4781      2.512     6.05     1223.511     65.50511     107.3607         7     1.224     0.841   9.10   0
       357    120.7999    117.4959 307.8788290  +6.6414530     1005.419       3526.5     5028.909     92.56409     185.4246     371.1453      3.226    12.57     1243.945     65.50511     175.9573        32     2.275     1.934  74.30   0
       358      3.3874    115.1476 307.9277428  +6.6385112     4926.905     13804.75     16413.18     92.41563     177.7882     316.1231      2.622     7.62     1250.447     65.50511     619.3772        56     2.190     1.631  89.11  24
       359    802.8227    109.3232 307.5954310  +6.6674480     2583.129     6052.199     8276.999      92.7123     185.7206      371.552      2.764     8.14     1209.634     65.50511     296.9667        40     2.283     1.492  49.70   2
       360    805.6876    107.6894 307.5942951  +6.6682169     1829.435     3541.441      4918.95     92.86029     186.4585     371.7368      2.555     4.59      1209.45     65.50511      236.537        16     1.238     1.067  36.65   3
       361    749.1871    109.1764 307.6177459  +6.6657354     1248.416     3834.749     4662.583     92.86029     185.6466      371.552      2.938    10.96     1210.742     65.50511     157.5778        33     1.875     1.786  -8.47   0
       362     44.3345    105.6202 307.9110402  +6.6438071     1252.511     2452.103     3805.812      92.7123     185.8684     371.4781      2.496     5.78     1247.447     65.50511     166.3015        14     1.436     0.831  75.06   3
       363     42.1961    108.8297 307.9118192  +6.6424115     1184.115     2451.118     3380.354     92.56408     185.6466     371.4411      2.304     5.88      1247.76     65.50511     148.1078        12     1.288     0.756  43.05   3
       364     70.7957     91.1619 307.9005316  +6.6506546      3193.89      10969.5     14384.72     92.11799     185.5726     371.3302      2.997     8.16     1245.294     65.50511     398.3976        71     2.338     1.985  58.14   0
       365    401.9826     90.9715 307.7627874  +6.6617447     825.4639     2226.958      4219.43      92.7123     185.6466      371.552      4.358    12.29     1218.259     65.50511     108.8616        14     2.462     1.708  12.68   2
       366    612.4717     84.4684 307.6754575  +6.6714070     6488.828     13959.81        17331     93.15556     186.0161      371.589      2.444     9.64     1210.551     65.50511     696.8916        49     2.607     1.295  51.36   3
       367    614.7004     81.3560 307.6746369  +6.6727651     5967.862     12310.78     14606.36     93.15556     185.7206     371.8845      2.221     7.61     1210.489     65.50511     631.5873        34     2.156     0.977  40.63   3
       368    512.1121     80.8814 307.7173251  +6.6695617     1681.135      3301.53     3857.925     92.86029     186.0899     371.7368      2.191     7.73     1212.691     65.50511     181.8552        23     1.726     1.002  32.84   3
       369    515.1602     77.9913 307.7161562  +6.6708554     1599.553     3236.193     3994.409     92.41563     185.6466     371.3302      2.332     6.54     1212.545     65.50511     176.1385        20     1.618     0.966  49.48   3
       370    511.2972     76.6401 307.7178092  +6.6712849      1256.96     2202.188     3095.436     93.15556     185.7206     371.8845      2.068     4.54     1212.686     65.50511     170.9924        11     1.174     0.699  52.27   3
       371    417.4630     76.3001 307.7568511  +6.6683127     7131.145     15664.74     19778.81     92.86029     185.8684     371.6629      2.502    10.85      1216.52     65.50511     767.0492        52     2.574     1.325  55.61   3
       372    420.4723     73.4815 307.7556960  +6.6695757     7547.018     15190.21     18009.38     93.44989     186.2374     371.6629      2.243     7.09     1216.576     65.50511     879.6272        41     2.302     1.054  47.27   3
       373    237.4082     72.2381 307.8318828  +6.6640079     2158.098      4105.94     6605.083     92.26693     185.5726     371.3302      3.009     7.60     1238.829     65.50511     246.0951        19     1.507     1.072 -65.33   3
       374    238.4875     76.5035 307.8312875  +6.6622837     3120.688     6644.318     10461.58     93.15556     186.3111     371.6629      2.908     5.58     1238.885     65.50511     324.1626        23     1.577     1.070  33.79   3
       375    241.0033     73.9997 307.8303270  +6.6634005      3055.72     6013.598     8590.043     92.41563     185.3505     371.3302      2.441     6.29     1238.705     65.50511     352.0535        29     2.035     0.972  64.30   3
       376    226.3880     74.3368 307.8363945  +6.6627755     985.1594     2368.088     4940.621     92.56409     185.6466     371.4042      6.318     7.46     1239.318     65.50511     131.8884        14     1.908     0.817  45.81   3
       377    229.1390     70.9562 307.8353663  +6.6642619     1051.549     2459.917     5595.082     93.15556     185.8684     371.7737      6.044     7.35     1239.128     65.50511     129.3853        15     2.021     0.749  73.84   3
       378      4.7897     74.9565 307.9285421  +6.6551425     955.2996      3003.98     3701.736     92.56408     185.6466     337.1013      2.786     8.73     1247.544     65.50511       162.29        18     1.983     1.073 -46.98  16
       379    598.7628     74.4042 307.6815040  +6.6751060     1382.548     3373.909     5822.582     92.11799     185.5726     371.4042      3.525    11.98      1210.52     65.50511      168.505        27     2.156     1.855  47.85   2
       380    896.2601     73.4407 307.5577887  +6.6853422     1051.012     2456.127     2303.007     93.15556     185.8684     371.6998      2.344     7.80     1204.197     65.50511     124.9688        16     1.353     1.260  34.29   0
       381    224.7378     68.8525 307.8372691  +6.6649837     845.4534     1742.134     3521.222     93.15556     185.7945      371.589      2.789     4.50     1239.238     65.50511     104.5247         7     0.911     0.633 -58.30   1
       382    667.6653     65.7816 307.6531381  +6.6809456     632.4412      1391.12     2627.341      92.7123     185.8684     371.5151      3.981     6.08      1210.11     65.50511     119.8226         7     1.462     0.710  36.82   0
       383    155.7893     58.8900 307.8662894  +6.6668010     3362.362      7292.44     8680.636     92.86029     185.4986     371.3672      2.332     7.31     1241.475     65.50511      347.703        37     2.190     1.159  45.88   3
       384    158.4146     56.2648 307.8652876  +6.6679717     3682.932     8124.576      10113.1     92.56409     185.7206     371.5151      2.500     8.83     1241.376     65.50511     386.2401        40     2.518     1.108  44.35   3
       385    500.9041     55.5322 307.7228549  +6.6796506     1048.761     3334.628     4379.128     93.00803     186.0161     371.6259      2.874    10.24     1213.038     65.50511     130.8123        28     1.730     1.691 -29.40   0
       386    901.9100     54.2800 307.5560919  +6.6934356     1946.826     5100.283     6134.766     92.86029     186.0899     371.7368      2.575     6.61     1202.965     65.50511     287.8577        40     1.896     1.539  45.94   0
       387    701.9183     54.5207 307.6392748  +6.6867261     672.4082     1486.926     1563.116     93.30283     186.1637     371.8106      2.001     3.83     1208.768     65.50511     119.3419         5     1.254     0.335  49.12   0
       388    966.8290     50.4457 307.5292177  +6.6971606     1039.378     2774.979     3382.091     92.56409     185.9422     371.4781      2.765     8.89     1199.568     65.50511     123.3196        21     1.672     1.321  50.05   0
       389    704.1836     52.5832 307.6383988  +6.6876006     656.9761     1488.913     1445.457     92.86029     185.4986      371.552      2.257     3.48     1208.605     65.50511     86.27197         5     0.769     0.455 -17.92   0
       390    686.4225     47.1606 307.6459721  +6.6892505     2785.518     9125.566     11776.77      92.7123     185.6466     371.4042      2.975     8.40     1209.221     65.50511     307.9073        60     2.136     1.963  69.61   0
       391    605.1239     47.4371 307.6797803  +6.6864449     1209.779     3255.165     5052.001     93.00804     185.9422     371.6629      3.086     9.13     1209.923     65.50511     139.1598        23     2.180     1.068  63.31   2
       392    405.7281     44.7335 307.7628139  +6.6809493     1989.398     3722.487     5352.114     93.15556     185.9422     371.6998      2.564     7.46     1219.939     65.50511     231.7278        29     2.217     0.903  49.15   3
       393    408.5966     41.7988 307.7617213  +6.6822555     2044.211     4845.541     6391.125     92.41563     185.3505     371.3302      2.891    10.16     1219.698     65.50511     219.2855        34     2.465     1.168  38.96   3
       394      8.1333     42.9105 307.9282537  +6.6684774     3125.583     10208.42     12941.29     93.30283     186.0899     370.4417      2.946     7.53     1245.727     65.50511     406.7377        63     2.176     1.918  68.23  16
       395    302.7044     39.6877 307.8058401  +6.6796101     4138.071     8874.118     11454.09     93.15556     186.3111     371.6998      2.502     6.77     1234.635     65.50511     445.0532        35     2.177     1.032  36.06   3
       396    305.1417     36.8671 307.8049230  +6.6808550     4522.424     9725.983     12728.59     93.30283     185.7945     371.6259      2.520     9.03     1234.336     65.50511     549.6061        45     2.597     1.161  34.43   3
       397     77.2830     40.0754 307.8995896  +6.6719512     890.7493     2543.731     3702.388     93.30283     186.2374     371.6998      3.471     7.82      1242.97     65.50511      129.016        13     1.839     0.929  10.99   2
       398    370.9793     34.4621 307.7776200  +6.6840342     947.6622     2306.868     4199.154      92.7123     185.8684     371.4781      3.542     6.49     1224.878     65.50511     115.5233        15     1.321     0.896  44.78   2
       399    894.9680   1014.7155 307.5262511  +6.2968612      32271.6     63539.56     69001.62     93.15556     185.6466     371.5151      2.088     4.68     1271.793     65.50511     3466.786        77     1.849     1.498  58.48  16
       400    202.9574   1013.7021 307.8139128  +6.2743624     1021.628     1906.583     2058.615     93.15556     185.7206     371.8845      1.930     5.34     1275.355     65.50511     138.1066        11     1.034     0.852 -18.76   0
       401    792.7956   1008.5222 307.5689304  +6.2960433     1614.162     3371.557     3181.794      92.7123     185.2764     371.4042      2.141     7.52     1271.575     65.50511     186.4263        19     1.504     1.053  82.79   0
       402    741.0894   1006.7064 307.5904841  +6.2950840     4203.536      9461.84     11413.23     93.15556     186.4585     371.6998      2.399     5.60      1272.72     65.50511     436.4089        49     1.898     1.587  75.55   0
       403    795.6088     31.0556 307.6011034  +6.6995077     752.0339     2081.414     2849.331     92.41563     185.7945     371.2932      2.863     6.48     1203.948     65.50511     107.9922        10     1.185     0.994 -13.10   0
       404    230.0449     30.0282 307.8363943  +6.6811809     2058.641     4990.917     6296.754      92.7123     185.9422     371.5151      2.428     6.62     1238.175     65.50511     235.6937        25     1.911     0.986  31.30   3
       405    231.9179     27.0227 307.8357184  +6.6824833     2536.771     5665.276     7782.942     92.86029     185.4986     371.5151      2.536     8.49     1238.062     65.50511     264.3101        36     2.149     1.277  30.75   3
       406    390.4041     28.2063 307.7697545  +6.6872606     2666.917     5704.387     6936.706     92.41563     185.4986     371.4781      2.283     7.97     1222.729     65.50511     268.1475        31     2.048     1.086  57.59   3
       407    210.6024   1005.5208 307.8110158  +6.2779925     1007.238     1914.066     2238.835     92.41563     185.2764     371.3672      1.949     6.89     1275.321     65.50511     141.4988        11     1.378     0.965  -9.55   0
       408     35.9391   1004.0556 307.8836595  +6.2727885     1897.366     4027.252     4198.994     93.30283     185.8684     371.6629      2.149     5.26     1274.285     65.50511     251.9209        27     1.502     1.260  41.68   0
       409    863.4927     27.8591 307.5729740  +6.7030698     652.9199     1192.639      1487.88     93.00803     185.7945     371.7737      1.920     5.33     1202.671     65.50511     93.97693         6     1.270     0.631 -51.49   0
       410    706.8869     25.3014 307.6382064  +6.6989481     847.7909     2287.896     2717.628     93.15556     186.3848     371.6998      2.594     7.37     1207.256     65.50511     131.1008        11     1.899     0.800  85.45   0
       411    929.3101   1001.5961 307.5124232  +6.3034084     5181.258       9964.7     10403.44     92.56409     185.4986     371.2932      2.016     4.78     1270.833     65.50511     591.6738        37     1.607     1.284  58.64   0
       412    903.0823    993.2648 307.5236087  +6.3059811     1469.861     2893.741     2955.228     93.30283     186.0161     371.6629      2.159     5.39     1270.139     65.50511     207.5121        20     1.608     1.071  54.81   0
       413    128.0986     19.3396 307.8791659  +6.6821996     1481.539     2559.636     3778.596     92.86029     185.7945     371.7737      2.248     5.29     1241.095     65.50511     210.7977        15     1.520     0.729  33.68   3
       414    623.9434    989.2565 307.6397716  +6.2984107     2834.368      6340.29     6790.781     93.44988     185.8684     371.6998      2.224     5.76     1273.008     65.50511     297.0316        34     1.652     1.370  67.66   0
       415    236.3866    989.8188 307.8008374  +6.2853287     2495.181     5753.936     6375.018     92.86029     185.5726     371.5151      2.409     5.88     1275.406     65.50511     311.3907        40     1.875     1.415  47.32   0
