#   1 NUMBER                 Running object number                                     
#   2 X_IMAGE                Object position along x                                    [pixel]
#   3 Y_IMAGE                Object position along y                                    [pixel]
#   4 ALPHA_J2000            Right ascension of barycenter (J2000)                      [deg]
#   5 DELTA_J2000            Declination of barycenter (J2000)                          [deg]
#   6 FLUX_APER              Flux vector within fixed circular aperture(s)              [count]
#   9 FLUXERR_APER           RMS error vector for aperture flux(es)                     [count]
#  12 FLUX_RADIUS            Fraction-of-light radii                                    [pixel]
#  13 FWHM_IMAGE             FWHM assuming a gaussian core                              [pixel]
#  14 BACKGROUND             Background at centroid position                            [count]
#  15 THRESHOLD              Detection threshold above background                       [count]
#  16 FLUX_MAX               Peak flux above background                                 [count]
#  17 ISOAREA_IMAGE          Isophotal area above Analysis threshold                    [pixel**2]
#  18 A_IMAGE                Profile RMS along major axis                               [pixel]
#  19 B_IMAGE                Profile RMS along minor axis                               [pixel]
#  20 THETA_IMAGE            Position angle (CCW/x)                                     [deg]
#  21 FLAGS                  Extraction flags                                          
         1    912.3114     22.2256 307.5552835  +6.6941225     4604.998     6364.111       6489.8     78.44974     156.0931     312.3105      1.490     3.29     825.9915      55.0772     732.7296        27     1.425     0.858 -45.39   0
         2    977.0824     18.3960 307.5285006  +6.6978652     2152.228     3290.883     3049.834     77.82859     155.9064     312.1862      1.574     3.83     821.9618      55.0772     368.3925        18     1.416     0.798 -52.58   0
         3    696.4657     15.0035 307.6452066  +6.6898904     8276.486     11557.55     12022.41     77.57874     156.0309     312.2484      1.452     3.19     827.7964      55.0772     1304.331        31     1.386     0.893 -46.93   0
         4    616.6414     14.2342 307.6783977  +6.6875361     4222.153     5737.812     5728.077     78.07764     156.2796     312.2795      1.435     3.13     827.4604      55.0772     650.6899        19     1.262     0.785 -50.18   0
         5    318.9673     13.8171 307.8020853  +6.6777246      1026.98     1842.701     2334.662     77.95322     156.0931     312.3416      1.922     4.63     837.6809      55.0772     159.3273        14     1.333     0.843 -74.08   0
         6    416.7892     10.4545 307.7615577  +6.6823971     6957.926     9856.703     9919.502     77.70377     156.2174     312.1551      1.477     3.22     832.2303      55.0772     1046.858        27     1.336     0.909 -46.98   0
         7    372.6552     12.0637 307.7798394  +6.6802514     784.3734     1299.067     1175.727     78.44974     156.2174     312.4659      1.669     4.18     835.9827      55.0772     116.1892         7     1.122     0.444 -34.05   0
         8     17.7522      9.9986 307.9273533  +6.6691674     9088.537      12947.9     13414.57     77.70377     155.9064     312.0618      1.472     3.14     837.9789      55.0772     1406.819        31     1.374     0.935 -50.42   0
         9    663.6477      9.5750 307.6590247  +6.6910334     963.4757     1338.399     1525.099     77.95322     156.2796     312.3727      1.379     3.60     827.5911      55.0772     170.3624         9     1.142     0.524 -32.76   0
        10    492.4450      7.6354 307.7302204  +6.6860988     1112.746     1484.224      1738.82     78.07764     156.2174     309.1554      1.369     3.22     827.8882      55.0772     191.9296        11     1.141     0.600 -47.83  16
        11    313.3926      5.3704 307.8046869  +6.6810246     14341.74     20456.56     21711.89     77.95322     156.0931     289.9384      1.544     3.22     837.5776      55.0772     2166.677        39     1.495     0.948 -48.41  16
        12    408.2808      6.2781 307.7652337  +6.6838359     1029.064     1503.279     1653.309     78.57338     156.5278      299.166      1.542     5.21     832.9944      55.0772     133.9286         9     1.175     0.653 -54.84  16
        13     86.7986      5.5410 307.8988198  +6.6733334     2734.628     3922.383     4225.745     77.70377     155.9687     291.6409      1.496     3.52     838.3732      55.0772     377.6137        22     1.464     0.796 -52.81  16
        14     78.3119      4.5306 307.9023798  +6.6734647     1661.037     2402.789      2630.28      78.3259     156.5278     280.5458      1.625     3.42     838.2499      55.0772      247.766        16     1.198     0.823 -50.20  16
        15    782.0528      4.3200 307.6100063  +6.6971637     834.0634     1214.829     1456.827      78.3259     155.7818     278.0782      1.423     4.27     826.2128      55.0772      161.579         8     1.034     0.890 -69.68  16
        16    379.4979      3.2390 307.7772947  +6.6841245     2588.151     3577.925     3468.346      78.3259     148.1157     264.2971      1.448     3.31     835.4677      55.0772     364.1951        16     1.237     0.773 -51.73  24
        17    639.8043      1.1044 307.6692165  +6.6937325     1354.693     1931.606     2030.736     64.60722     120.2652     231.0618      1.085     2.59     827.0765      55.0772     451.0875         9     1.362     0.306  -0.31  24
        18    899.1068    999.3987 307.5279529  +6.2902268     9147.606        14267     15538.52     77.82859     155.9064     312.1862      1.669     3.33     856.3052      55.0772     1244.685        38     1.504     1.113 -39.29   0
        19    944.4657   1020.8173 307.5084033  +6.2828967      6889.14     10885.88     10913.07     77.82859     155.1575     276.2922      1.668     3.56     856.7803      55.0772     854.2716        34     1.492     1.104 -44.31  24
        20    609.3995   1023.5985 307.6474116  +6.2705543     464.3588     656.1277     795.6254     68.82668     124.9367     235.9671      1.514     4.13     860.4575      55.0772     70.04236         5     0.999     0.488  -3.33  24
        21    616.7724   1001.5740 307.6450920  +6.2798944     655.1414     880.3986     890.5404     77.82859     156.0931     312.3105      1.512     5.04     860.1594      55.0772     94.35547         7     0.914     0.786 -81.60   0
        22    530.3589    998.6902 307.6810631  +6.2781923     9210.157     12780.55     13527.74      78.3259     156.2796      312.497      1.472     3.26     861.8604      55.0772     1504.425        32     1.401     0.917 -44.63   0
        23    872.6765    995.5688 307.5390543  +6.2909261     12871.42     19974.64     21552.76     78.20187     156.3417     312.4348      1.710     3.41      856.211      55.0772     1725.367        52     1.607     1.233 -36.91   0
        24     28.2458    998.5635 307.8895082  +6.2613879     588.4753     784.2186     699.0203     78.07764     156.2796     312.3727      1.386     3.48     857.7882      55.0772      100.421         5     0.828     0.423 -21.32   0
        25    994.4454    995.0161 307.4885189  +6.2952162     4787.171     7522.326     7998.021     77.82859     156.1553     312.2484      1.721     3.51     854.6666      55.0772     638.6638        32     1.447     1.172 -48.54   0
        26    585.3672    995.9803 307.6583180  +6.2811529     1397.393     1856.554     1683.263     77.82859     156.0931     312.2795      1.409     3.19     860.6956      55.0772     236.6349        14     1.108     0.838 -47.75   0
        27    516.9526    994.4800 307.6867705  +6.2794816     4674.728     6617.952     7024.698      78.3259     156.2796     312.4659      1.547     3.50     861.7134      55.0772      687.128        29     1.604     1.111 -13.89   0
        28    626.3141    993.9482 307.6413874  +6.2833622     1602.066     2286.174     2400.346      78.3259     156.2174     312.5591      1.433     3.05     860.0252      55.0772      269.272        11     1.023     0.689 -56.95   0
        29     51.6420    993.0788 307.8799818  +6.2644396     963.6723      1404.96      1778.62     78.20187     156.2796     312.4659      1.505     4.70     857.9717      55.0772     154.5765         9     1.117     0.607 -47.08   0
        30    469.8383    990.9573 307.7064483  +6.2793576     2365.817     3497.078     3511.484     78.07764     156.2796     312.3416      1.503     3.42     861.6145      55.0772     412.3216        19     1.308     0.867 -41.03   0
        31    904.3939    983.1618 307.5263028  +6.2971072     45666.38     69951.57     73752.45     77.45351     156.0309     312.2173      1.628     3.31     855.9368      55.0772     6590.549        69     1.585     1.198 -43.60   0
        32    309.8347    984.0270 307.7731057  +6.2768530     554.5222     777.1915     990.2541     77.82859     156.0309     312.2484      1.465     4.41     861.3954      55.0772     103.5583         5     1.023     0.541 -52.78   0
        33    211.7320    981.2953 307.8139235  +6.2746867     1940.422     2856.162     2436.428     78.20187     156.4037      312.497      1.504     3.86     860.3971      55.0772     288.5388        17     1.280     0.766 -48.64   0
        34    610.4139    979.6210 307.6484705  +6.2887455     1007.098     1103.372     1238.379     78.07764     156.0309     312.3727      1.342     4.07     859.8115      55.0772     153.5121        11     1.173     0.627 -44.26   0
        35     99.6633    980.1592 307.8604844  +6.2713889     731.8788     974.3032     846.6449      78.3259     156.2174     312.5591      1.432     2.95     858.2187      55.0772     141.8199         8     0.918     0.731 -12.49   0
        36    750.5059    974.9058 307.5904688  +6.2953772     7297.784     10743.29     11747.29      78.3259     156.7757     312.4348      1.582     3.40     858.8722      55.0772     1067.988        38     1.611     1.057 -61.16   0
        37    802.3377    976.8432 307.5688851  +6.2963090     2595.048     3560.162     3802.441      78.3259     156.2174     312.5591      1.494     3.55     858.1722      55.0772     378.1528        20     1.300     0.848 -40.34   0
        38    219.8504    973.8617 307.8108044  +6.2780286     1515.873     2273.389     1876.974      78.3259     156.2174      312.528      1.531     3.62     860.4464      55.0772     244.9968        13     1.185     0.694 -55.53   0
        39     44.9037    971.8356 307.8834979  +6.2729833     2917.746     4359.616     4475.654     78.44974     156.1553     312.6212      1.522     3.49     857.7997      55.0772     430.2862        24     1.532     0.891 -43.56   0
        40    537.0374    974.0582 307.6791202  +6.2885859     879.9711     1241.086     1124.977      78.3259     156.3417      312.497      1.544     3.81     861.1243      55.0772     138.5034         7     0.891     0.523 -48.18   0
        41    184.0229    973.2648 307.8256977  +6.2770713      821.994     1010.724     328.9934     77.95322     156.2796     312.3727      1.341     4.19     859.3721      55.0772     115.6625         7     0.792     0.732  44.34   0
        42    938.7186    969.8890 307.5124976  +6.3037325     6926.865     10718.43     10914.08     78.07764     156.4658     312.5591      1.657     3.34     855.1444      55.0772     983.4689        34     1.470     1.076 -52.71   0
        43    194.5103    966.2523 307.8215810  +6.2803189     768.9598     1020.915     576.8099      78.3259     156.0931     312.5902      1.465     6.09     859.5487      55.0772     102.9006         9     1.408     0.740 -53.18   0
        44    621.0538    963.9732 307.6445798  +6.2955622     839.2513     964.7898     1027.057     78.07764     156.4037     312.4038      1.337     4.24      859.472      55.0772     136.5264         7     1.097     0.502 -41.71   0
        45    912.5101    961.6487 307.5236551  +6.3062604     2077.945     3245.153     3335.254      78.3259     156.0931     312.6212      1.648     3.77     855.3362      55.0772      329.968        22     1.400     0.969 -24.89   0
        46    772.0488    958.1277 307.5820888  +6.3030244     1375.613     2196.935     2377.475      78.3259     156.3417      312.497      1.542     3.65     857.9029      55.0772     217.1289        15     1.258     0.786 -43.80   0
        47    633.2524    957.4664 307.6397344  +6.2986569     5168.636     7101.958     7609.324      78.3259     156.2174     312.4038      1.470     3.35     859.2066      55.0772     772.1646        28     1.447     0.884 -42.91   0
        48    245.4235    957.6193 307.8007368  +6.2855934     4779.036     6656.106     6877.931     78.07764     156.1553     312.4038      1.464     3.33     860.3297      55.0772     762.6826        23     1.327     0.864 -41.83   0
        49    982.8266    956.8253 307.4946232  +6.3105972     749.6011     1306.129     1200.669     77.82859     156.0931     312.3416      1.758     5.20     853.4288      55.0772     84.91888         9     1.153     0.662 -73.52   0
        50    455.3230    955.6619 307.7136639  +6.2934437     1232.631     1855.327     1401.164     78.57338     156.3417     312.4659      1.489     2.91      860.619      55.0772     219.0425         9     1.020     0.562 -47.56   0
        51     14.1376    954.9420 307.8968413  +6.2789225     2431.118     3553.782     3753.393     78.44974     156.2174      312.497      1.512     3.35     857.6021      55.0772     395.4722        19     1.332     0.782 -43.12   0
        52    864.9162    954.0016 307.5436715  +6.3078294     1052.608     1444.292     1423.502     77.57874     155.8441     312.1862      1.407     4.13     855.8071      55.0772     142.5222         9     0.908     0.727 -62.61   0
        53    936.4086    951.1527 307.5140852  +6.3113913     893.2581     1254.192     1618.995     77.82859     156.1553      312.124      1.463     3.57     854.5848      55.0772     125.3307        10     0.959     0.770 -56.50   0
        54    281.1157    951.2924 307.7861332  +6.2894041     890.4929      1478.59      1461.19     78.07764     156.7138     312.5591      1.591     4.55     860.5957      55.0772     148.6403         8     1.386     0.424 -39.75   0
        55    557.7720    949.9570 307.6713237  +6.2992310     1916.597     2556.596     2462.243     77.95322     156.3417     312.3727      1.339     3.33     860.2007      55.0772     324.3021        15     1.241     0.689 -49.53   0
        56     46.8034    946.8135 307.8835561  +6.2833778     836.7611      1389.43     1914.899     77.95322     155.9687     312.3416      1.670     5.85       857.67      55.0772     126.8675        13     1.435     0.672 -38.00   0
        57    597.0941    946.4262 307.6551175  +6.3020051       1290.5     1759.269     1628.966     78.44974     156.0309     312.3105      1.358     3.87     859.5018      55.0772      222.636        13     1.266     0.636 -40.38   0
        58    277.2077    943.8702 307.7880062  +6.2923372     1558.675     2196.953     2779.667     77.82859     155.9064     312.3727      1.437     3.47     860.3802      55.0772     298.1259        14     1.230     0.726 -41.34   0
        59     41.4234    945.1020 307.8858474  +6.2839034      494.105     597.0909      1390.89     78.44974     156.0309     312.3105      1.403     4.19     857.6461      55.0772     94.89191         5     0.799     0.628  14.40   0
        60    989.1578    949.1978 307.4922504  +6.3139576     755.8923     1717.881     1544.194     77.70377     155.9687     312.1862      2.169     5.90     852.9327      55.0772     118.4038        11     1.491     0.656 -64.61   0
        61    743.7340    940.4969 307.5944367  +6.3093576     895.2014     1128.231     848.0483      78.3259     156.3417      312.497      1.358     3.53      857.845      55.0772      156.528         6     0.870     0.569 -61.69   0
        62    881.4786    936.7809 307.5373732  +6.3154923     7511.931      11274.1     11407.24     77.82859     155.9687     312.4348      1.610     3.39     855.3184      55.0772     1105.783        36     1.550     1.008 -49.74   0
        63    119.8593    938.2229 307.8535188  +6.2893819     574.8822     914.3654     770.4736     77.95322     156.2174     312.3416      1.635     4.30     857.9462      55.0772     96.99426         6     0.969     0.545 -66.04   0
        64    585.8428    934.2571 307.6601984  +6.3066528     603.8583     921.2933     1375.214     78.20187     156.2174     312.4659      1.791     3.22     859.4291      55.0772     139.7704         7     1.149     0.632 -47.36   0
        65    417.5479    933.9086 307.7300798  +6.3011587     2473.709     3440.522     3640.319     78.20187     156.0931     312.6523      1.470     3.32     860.0008      55.0772      429.449        16     1.239     0.755 -44.69   0
        66    318.9526    932.2350 307.7710686  +6.2985423     10521.94      14987.3     15577.63     77.95322     156.2796     312.4038      1.459     3.28     860.1279      55.0772     1745.672        32     1.451     0.893 -46.05   0
        67    239.0899    931.1157 307.8042614  +6.2963231     8005.755     11440.72     11750.76     78.07764     156.5278     312.5902      1.468     3.23     859.4715      55.0772     1352.666        31     1.370     0.946 -45.01   0
        68    157.3674    929.2734 307.8382504  +6.2943378     550.6281     689.0982      904.324     78.20187     156.2796     312.4348      1.271     3.32     858.3021      55.0772     108.3505         5     1.169     0.274 -34.87   0
        69    567.2823    925.6075 307.6681953  +6.3096027     1275.499     1755.022     1970.537     77.95322     155.9064     312.3416      1.443     3.47     859.4448      55.0772      205.761        12     1.129     0.666 -42.14   0
        70    751.2925    925.3933 307.5918062  +6.3158462     716.0341     978.1922     1108.477     77.95322     155.9687     312.2795      1.518     3.40     857.2178      55.0772      147.618         6     0.881     0.483 -46.93   0
        71    897.1009    922.0160 307.5313827  +6.3221099      945.063      1550.21     2218.118      78.3259     156.0309     312.2795      2.126     4.41     854.7167      55.0772     148.1718        11     1.217     0.646 -50.87   0
        72    201.2394    921.3882 307.8203036  +6.2990677     689.2546     741.3333      640.363     77.82859     156.0931     312.2173      1.188     5.00      858.808      55.0772     117.2855         9     1.175     0.602 -50.17   0
        73    129.3980    921.7786 307.8501150  +6.2964918     695.1006     846.5069     536.3859     77.95322     155.9687     312.1862      1.431     4.33     857.8211      55.0772     114.3301         7     0.973     0.550 -29.16   0
        74    853.2416    920.7377 307.5496353  +6.3211737     794.9619     1435.962     1278.081      78.3259     156.2174      312.528      1.880     6.17     855.4886      55.0772     108.8583        11     1.553     0.689 -19.15   0
        75    395.7037    920.3979 307.7396043  +6.3060043     614.1746     639.2198       439.36     77.82859     156.0309     312.1551      1.221     4.30     859.7821      55.0772     99.99152         7     1.000     0.528 -59.55   0
        76    964.2445    917.6525 307.5036519  +6.3261514     868.9207     1285.785     1739.286      78.3259     156.2796     312.4659      1.699     4.79     852.8317      55.0772      122.948         9     1.149     0.567 -45.42   0
        77    585.8535    914.9775 307.6608430  +6.3146133     508.0249       586.66     239.2352     77.82859     156.2796     312.2795      1.376     4.60     858.9224      55.0772      87.7226         7     1.354     0.444 -68.24   0
        78    557.0074    915.4334 307.6728037  +6.3134593     854.3603     1076.375     1076.468     77.82859     156.0931     312.2795      1.288     2.89     859.1761      55.0772     177.6124         7     0.918     0.530 -55.22   0
        79    826.9405    915.0204 307.5607471  +6.3226561     614.1555     774.1396     980.1577     77.95322     156.1553     312.3416      1.348     3.62     855.6243      55.0772     104.7944         5     0.967     0.390  27.65   0
        80    733.6104    914.7315 307.5995059  +6.3196572     1705.999     2360.016     2811.902     77.82859     156.0931     312.2795      1.482     3.54     857.2956      55.0772     286.6385        12     1.218     0.636 -42.73   0
        81    964.9127    910.6666 307.5036088  +6.3290580     1296.909     2048.642     2542.771      78.3259     156.4658      312.497      1.658     4.23     852.7311      55.0772      176.809        14     1.160     0.946 -22.73   0
        82    608.8867    911.3893 307.6514009  +6.3168657      749.023     1095.767      755.336     77.95322     156.0309     312.3105      1.466     3.03      858.621      55.0772     132.9927         7     0.856     0.587 -73.45   0
        83    597.5170    911.6802 307.6561115  +6.3163650     874.7333      1173.75     905.4106      78.3259     156.5278      312.528      1.397     5.49     858.7365      55.0772     124.7817        11     1.352     0.628 -51.94   0
        84    518.7464    910.6642 307.6888492  +6.3141471     1268.252     1666.988     1538.748      78.3259     156.2174     312.4348      1.371     3.30     859.3415      55.0772     203.5007        11     1.048     0.675 -47.84   0
        85    652.0088    908.2525 307.6336032  +6.3196036     2736.538     3696.593     4086.342     77.82859     156.1553     312.1862      1.417     3.38     857.8578      55.0772     481.4581        19     1.314     0.789 -42.18   0
        86   1003.2101    907.6144 307.4878103  +6.3315952        488.9     748.7845     666.7683     78.07764     156.0309     312.4038      1.621     4.10     851.3801      55.0772     89.36414         6     1.209     0.398 -31.61   0
        87    941.9874    906.2481 307.5132754  +6.3301178     753.7742     1225.153     877.5726     77.70377     156.1553     312.1862      1.655     3.49      853.489      55.0772     119.4753         7     0.732     0.669 -60.88   0
        88     48.6942    904.0401 307.8842188  +6.3011008     3123.028     4742.778     5232.031     78.44974     156.2174     312.5591      1.653     3.66     857.1204      55.0772     468.1921        22     1.586     0.779 -57.72   0
        89    812.7021    904.5394 307.5670108  +6.3265080     887.3073     1187.789     1417.707     78.07764     156.2796     312.5902      1.434     3.69     855.6219      55.0772     121.9876        10     1.084     0.636 -50.18   0
        90    549.2476    904.5340 307.6763925  +6.3176996     688.1177     919.3322     619.3749     78.20187     156.2174      312.497      1.566     4.60     858.8909      55.0772     91.95026         8     1.156     0.520 -67.54   0
        91    929.9171    903.6935 307.5183726  +6.3307699     768.8279     1160.041     698.5706     78.07764     156.5898     312.5902      1.430     4.82     853.8983      55.0772     106.2567         8     1.247     0.528 -23.44   0
        92    192.0048    903.1378 307.8247541  +6.3062924     2376.549     3556.399     3897.157     77.70377     156.0309     312.2484      1.504     3.92      858.465      55.0772     379.8326        21     1.361     0.951 -39.86   0
        93     66.2002    903.5464 307.8769679  +6.3018936      2244.06      3203.42     3407.532     77.57874     155.9064     312.0307      1.559     3.58     857.1204      55.0772     313.2627        15     1.198     0.771 -46.11   0
        94    948.7042    901.6370 307.5106413  +6.3322457      566.808      557.068     665.3012     78.44974     156.1553     312.5902      1.232     3.97      853.213      55.0772     79.47662         6     0.885     0.509 -44.01   0
        95    331.2481    899.2047 307.7670789  +6.3125921     1025.158     1209.782      1446.27     77.70377     156.0931     312.1551      1.283     3.22     859.7318      55.0772     193.7003        10     1.081     0.578 -43.82   0
        96    226.1688    899.9325 307.8106791  +6.3087636      943.348     1536.258     1937.924     78.20187     156.2796     312.4348      1.841     2.96     859.1987      55.0772     206.0648        12     1.060     0.753  -0.79   0
        97    784.2123    898.4379 307.5790444  +6.3280755     866.8919     1013.623     1613.722     77.82859     156.0931     312.1862      1.353     3.47     855.9817      55.0772     167.2679        10     1.124     0.669 -52.70   0
        98    646.6874    897.3276 307.6361800  +6.3239363     7882.589     10781.41     11665.22     78.44974     156.5278     312.4659      1.420     3.10     857.7471      55.0772     1244.031        26     1.367     0.834 -41.74   0
        99    884.5400    893.6136 307.5375512  +6.3334175     3070.977     4499.935       4632.5     77.70377     156.2174     312.1862      1.619     3.66     854.4604      55.0772     433.5397        23     1.468     0.885 -45.95   0
       100      6.9190    895.4625 307.9018518  +6.3032361      1293.49     1706.585     1235.614     78.44974     156.3417     304.3453      1.368     4.45     856.9591      55.0772     199.6482        12     1.219     0.672 -43.10  16
       101    436.1650    894.7150 307.7236722  +6.3179647     709.2985     835.6463     567.7874      78.3259     156.1553     312.4348      1.334     5.09     859.5131      55.0772     131.2895         8     1.028     0.730 -61.39   0
       102     19.7789    893.9565 307.8965641  +6.3042907      1246.32     1717.343     1245.226     77.82859     156.1553     312.2795      1.308     3.44     856.9412      55.0772     212.6185        10     1.070     0.623 -37.17   0
       103    329.7191    890.4703 307.7680085  +6.3161469      18754.9     25670.36     26878.64     78.57338     156.5898      312.497      1.439     3.17     859.6606      55.0772     2837.359        39     1.439     0.922 -45.83   0
       104     64.2462    891.2709 307.8781945  +6.3068959     1452.325     2064.514      1542.93      78.3259     156.2796     312.4659      1.453     3.98     856.8874      55.0772     248.3722        14     1.287     0.730 -44.37   0
       105    200.6070    889.8373 307.8216324  +6.3120727     1419.523      2072.23      1711.51     77.57874     156.0309     312.2173      1.509     3.01      858.556      55.0772     244.8933        13     1.158     0.656 -51.64   0
       106    380.2989    889.5049 307.7470419  +6.3182425      879.151     1327.797     1085.357      78.3259     156.7757     312.3105      1.589     4.10     859.5159      55.0772     150.7125         9     1.125     0.695 -34.28   0
       107    659.4067    882.1370 307.6314103  +6.3306336     648.2032     788.7427     853.6558     77.70377     156.0931     312.2484      1.195     4.61     857.3581      55.0772     130.9383         7     1.008     0.599 -39.81   0
       108    407.6678    881.1921 307.7359595  +6.3225925      1061.82     1464.691     1127.908     77.82859     156.0309     312.3727      1.438     4.38     859.4161      55.0772     147.0188        12     1.156     0.759 -41.22   0
       109     92.9946    881.0177 307.8666065  +6.3120962      1840.25     2608.058     2580.215     77.95322     155.9064     312.3105      1.413     3.28     856.7082      55.0772     339.3943        14     1.196     0.736 -55.81   0
       110    661.3603    877.2173 307.6307647  +6.3327302      925.612     1394.485     1076.973     77.95322     156.0931     312.2484      1.565     4.26     857.2641      55.0772     152.1805        10     0.996     0.849 -23.45   0
       111    488.3063    877.5291 307.7026037  +6.3268079     765.8393     1444.488     1713.518      78.3259     156.3417     312.4659      2.255     4.80     859.0912      55.0772     134.5513         9     1.350     0.483 -55.15   0
       112    874.8779    875.3307 307.5421766  +6.3406438     2203.466      3316.95     3199.698     78.44974     156.5278     312.4348      1.522     3.41     854.1881      55.0772     312.9307        16     1.237     0.789 -39.35   0
       113    845.5010    874.8841 307.5543889  +6.3398474     2356.053     3250.242     3364.813      78.3259     156.7757     312.5591      1.495     3.31     854.5996      55.0772     341.6374        21     1.234     0.935 -38.35   0
       114     76.4510    874.7262 307.8736875  +6.3141372     2834.386     4030.184     4485.506      78.3259     156.3417      312.497      1.477     3.12     856.6006      55.0772     475.3553        18     1.265     0.781 -44.56   0
       115    808.8918    874.2378 307.5696106  +6.3388917     3399.808     4775.222       4999.3     78.44974     156.2174      312.497      1.502     3.26     855.2386      55.0772     509.2628        20     1.326     0.813 -41.58   0
       116    544.8188    865.6788 307.6795398  +6.3335936     374581.1     519466.8     541050.8     77.82859     155.9687     312.4038      1.445     4.94     857.5059      55.0772      59296.6       170     1.600     1.163 -46.45   4
       117    324.2611    872.7629 307.7708722  +6.3232746     852.5668     1165.742     1871.919      78.3259     156.3417     312.4659      1.768     4.86     859.5494      55.0772     128.3115         9     1.167     0.573 -48.15   0
       118    439.6453    872.2363 307.7229852  +6.3273623     585.2889     787.3795     938.3271     78.07764     156.2174     312.4038      1.131     3.59     859.2648      55.0772     116.5371         5     0.862     0.431 -42.50   0
       119    389.0849    868.2328 307.7441118  +6.3273198     8722.735     12250.91     12563.49      78.3259     156.0931     312.4348      1.447     3.19     859.3113      55.0772     1469.726        32     1.436     0.884 -44.58   0
       120    632.5376    868.8892 307.6430118  +6.3352044     1271.837     1717.108     1942.451      78.3259     156.4037      312.528      1.336     2.95     857.3751      55.0772     202.8651        12     0.995     0.759 -43.99   0
       121    332.2967    866.6578 307.7677421  +6.3260649     14004.05     19566.45     20456.09     78.20187     156.2796     312.6212      1.470     3.24      859.453      55.0772     2403.119        35     1.413     0.931 -45.71   0
       122    883.2088    861.8450 307.5391703  +6.3464898     5751.815     8317.774     9079.762     77.82859     156.1553     312.1551      1.541     3.11      853.899      55.0772     921.3867        33     1.461     0.990 -32.43   2
       123    650.6462    863.0490 307.6356898  +6.3382215     3986.621     5524.653     5401.003      78.3259     156.1553      312.497      1.419     3.19     857.1092      55.0772     665.4915        21     1.341     0.762 -42.99   0
       124    722.4615    859.8370 307.6059803  +6.3419493     959.1323     1218.923     1341.899      78.3259     156.3417     312.4659      1.236     4.10      856.097      55.0772     133.8026        10     1.065     0.682 -42.47   0
       125   1016.5982    856.0986 307.4839787  +6.3533116     4950.704     7488.454     7732.587     77.82859     156.0309     312.1551      1.596     3.26      850.038      55.0772     663.7264        28     1.343     1.026 -48.74  16
       126    625.5330    856.9377 307.6463223  +6.3399045     3699.656     4843.096     4936.345      78.3259     156.2174     312.4659      1.345     3.14     857.1318      55.0772      633.231        17     1.208     0.739 -46.77   0
       127    814.0269    856.1927 307.5680848  +6.3465137     1832.985     2572.887     2777.469     77.82859     156.0931     312.2795      1.430     3.11     854.8683      55.0772     350.1963        13     1.182     0.692 -31.42   0
       128    168.0189    857.2140 307.8362645  +6.3244465     666.8652      732.201     1038.724     78.07764     156.0309     312.3727      1.099     2.49     857.1448      55.0772     130.4749         7     0.724     0.649   4.40   0
       129    616.1479    855.8847 307.6502544  +6.3400252     1002.659     1297.286     1555.199      78.3259     156.2174     312.5902      1.327     3.02     857.1788      55.0772     227.5104         9     1.116     0.494 -33.67   3
       130    618.3644    851.4984 307.6494817  +6.3419104     2378.607     3373.012     3607.888      78.3259     156.1553     312.6212      1.512     3.32     857.0308      55.0772     377.5383        16     1.240     0.756 -57.42   2
       131    941.0935    854.8012 307.5153725  +6.3513295     847.6034     1179.922     1040.798     77.82859     155.9064     312.1862      1.408     5.46      852.874      55.0772     141.9612        10     1.264     0.775 -38.01   0
       132    902.0037    849.7496 307.5317726  +6.3521111     3450.543     5062.849      4902.57     77.70377     156.0309     312.0618      1.533     3.38     853.4883      55.0772     528.6408        23     1.389     0.889 -47.01   0
       133    312.1806    850.3243 307.7766452  +6.3321333     1228.507     1804.055     1567.559     77.95322     155.9687     312.4038      1.338     3.77     859.3547      55.0772     194.5315        12     1.180     0.682 -57.22   0
       134    360.1905    845.5910 307.7568721  +6.3356986     3004.475     4139.777     4349.765     77.82859     156.0931     312.3416      1.421     3.20     859.0601      55.0772     496.2896        18     1.302     0.753 -44.87   0
       135    496.2241    835.5190 307.7007321  +6.3444180     3444.667     4845.389     4566.799     78.07764     156.0309     312.3727      1.463     3.32     857.3307      55.0772     577.6305        24     1.381     0.889 -42.32   0
       136    840.9874    834.4783 307.5576199  +6.3563795     1187.437     1668.233     2379.986     77.95322     155.9687     312.2795      1.458     3.84     854.2094      55.0772     226.3967        15     1.259     0.859 -27.40   0
       137    561.6305    833.1053 307.6736568  +6.3476053      925.526     1351.225     1785.076     78.44974     156.0309     312.4659      1.444     3.36     856.4579      55.0772     201.2848         9     1.033     0.615 -42.83   0
       138    543.1963    831.4940 307.6813650  +6.3476533     6993.756     9304.896     10545.33     78.07764     155.9687     312.2173      1.394     3.13      856.364      55.0772     1216.289        27     1.381     0.827 -45.27   0
       139    254.3989    832.0114 307.8012534  +6.3377541     728.8072     1118.566     936.9473     77.95322     155.9687     312.2795      1.433     4.70     859.0225      55.0772     132.8867         8     1.395     0.448 -49.95   0
       140    550.1722    830.7197 307.6784947  +6.3482066     1343.408     2098.139     2403.166     78.20187     156.0931     312.4659      1.690     3.68      856.351      55.0772     253.8595        11     1.257     0.606 -48.58   0
       141    461.0830    830.3406 307.7154970  +6.3453784     1771.525     2348.241     1649.977     78.44974     156.3417      312.497      1.315     3.37     857.5502      55.0772     302.8762        14     1.255     0.641 -42.84   0
       142    879.0782    829.6257 307.5419670  +6.3596548     1558.405     2056.245     1872.258     78.07764     156.2174     312.4348      1.442     3.39     853.5834      55.0772     243.5129        14     1.030     0.892 -33.26   0
       143    102.5972    829.4172 307.8643656  +6.3337230     1659.413     2084.454     1942.098     77.95322     155.8441     312.2795      1.359     3.33     856.1658      55.0772     274.6276        15     1.193     0.724 -48.84   0
       144    678.6922    828.7853 307.6251978  +6.3533064     728.5167     1014.988      1202.56     78.07764     156.0931     312.2795      1.392     3.39     855.9827      55.0772     160.9458         5     0.947     0.351 -47.48   0
       145    513.9083    825.3661 307.6937317  +6.3492024      22300.9     30786.64     31993.11     78.44974     156.1553      312.497      1.437     3.14     856.5629      55.0772     3670.013        45     1.452     0.939 -45.22   0
       146    354.9429    827.3510 307.7596664  +6.3430533     598.5021     836.6721     1030.391      78.3259     156.2796     312.5902      1.471     4.05     858.8759      55.0772     107.9543         5     0.792     0.592 -82.26   0
       147    927.5396    823.7413 307.5220425  +6.3637015     4272.212     6196.977     6316.524      78.3259     156.2174      312.497      1.545     3.20      852.121      55.0772     682.4365        31     1.479     0.982 -40.80   0
       148     47.6261    821.3484 307.8874610  +6.3352048     656.3384     839.4752     893.7996     77.95322     156.4037     312.3727      1.539     4.19     856.0422      55.0772      99.9585         5     1.053     0.476 -84.61   0
       149    399.6112    821.1026 307.7413313  +6.3471315     547.9958      599.993     440.6757     78.07764     155.9687     312.2795      1.074     4.40      858.123      55.0772     108.2216         6     0.856     0.644 -61.69   0
       150     24.3407    815.8699 307.8973139  +6.3366829     1694.558     2423.104     2220.611     78.44974     156.2796     312.4659      1.500     3.35     855.9991      55.0772     296.5695        15     1.238     0.753 -48.10   0
       151    568.5872    815.2742 307.6713689  +6.3552003     591.5503     867.0638      1143.98     77.82859     155.9687     312.2795      1.741     4.44     855.9263      55.0772     81.52405         5     1.176     0.476 -83.28   0
       152    306.5852    814.1428 307.7801899  +6.3468836      3578.01     5028.514     5271.674     77.70377     156.2174      312.124      1.430     3.28     858.9037      55.0772     566.9144        19     1.256     0.817 -46.65   0
       153    772.0937    809.9517 307.5870496  +6.3642048     61975.34     85805.39     89066.71     78.20187     156.1553     312.5902      1.426     3.11     854.7108      55.0772     11145.19        68     1.492     1.028 -42.58   0
       154      6.5186    812.1369 307.9048395  +6.3376241      2320.57     3386.302     3384.099     78.44974     156.3417     301.1066      1.443     3.37     855.9646      55.0772     361.9934        18     1.316     0.830 -42.21  16
       155    710.5417    811.8152 307.6125443  +6.3613780     779.9675     1197.985     1795.345     77.70377     156.2174     312.2173      1.675     4.39     855.4557      55.0772     128.0327        11     1.062     0.845 -25.65   0
       156    228.9669    786.2745 307.8133577  +6.3557829     747400.5      1581584      1740215     78.20187     156.2796     312.4659      2.186     9.27     857.8202      55.0772      63322.1       628     2.779     2.144 -72.93   4
       157    897.3528    805.1699 307.5352000  +6.3703621     9308.126     13108.81     13286.18     77.95322     156.3417     312.3727      1.472     3.18      852.604      55.0772     1485.559        31     1.359     0.957 -43.83   0
       158    700.3438    804.5367 307.6170235  +6.3640422     24404.69     33401.73     35772.25     78.44974     156.2174     312.4659      1.461     3.17     855.3488      55.0772     4215.994        48     1.478     0.981 -40.95   3
       159    694.0233    801.0265 307.6197659  +6.3652801     99197.63       136730       142436     77.82859     156.1553     312.3727      1.448     3.09     855.2692      55.0772     18332.58        78     1.506     1.035 -44.36   2
       160    338.9128    801.8892 307.7671813  +6.3530278     23175.66     32374.37     33926.01     78.07764     156.7138     312.5902      1.439     3.13     858.6647      55.0772      3873.44        44     1.434     0.957 -45.29   0
       161    415.3640    808.4955 307.7352160  +6.3528649     1085.927     1507.859     1594.661     78.44974     156.1553     312.5902      1.448     4.23     857.4919      55.0772     174.8101        11     1.301     0.608 -44.92   0
       162    400.8264    799.6971 307.7415488  +6.3560100     25096.24     34540.18     35856.44     78.44974     156.0309     312.4038      1.430     3.14     857.5424      55.0772     4049.669        44     1.424     0.964 -44.09   0
       163    388.0789    802.0618 307.7467618  +6.3546061     1752.447      2310.05     2144.517     78.44974     156.3417     312.4659      1.382     3.28     857.8822      55.0772     302.5349        12     1.072     0.692 -49.72   0
       164    627.6147    801.4489 307.6473255  +6.3628843     899.8537      1018.94     1288.272     77.70377     156.2174     312.1862      1.349     3.62       855.62      55.0772     150.5607         7     0.987     0.513 -42.36   0
       165    937.9429    798.7492 307.5185614  +6.3743674     2380.717     3538.502     3425.236      78.3259     156.2796     312.4659      1.582     3.47     850.8969      55.0772     352.7095        22     1.247     0.995 -47.95   0
       166    894.2466    796.6020 307.5367774  +6.3737959     7466.375     10388.53     10533.81     77.70377     155.9687     312.0929      1.472     3.25     852.5058      55.0772     1202.186        30     1.360     0.935 -44.26   0
       167    867.1731    797.7958 307.5479790  +6.3723994      806.882     1157.309     787.9955     77.82859     156.0931     312.3105      1.262     4.51     853.6517      55.0772     117.3986         8     1.203     0.481 -46.05   0
       168    634.8141    795.6765 307.6445305  +6.3655085     7049.216     9840.055     10440.05     77.95322     156.0309     312.2795      1.429     3.29     855.3661      55.0772     1121.067        27     1.371     0.843 -49.38   0
       169    374.7487    795.4746 307.7525188  +6.3568786      588.765     878.0143     782.3689      78.3259     156.3417      312.497      1.491     4.38     857.8776      55.0772     95.63068         7     1.092     0.501 -48.09   0
       170    423.5210    793.6923 307.7323285  +6.3592502     1882.015     2619.225     2972.839     78.07764     156.5278      312.528      1.377     3.26     856.8638      55.0772     312.6728        12     1.127     0.610 -46.63   0
       171    148.7943    793.1318 307.8464129  +6.3502574     1031.085     1420.088     1056.877     77.82859     155.9064     312.2795      1.379     4.91     856.1797      55.0772     147.2383         9     0.978     0.698 -19.53   0
       172   1017.7049    788.1016 307.4857989  +6.3814234       781.58     1158.957     1224.889      78.3259     156.8376     306.9812      1.563     6.03       848.75      55.0772     128.6862         9     1.171     0.873 -75.86  16
       173    862.8989    787.4410 307.5501014  +6.3765320     1041.871     1257.872     752.1339      78.3259     156.1553     312.6833      1.391     5.04     853.2761      55.0772     138.7318        10     1.033     0.733 -37.43   0
       174    587.9024    787.6016 307.6642809  +6.3672723     1127.341     1469.537     1707.529     77.82859     156.0309     312.1551      1.343     3.16     855.1326      55.0772      206.043        11     1.086     0.627 -49.65   0
       175    669.7620    785.7754 307.6303527  +6.3707656      2758.39       3740.9     3981.513     77.95322     156.0931     312.2795      1.383     3.07     854.6987      55.0772     495.2149        18     1.314     0.771 -41.17   0
       176    138.8827    786.4867 307.8507528  +6.3526676     1064.693     1536.833     1033.941     78.07764     156.4658      312.528      1.477     4.15     855.9127      55.0772      179.746        13     1.250     0.701 -46.41   0
       177    114.3050    786.2675 307.8609645  +6.3519316     1212.538     1766.394     1375.769     78.20187     156.4037     312.4659      1.511     4.03     855.6621      55.0772      195.613        13     1.359     0.703 -41.40   0
       178    403.7447    782.3892 307.7409210  +6.3632538     60177.84     84105.52     87704.27     77.70377     156.2174     312.1551      1.455     3.24     856.8515      55.0772     9570.599        73     1.528     1.052 -42.36   0
       179    946.5121    783.9390 307.5155002  +6.3807682      891.983      1254.95     1493.861      78.3259     156.4658      312.497      1.533     3.18     850.3284      55.0772     138.6975         8     0.851     0.668 -44.97   0
       180    521.4793    781.4271 307.6920687  +6.3675972     8047.133     10989.19     11373.39     78.20187     156.2174     312.4659      1.433     3.19     854.9053      55.0772     1265.323        30     1.367     0.883 -41.36   0
       181    438.2276    780.0316 307.7266829  +6.3653835     4976.951     6809.467     7428.361     77.82859     156.0309     312.2795      1.418     3.22     856.1582      55.0772     903.5651        26     1.361     0.883 -56.66   0
       182    766.6915    778.0715 307.5903643  +6.3771870     12922.81     17840.41     18184.45     78.20187     156.4658     312.4659      1.419     3.05     853.7966      55.0772     2153.486        36     1.427     0.889 -41.81   0
       183    444.8080    778.3200 307.7240084  +6.3663107     458.9109     629.0591     796.1118     77.95322     155.9064     312.3105      1.332     3.58     855.9596      55.0772     97.73895         5     0.952     0.387  85.33   0
       184    661.4261    776.9827 307.6341098  +6.3741170     565.4847      621.033     633.2579     77.95322     156.0309     312.3727      1.250     4.30     854.4109      55.0772     111.3097         6     1.049     0.501 -33.88   0
       185    434.6602    773.3052 307.7283910  +6.3680409     2546.058      3329.08      3221.02     78.20187     156.2796     312.5591      1.349     3.16     856.0171      55.0772     432.2123        16     1.135     0.800 -43.96   0
       186    788.1329    772.3617 307.5816531  +6.3802609     1328.924     1837.689     1794.057     78.20187     156.2174     312.5591      1.421     3.68     853.2267      55.0772     220.5175        14     1.224     0.751 -50.90   0
       187    132.6839    770.2823 307.8538745  +6.3591493     3426.027     5102.509     5301.434     78.07764     156.5278      312.528      1.547     3.36     855.4647      55.0772     507.0361        23     1.446     0.847 -49.90   0
       188    124.3863    769.9564 307.8573306  +6.3590049     12622.34     18077.33     19776.48     77.70377     156.0931     312.2173      1.483     3.30     855.3706      55.0772     2068.523        39     1.433     1.021 -45.19   0
       189    116.6461    767.4030 307.8606307  +6.3597988     3164.224     4590.712     5487.553     77.70377     155.9687      312.124      1.516     3.46     855.2234      55.0772     487.6119        19     1.356     0.773 -47.83   2
       190    116.6659    761.0249 307.8608382  +6.3624327     2022.227     2856.874     3213.143     77.95322     156.2796     312.3416      1.473     3.43     855.0754      55.0772     324.7498        17     1.291     0.748 -39.64   2
       191    961.5125    766.4644 307.5098577  +6.3884835     1735.482     2483.388     3000.465      78.3259     156.4658      312.497      1.830     4.11     849.6284      55.0772     239.1243        18     1.369     0.851 -40.69   0
       192    912.2483    766.6595 307.5303076  +6.3867594     7302.258     10116.32     10616.15      78.3259     156.2796      312.528      1.473     3.06     850.8629      55.0772     1226.376        28     1.369     0.877 -40.13   0
       193    667.6552    764.2883 307.6319505  +6.3795666     1923.246     2560.095     2996.448      78.3259     156.1553     312.6212      1.310     3.13     853.8428      55.0772      347.824        12     1.017     0.772 -59.81   0
       194    554.5670    763.4043 307.6789373  +6.3761466     2749.551     3804.612      3924.58     77.57874     156.1553     312.2484      1.463     3.37     854.0953      55.0772      472.243        17     1.186     0.771 -49.75   0
       195    402.7099    762.7803 307.7420121  +6.3713150     1459.899     1939.822     1692.753     78.20187     156.0309     312.3105      1.393     3.73     856.1995      55.0772     230.2142        13     1.222     0.736 -44.21   0
       196    906.4230    758.7597 307.5329917  +6.3898268     3493.208      5016.51     5262.917     77.95322     156.0931     312.2484      1.484     3.07     850.8076      55.0772     627.2228        24     1.353     0.900 -41.40   0
       197    966.7712    758.1197 307.5079541  +6.3921043     2104.091     2909.957     2920.835     78.20187     156.1553     312.4038      1.497     3.50     849.3787      55.0772     334.6866        18     1.314     0.890 -53.65   0
       198    935.8951    758.1575 307.5207739  +6.3910588     3410.159     4884.867     5121.073      78.3259     156.2174     312.5902      1.472     3.34     849.9398      55.0772     517.8063        21     1.353     0.820 -43.25   0
       199    658.6629    757.7388 307.6359047  +6.3819700     1671.842     2124.451     2519.006      78.3259     156.2796      312.497      1.299     3.52     853.6723      55.0772     258.7079        13     1.121     0.707 -44.64   0
       200    805.9278    756.2841 307.5748043  +6.3874936     1180.652     1324.483      1018.75     78.44974     156.5898      312.497      1.312     3.78     852.4347      55.0772     184.7742        11     0.989     0.727 -44.69   0
       201    231.3395    752.9172 307.8134998  +6.3696347     2058.616     2963.172     4099.825     78.44974     156.2796      312.497      1.537     3.59     856.1619      55.0772      376.861        18     1.494     0.677 -48.96   0
       202    881.4424    754.0524 307.5435226  +6.3909366     915.4787     1170.862     1350.218      78.3259     156.3417      312.497      1.369     3.50     851.3939      55.0772     138.9642        10     0.997     0.645 -31.62   0
       203    749.5340    752.8248 307.5983373  +6.3870375     509.3367     697.4568     768.3905     77.95322     156.2796     312.3727      1.205     3.82     853.0818      55.0772     113.1688         5     0.889     0.533 -38.98   0
       204    668.3180    750.0024 307.6321559  +6.3854871     716.1391     928.5024     1342.073     77.70377     155.9064     312.1862      1.714     4.10     853.2884      55.0772     111.2117         7     1.181     0.407 -33.58   0
       205    924.0987    748.5568 307.5259944  +6.3946292     1080.977     1631.364     1688.933      78.3259     156.1553     312.6833      1.623     4.65     849.9766      55.0772     165.0752        10     1.187     0.600 -48.62   0
       206    251.3507    748.3475 307.8053454  +6.3721936     908.6042     1303.323     1474.695     78.44974     156.1553     312.4348      1.533     3.83     855.9214      55.0772     151.5406        11     1.182     0.651 -39.61   0
       207    146.9312    747.7654 307.8487207  +6.3689248      943.158     1383.949     1298.292     78.20187     156.3417     312.5591      1.506     3.76     855.0859      55.0772     180.8015         9     1.058     0.703 -49.75   0
       208    950.7783    745.9420 307.5150036  +6.3965989     2729.474     3903.841     3985.817     77.95322     156.2174     312.2795      1.452     3.21     849.4057      55.0772     444.7206        19     1.321     0.791 -46.53   0
       209    898.1946    746.9371 307.5368053  +6.3944335     1209.651     1789.381     2006.617     77.70377     156.0931     312.2484      1.569     4.13     850.6503      55.0772     201.5029        10     1.093     0.631 -45.68   0
       210    670.2925    744.9295 307.6315068  +6.3876477     981.9003      1545.75     1777.506      78.3259     156.4037      312.497      1.578     4.82     853.0756      55.0772     157.8366         8     1.173     0.562 -45.46   0
       211   1023.5928    740.4834 307.4849506  +6.4012806     4430.199     5178.082     5018.402     68.96757     125.2471     236.4192      1.040     2.71     848.1896      55.0772     1089.096        14     1.117     0.595 -82.06  24
       212    992.4086    739.6120 307.4979291  +6.4006007     1810.675       2646.3     2675.768     77.95322     156.0931     312.4038      1.570     4.20     848.6651      55.0772     259.8615        18     1.462     0.751 -43.31   0
       213    391.2920    740.3156 307.7475109  +6.3802070     626.4553     766.9627     711.2713     78.07764     156.7138     312.5591      1.423     3.35     855.4193      55.0772     114.1851         5     1.098     0.296 -35.36   0
       214    793.8265    737.8789 307.5804478  +6.3946885     1329.393     1807.354     1415.075     78.20187     156.2174     312.4348      1.404     4.14     851.9518      55.0772     193.5708        13     1.283     0.641 -40.44   0
       215    619.1135    738.5538 307.6529726  +6.3885677     755.0215     1038.126     1194.193      78.3259     156.1553     312.4659      1.431     3.36     853.2109      55.0772     151.9506         8     0.920     0.606 -61.38   0
       216    880.4149    735.0490 307.5445874  +6.3987485     1574.865     2562.943     2541.726     77.70377     156.2174     312.1862      1.669     3.69     850.7027      55.0772     265.7405        16     1.380     0.714 -43.20   0
       217    854.7189    730.2661 307.5554182  +6.3998654     1051.863      1588.96     1526.942     78.57338     156.4658      312.497      1.486     4.04     851.0327      55.0772     168.6182         8     1.060     0.508 -54.90   0
       218    837.1273    726.6354 307.5628451  +6.4007770     1669.437     2465.722     2132.301     78.20187     156.2796     312.4348      1.503     3.34     851.1633      55.0772     282.0542        16     1.231     0.803 -49.04   0
       219    100.3952    725.7999 307.8687856  +6.3764284     754.1782     1136.129     1628.609     77.70377     155.8441     312.2173      1.453     3.99     853.9101      55.0772     112.1936         6     0.891     0.512 -50.53   3
       220     99.7625    722.5933 307.8691568  +6.3777310     940.0571      1591.36     1572.224     77.57874     156.0309     312.2173      1.671     3.43     853.8063      55.0772     159.5998         9     0.941     0.679 -51.80   2
       221     36.1245    725.2941 307.8954881  +6.3744745     2746.075     3849.906     4590.472     78.20187     156.4658     312.4659      1.478     3.06     854.0732      55.0772     493.3513        18     1.278     0.769 -46.73   0
       222    553.7076    720.6597 307.6807340  +6.3937660     654.1505     915.1107     911.0757     78.20187     156.2174     312.5591      1.711     3.38     852.8828      55.0772      137.188         5     1.119     0.296 -35.96   0
       223    648.8026    713.9562 307.6414725  +6.3997169     6963.949     9773.929     10210.22     77.70377     155.8441      312.124      1.431     3.16     852.5905      55.0772     1278.672        26     1.337     0.845 -45.98   0
       224     27.8574    715.2932 307.8992593  +6.3783251     1191.794     1203.262     1415.875     78.20187     156.2796     312.6212      0.651     0.96     853.9753      55.0772     617.2037         5     0.490     0.435 -36.42   0
       225    595.5403    713.3027 307.6636113  +6.3982042     1494.593     2147.459     1925.562     78.07764     156.2796     312.5902      1.575     2.77     852.9152      55.0772     254.2878        12     1.008     0.717 -49.33   0
       226    517.2001    713.7409 307.6961264  +6.3953998     752.3109     764.5391     652.8899     77.57874     155.9064      312.124      1.207     2.38     853.1733      55.0772     158.1958         6     0.757     0.501 -46.54   0
       227    506.5889    713.3289 307.7005464  +6.3952144     866.5436      1180.94     982.4095     77.82859     155.9064     312.2795      1.586     3.38     853.3208      55.0772     154.6976         7     1.034     0.425 -31.53   0
       228    111.7806    709.8206 307.8645990  +6.3834086     4149.248      6002.37     6628.087     78.07764     156.2174     312.4038      1.472     3.27     853.4648      55.0772      635.303        27     1.403     0.920 -43.83   0
       229    985.8361    709.2888 307.5016754  +6.4129016     2852.796     4057.138     4118.775      78.3259     156.2174     312.4659      1.502     3.42      847.988      55.0772     421.2091        20     1.305     0.826 -47.92   0
       230    622.8505    709.5940 307.6523958  +6.4006496     2505.246     3646.307     3850.709     77.82859     156.0931     312.0929      1.514     3.40     852.8021      55.0772     398.3671        17     1.293     0.846 -41.10   0
       231    298.4147    709.5443 307.7871144  +6.3897947     770.0674     1113.848     1459.332     77.70377     156.1553     312.1862      1.600     4.93     854.4036      55.0772     118.1996         7     0.902     0.784  62.70   0
       232    234.2810    709.3083 307.8137522  +6.3877381     857.6557     1270.236     2073.859     78.07764     156.5278      312.528      1.821     5.48     854.2082      55.0772     150.8478        10     1.412     0.600 -46.99   0
       233    765.7147    706.0450 307.5931911  +6.4068927     22595.26      30856.5     31946.08      78.3259     156.2174     312.4659      1.429     3.15     851.6061      55.0772     3755.018        41     1.392     0.939 -41.33   0
       234    895.7419    705.8085 307.5392046  +6.4113329     4098.188     5760.195     6179.906     77.70377     156.2174     312.1862      1.478     3.31     849.3454      55.0772     644.0999        20     1.293     0.787 -45.46   0
       235    464.9258    706.2803 307.7180841  +6.3967283     1425.672     1954.073     1508.206     78.57338     156.5278      312.528      1.397     4.58     853.7834      55.0772      258.106        12     1.380     0.556 -37.09   0
       236    492.9928    706.0603 307.7064370  +6.3977598     985.6615     1307.313     1512.354     77.70377     156.0931     312.2484      1.346     2.69     853.4148      55.0772     181.1761         7     0.849     0.527 -40.21   0
       237    310.8516    705.9568 307.7820715  +6.3916934     685.5882      959.665     877.7701      78.3259     156.2174      312.497      1.467     3.70     854.2764      55.0772     123.4006         6     0.905     0.684 -42.58   0
       238    267.0891    705.8241 307.8002473  +6.3902787      855.381     996.3239     847.9427      78.3259     156.0931     312.3416      1.278     3.53     854.1859      55.0772     153.4534        10     0.982     0.703 -62.58   0
       239    646.2676    698.8171 307.6430347  +6.4058827     7938.092     11101.19     12049.54     77.82859     156.2174     312.3727      1.451     3.33     852.4152      55.0772     1453.496        30     1.399     0.871 -46.00   0
       240    628.4747    700.2585 307.6503746  +6.4046922     855.9695     1553.559     1846.395      78.3259     156.2796     312.4348      1.907     3.08     852.6342      55.0772     175.4289         7     1.081     0.532 -35.41   0
       241    239.1794    699.6235 307.8120455  +6.3919013      6849.98     9555.366     9506.226     78.07764     156.0931     312.4038      1.428     3.17     853.8577      55.0772     1172.916        26     1.386     0.822 -44.79   0
       242    341.7046    698.6865 307.7695059  +6.3957307     666.7187     764.1549     1060.563      78.3259     156.6518      312.528      1.401     4.29     854.0734      55.0772     115.7798         6     1.119     0.504 -49.22   0
       243    905.7974    691.4653 307.5355105  +6.4175906     1330.759     1925.735     1988.229     77.70377     156.0309     312.2484      1.496     4.05     848.6176      55.0772     205.4308        15     1.385     0.727 -38.60   0
       244    717.9669    687.2306 307.6136512  +6.4130647     4000.207     5720.254     5895.001     77.82859     156.0309     312.1862      1.488     3.23      851.687      55.0772     622.9847        26     1.329     0.972 -55.62   0
       245    673.2640    687.7433 307.6321970  +6.4113580     997.9715      1542.83     2072.823     78.44974     156.2174      312.497      1.548     3.28     851.9211      55.0772     214.4834         9     1.102     0.532 -45.02   0
       246    984.2676    683.9452 307.5031769  +6.4233133      9881.42     14050.46     14681.45      78.3259     156.2174     312.4038      1.476     3.16     847.3635      55.0772     1667.492        34     1.427     0.924 -47.44   0
       247    724.7059    684.8521 307.6109328  +6.4142721     495.6009     1006.492     1424.452     78.20187     156.1553     312.7144      1.921     4.50     851.6145      55.0772     92.10657         5     1.394     0.413 -30.24   1
       248      3.4381    683.6564 307.9104698  +6.3905645     2065.684     3104.737     3014.021      78.3259     150.1336     266.7466      1.620     3.83     853.9928      55.0772     311.7915        19     1.366     0.932 -34.70  24
       249    922.7019    684.3406 307.5287298  +6.4210964     2900.246     3794.923      3645.15     78.07764     156.2174     312.5902      1.384     3.23      847.995      55.0772     442.1027        16     1.209     0.751 -46.00   0
       250    419.8629    682.0514 307.7376131  +6.4052209     613.9232     895.7696     529.0452      78.3259     156.2174     312.4348      1.456     3.79     853.4909      55.0772     111.1937         7     0.998     0.594  89.75   0
       251     61.6187    678.6277 307.8864826  +6.3945992     28348.69     40234.23     42128.18     77.95322     156.0931     312.3727      1.529     3.23     852.8994      55.0772     4335.926        54     1.491     1.048 -45.91   0
       252    522.9830    679.6546 307.6948738  +6.4096668     2277.481      3278.02     3887.507     77.82859     156.2174     312.2173      1.511     3.32     852.3537      55.0772     355.7893        16     1.234     0.773 -38.73   0
       253    912.4666    676.2637 307.5332513  +6.4240896     1266.397     1655.978     1599.054      78.3259     156.2796      312.497      1.462     3.36     847.9937      55.0772      214.622        12     1.021     0.794 -47.01   0
       254    491.6088    676.7234 307.7080007  +6.4098258     1636.334     2088.485     2117.166     77.95322     155.7818     312.2795      1.332     3.17     852.8454      55.0772     268.8413        13     1.072     0.731 -42.31   0
       255    531.9811    673.2142 307.6913544  +6.4126274     1006.354     1367.337     1154.256     77.95322     155.9687     312.3416      1.430     3.38     852.0435      55.0772     168.2273        11     1.159     0.619 -65.86   0
       256    707.5904    670.9400 307.6185081  +6.4194438     3853.781     5218.736     5275.483     77.70377     156.1553     312.1862      1.385     3.09       851.42      55.0772     633.2162        21     1.248     0.802 -43.79   0
       257    729.6225    669.1851 307.6094180  +6.4209050     4684.192     6089.957     6327.423     78.07764     156.0931     312.3727      1.302     3.03     851.2485      55.0772      781.089        21     1.250     0.766 -43.07   0
       258    561.1385    667.0943 307.6794529  +6.4161307     3653.001     4821.617     4903.441     78.20187     156.3417      312.497      1.365     2.99     851.8272      55.0772     673.2422        19     1.191     0.789 -49.58   0
       259    397.1109    667.5148 307.7475511  +6.4104595     1396.928     1739.754     1383.575     78.07764     156.5278     312.5902      1.341     3.41     853.0111      55.0772     294.2201        11     1.150     0.564 -49.53   0
       260   1002.4352    665.4199 307.4962538  +6.4315678      5630.66     7791.128     8087.107     77.82859     156.0931     312.2484      1.437     3.10     846.6675      55.0772     887.2018        29     1.412     0.918 -41.61   0
       261    305.3684    665.8589 307.7857024  +6.4080644     1597.191     2235.614     1950.481     78.07764     156.3417     312.4348      1.520     3.21     852.8362      55.0772     283.6904        14     1.089     0.780 -54.52   0
       262    221.3699    666.6642 307.8205544  +6.4049106     1955.273     2876.869     2730.647     78.07764     156.3417     312.4038      1.588     3.35      852.493      55.0772     301.7926        16     1.212     0.830 -38.21   0
       263    967.9470    664.3002 307.5106135  +6.4308801     8870.278      12694.1     13184.68      78.3259     156.2796     312.6833      1.488     3.14     846.9849      55.0772      1400.84        33     1.391     0.966 -40.14   0
       264    521.8727    664.9135 307.6958316  +6.4157159     724.7011      1094.52     1182.568     78.44974     156.5278     312.4659      1.449     3.90     851.9779      55.0772     117.3107         6     0.945     0.462 -54.00   0
       265    687.7542    662.9272 307.6270149  +6.4220887     1093.153     1419.062     767.9935     78.20187     156.3417     312.4659      1.341     3.22     851.2862      55.0772     190.0661        11     1.036     0.691 -54.85   0
       266   1017.2968    662.8477 307.4901684  +6.4331254     787.1392     977.9299     674.4001      78.3259     156.1553     309.6573      1.518     5.12     846.4409      55.0772     120.9288        10     1.165     0.636 -47.38  16
       267     78.8955    661.0557 307.8799037  +6.4024353     996.0159     1526.956     2237.302     78.20187     156.2796     312.6833      1.546     3.67      852.324      55.0772     148.8919         9     0.967     0.655 -51.45   0
       268    413.2617    658.2350 307.7411576  +6.4148326     3087.822     4633.579      4953.92      78.3259     156.2796     312.4349      1.562     3.54     852.6192      55.0772     533.1014        24     1.613     0.849 -59.46   0
       269    126.3399    657.5488 307.8603221  +6.4054793     26839.87     37572.26     39050.67      78.3259     156.2174     312.4659      1.498     3.25     852.1376      55.0772     4272.819        53     1.474     1.055 -46.53   0
       270    794.5442    658.4069 307.5828206  +6.4275249     1419.403     1850.971     1376.926     77.82859     156.1553     312.2173      1.415     3.55      850.113      55.0772     199.7711        12     1.150     0.670 -38.58   0
       271    631.0168    658.4811 307.6507254  +6.4220262     539.9006     746.9025     652.4631     77.95322     155.9687     312.3105      1.529     3.44     851.6622      55.0772     102.8906         5     0.762     0.607  87.63   0
       272    345.9424    652.1727 307.7693164  +6.4150770     799.2054     1250.169     1492.223     77.95322     156.3417     312.3727      1.583     4.73     852.2442      55.0772     135.1724         9     1.506     0.421 -53.87   0
       273    587.5862    652.3122 307.6689682  +6.4231194      504.215     493.2474     422.7851     77.95322     156.0931     312.3416      1.049     4.12     851.5214      55.0772     97.34082         6     1.096     0.443 -36.81   0
       274    962.9246    647.2432 307.5132715  +6.4377551     7528.461     11543.05     12502.59     78.20187     156.3417      312.497      1.607     3.00     846.6466      55.0772     1179.762        42     1.430     1.315 -20.53   0
       275   1018.1733    642.3890 307.4904905  +6.4416016     101194.1     142815.9     148259.8     77.95322     156.0931     303.5788      1.497     3.18     845.6279      55.0772     15179.41        86     1.531     1.102 -43.93  24
       276      7.2368    646.4789 307.9101517  +6.4060413     1385.952     2012.805     1576.796     78.20187     156.3417     306.6964      1.415     3.06     853.1092      55.0772     206.8973        13     1.098     0.780 -22.88  16
       277    556.3728    642.4548 307.6822619  +6.4261441     53523.99     73856.05     76561.75     77.95322     156.3417     312.3105      1.449     3.18     851.0768      55.0772     8711.005        61     1.473     1.010 -47.22   0
       278    920.6573    644.2039 307.5309262  +6.4375999     726.2262      988.145     923.2968     77.70377     156.1553     312.1551      1.454     2.56     847.2665      55.0772     140.1253         7     0.779     0.623  68.30   0
       279    199.7419    643.5158 307.8303177  +6.4137409     668.4943     1079.397     1271.388      78.3259     156.2796      312.528      1.806     5.00     851.9534      55.0772     121.3279         8     1.267     0.559 -46.76   0
       280    515.5682    642.5609 307.6992029  +6.4247334     900.0119     1210.011     1307.414     77.95322     156.0931     312.3105      1.331     3.88     851.3593      55.0772     164.7001         9     1.153     0.581 -50.89   0
       281    781.2903    642.1848 307.5888699  +6.4337798     583.8669     785.8745      348.705     78.07764     156.0931     312.3105      1.332     4.14     849.8742      55.0772     112.6408         5     0.753     0.704 -70.39   0
       282    163.9483    639.1561 307.8453280  +6.4143376     2950.421     4013.394     3869.121      78.3259     156.2174      312.497      1.385     3.25     852.0808      55.0772     498.3435        22     1.297     0.900 -46.42   0
       283    486.5581    639.5981 307.7113495  +6.4249846     758.3221     1320.188     1025.475     77.70377     155.9687     312.1862      1.593     4.25     851.5153      55.0772      124.785         9     1.154     0.639 -39.81   0
       284    967.5792    638.9350 307.5116173  +6.4413407     650.9892     973.0624     876.5906     77.95322     156.2796     312.3416      1.633     3.70     846.3768      55.0772     108.8428         6     0.822     0.639  56.09   0
       285     56.3722    633.3714 307.8901932  +6.4131071     1639.513     2279.943     2755.124     77.82859     156.0931     312.2484      1.497     4.27     852.3086      55.0772     238.1697        15     1.360     0.702 -50.88   0
       286    453.6581    626.2375 307.7254621  +6.4293980     68652.45     95643.88     99341.98      78.3259     156.3417     312.4659      1.471     3.16     851.1369      55.0772     10875.74        70     1.503     1.045 -44.47   0
       287    638.9942    623.6887 307.6485839  +6.4366581      1082.48     1440.408     1244.486     77.82859     155.9687     312.2173      1.436     4.87     850.2433      55.0772     151.3142        11     1.249     0.789 -22.20   0
       288    128.1484    621.2061 307.8608008  +6.4205446     1870.152      2614.58     1940.486     77.82859     156.0931      312.124      1.459     3.41     851.9145      55.0772     334.3134        15     1.279     0.770 -54.87   0
       289    922.9100    619.0465 307.5308352  +6.4480621     695.0245     1027.961      1040.34      78.3259     156.1553     312.5902      1.479     2.40       846.87      55.0772     140.5105         6     0.743     0.649 -85.12   0
       290    407.4258    618.8433 307.7449101  +6.4309005     919.8521     1277.809     854.3052     77.95322     156.2796     312.3727      1.297     4.40       851.02      55.0772     142.8498        10     1.166     0.589 -42.43   0
       291    599.5927    617.9511 307.6651395  +6.4377083     1115.268      1538.99     1500.088     77.82859     156.0931     312.0929      1.422     3.10     850.1263      55.0772     163.6149        10     0.909     0.760 -28.45   0
       292    481.5370    617.3905 307.7141833  +6.4339852     565.6321     692.4778     880.3557     77.82859     156.0931     312.2484      1.813     4.15      850.593      55.0772     99.25519         6     1.228     0.400 -44.77   0
       293    299.0127    615.6331 307.7900379  +6.4285876     2300.057      3368.22     3668.962     77.82859     156.0309     312.3416      1.573     3.36     850.8848      55.0772     400.2685        21     1.449     0.821 -54.28   0
       294      7.0959    615.3574 307.9112644  +6.4188853     647.1076     1015.983     969.6983      78.3259     156.2174     305.7455      1.518     4.68     852.2493      55.0772     85.42487         8     1.119     0.556 -55.50  16
       295    451.2056    614.1687 307.7268876  +6.4342986      765.435     818.6338      1014.63     77.70377     156.1553     312.2484      1.234     3.99     850.6624      55.0772     134.4238         6     1.176     0.388 -60.88   0
       296    725.7473    609.7498 307.6130263  +6.4453150     6157.168     8240.405     7981.448     78.44974     156.1553      312.497      1.398     3.13      849.683      55.0772     996.9039        24     1.312     0.814 -41.84   0
       297    996.5238    605.8444 307.5007071  +6.4559685     1311.573      1729.77      1595.52     78.20187     156.3417      312.497      1.443     3.28     844.8018      55.0772     232.1688        13     1.100     0.810 -36.12   0
       298    779.2366    605.0836 307.5909700  +6.4490295     15692.63     21519.27     22026.21      78.3259     156.2174     312.4038      1.424     3.15     848.8739      55.0772     2883.505        35     1.403     0.885 -45.64   0
       299    521.4393    605.0026 307.6980307  +6.4404370     1448.903     2191.867     2375.177     77.45351     156.0309     312.1862      1.579     3.72     850.1359      55.0772     235.5433        14     1.213     0.778 -38.10   0
       300   1018.8591    604.0630 307.4914911  +6.4574487     2179.886     2911.077     2856.335     78.44974     156.2174     297.7349      1.393     3.00     844.1703      55.0772     348.5821        16     1.119     0.803 -48.31  16
       301    603.1274    602.9978 307.6641752  +6.4440004      3129.75     4221.468     3969.528     77.82859     155.8441     312.3105      1.395     3.38     849.5616      55.0772     584.0153        20     1.275     0.818 -51.55   0
       302     23.8978    604.3806 307.9046594  +6.4239829     677.8294     1021.965     1116.829     78.20187     156.1553     312.2173      1.394     4.03     852.0341      55.0772     115.6267         7     1.161     0.400 -14.59   0
       303    920.3135    599.4089 307.5325727  +6.4560835     1245.004     1684.632      2704.94     77.95322     155.9687     312.3105      1.416     3.43     846.4424      55.0772     205.3242        10     1.146     0.545 -52.70   0
       304    361.5356    596.6342 307.7647162  +6.4385304     1064.754     1466.286     1739.702     78.20187     156.2796     312.4659      1.585     4.09     849.8425      55.0772     173.5018        11     1.202     0.631 -49.69   0
       305    215.6177    596.5155 307.8253142  +6.4336792     1380.237     1933.672     1933.693     77.95322     156.0309     312.4038      1.537     3.91     850.5339      55.0772     222.4154        13     1.237     0.716 -37.52   0
       306    179.0990    597.0635 307.8404603  +6.4322255     762.2823      1182.01     1768.177     78.20187     156.3417      312.497      1.741     3.84     851.2704      55.0772     117.3292         6     0.974     0.434 -39.09   0
       307    855.2629    588.3132 307.5599606  +6.4584933     3151.218      4201.28     4299.832     78.44974     156.4658      312.497      1.380     3.04     847.2313      55.0772     493.4492        17     1.288     0.719 -48.08   0
       308    150.0901    588.6420 307.8527912  +6.4347270      791.004     1151.749     1241.718      78.3259     156.2796      312.497      1.302     3.34     851.5453      55.0772     136.5256         7     0.858     0.560 -29.43   0
       309    814.0208    585.7042 307.5771758  +6.4581931     2878.695     3809.721     3819.256     78.20187     156.0931     312.2795      1.389     3.16     847.7595      55.0772     537.3093        18     1.233     0.756 -39.71   0
       310    784.9938    581.7271 307.5893643  +6.4588654       2709.5     3895.532     5221.749     77.95322     155.8441     312.3727      1.573     3.41     848.0267      55.0772     497.8625        20     1.420     0.767 -48.10   1
       311    794.6506    576.9478 307.5855145  +6.4611613       175501     240865.4     251235.5     78.44974     156.1553      312.497      1.443     3.18     847.7336      55.0772     27550.73       124     1.576     1.118 -45.42   0
       312    727.8151    581.3472 307.6131229  +6.4571110     661.3755     1157.201     1963.681     77.70377     156.2796     312.1862      1.864     5.40     848.6266      55.0772     112.1771         8     1.316     0.625 -34.68   0
       313    176.2520    575.1736 307.8423828  +6.4411673     62703.12     90456.38     95762.97     77.95322     156.4037     312.3727      1.523     3.18     850.8856      55.0772     9775.047        80     1.557     1.135 -43.43   0
       314    100.2730    571.4352 307.8740602  +6.4401553     6883.821     9652.549      10015.3     78.20187     156.2796     312.4348      1.503     3.15     851.5693      55.0772     1057.438        31     1.356     0.982 -41.55   0
       315    965.5048    568.8608 307.5148301  +6.4702040     1464.279     1929.959     2045.384     78.20187     156.2796      312.528      1.353     2.84     844.3234      55.0772     271.2037        13     1.110     0.701 -48.26   0
       316    242.0284    580.6062 307.8148847  +6.4411350     8594.431     12214.25     12640.01     77.82859     156.0931     312.2795      1.485     3.17     849.7377      55.0772     1380.266        32     1.375     0.969 -42.87   0
       317    986.4761    567.6379 307.5061617  +6.4714084     823.5529     1028.203     968.1027     78.20187     156.3417     312.4659      1.431     3.64     843.7792      55.0772       157.37         8     1.064     0.685 -43.95   0
       318    214.5262    567.2998 307.8267552  +6.4457046      768.243     1113.957     1620.494     77.82859     156.4037     312.4038      1.423     4.29     849.5371      55.0772      140.731         8     1.116     0.545 -53.36   0
       319    831.2096    564.2198 307.5707594  +6.4676377     4883.659      6888.23     6953.984     77.95322     155.9687     312.3105      1.433     3.15     846.9464      55.0772     800.0504        25     1.318     0.875 -45.70   0
       320    349.6474    562.2996 307.7708122  +6.4523071     18823.58     26627.66     27991.38      78.3259     156.1553     312.6833      1.504     3.13     848.4818      55.0772      2930.21        42     1.449     0.978 -43.96   0
       321    439.9919    562.3762 307.7332913  +6.4553063     896.3575     1176.378     786.3877     77.95322     156.0931     312.3105      1.348     4.59     848.9456      55.0772     184.8453         9     1.130     0.600 -43.49   0
       322    151.4642    561.2717 307.8531465  +6.4460734     2092.289     2817.918      2619.76      78.3259     156.2796      312.497      1.454     3.41     851.1564      55.0772     340.7812        18     1.248     0.813 -49.28   2
       323    156.6511    558.6737 307.8510804  +6.4473204     812.1212     1081.223     1379.011      78.3259     156.3417      312.497      1.498     4.84     851.0881      55.0772     122.3693         8     1.015     0.655 -30.76   3
       324    785.2139    557.5657 307.5900851  +6.4688484     6525.359     9194.205     9772.257     77.95322     156.0309     312.3416      1.472     3.22     847.2373      55.0772     1147.945        26     1.383     0.827 -44.58   0
       325    516.0267    557.2509 307.7018880  +6.4599710     7272.417     9930.566     10192.13     77.95322     156.4037     312.4038      1.417     3.12     848.6815      55.0772     1217.269        26     1.309     0.881 -43.26   0
       326    226.6575    558.8501 307.8220031  +6.4496008     876.2443     1258.643     1598.922      78.3259     156.2796     312.4659      1.360     3.62     848.9326      55.0772     187.7709         9     1.164     0.537 -41.08   0
       327     88.7689    558.5451 307.8792737  +6.4450900     964.1141     1314.269     1568.421     78.20187     156.3417     312.4348      1.339     3.98     851.5467      55.0772     154.1763        10     1.128     0.658 -35.45   0
       328    374.3444    553.8064 307.7608427  +6.4566424     1480.055     1987.641     2159.471     77.82859     156.1553     312.1551      1.427     4.00     848.3412      55.0772     262.6747        13     1.301     0.637 -45.75   0
       329    560.7333    550.3684 307.6835537  +6.4643102     2547.042     3803.248     3436.848     78.20187     156.2796     312.4038      1.561     3.90      848.403      55.0772     429.8345        23     1.528     0.827 -35.78   0
       330    163.0169    550.3803 307.8487175  +6.4509585     7438.661     10798.42     10715.54     78.07764     156.0931     312.3727      1.487     3.24     850.8537      55.0772     1160.481        32     1.408     0.968 -46.45   0
       331    258.2550    546.8458 307.8092873  +6.4556186     95065.24     134426.8     138564.1      78.3259     156.2796      312.497      1.488     3.27     848.4793      55.0772     15528.64        78     1.526     1.087 -44.27   0
       332    801.7384    549.7423 307.5834854  +6.4726307     1538.984     2043.503     2088.488     78.44974     156.2174      312.497      1.319     3.57     846.7958      55.0772     238.9385        13     1.140     0.751 -31.26   0
       333     34.6537    549.0536 307.9020669  +6.4471872     5435.197     8123.971     8378.766     78.57338     156.1553     312.4659      1.550     3.26     851.8642      55.0772     821.0337        30     1.393     1.027 -30.91   0
       334    547.4808    544.2476 307.6892636  +6.4663935     950.9224     1210.828     1189.806      78.3259     156.2796      312.497      1.529     4.11     848.2613      55.0772     144.6957        10     1.159     0.588 -43.70   0
       335    242.2016    541.7752 307.8161252  +6.4571728     1652.812     2275.797     2650.018     77.95322     155.9687     312.2484      1.467     4.27     848.3359      55.0772     260.8317        16     1.224     0.980 -56.00   0
       336    781.3638    539.3270 307.5922973  +6.4762502        18039     24731.85     25587.85     78.20187     156.2796     312.4659      1.428     3.26     846.6274      55.0772     2775.397        42     1.423     0.935 -45.34   0
       337    957.5834    540.6350 307.5190672  +6.4815937      1861.75      2372.62     2615.955     77.95322     156.0309     312.2795      1.310     3.01     843.5815      55.0772     281.4571        13     1.105     0.692 -41.91   0
       338    484.9928    537.6963 307.7154354  +6.4670045      43699.6     67528.84     71583.45     78.07764     155.9064     312.2484      1.652     3.40     848.0464      55.0772     6594.976        72     1.655     1.217 -30.25   0
       339    635.3297    536.2781 307.6530486  +6.4726252     1197.141     1581.083     1886.987     78.57338     156.5278     312.4348      1.405     4.21     847.4462      55.0772     166.1569        13     1.331     0.713 -26.18   0
       340    197.3711    533.9455 307.8350070  +6.4588988     2089.063     2886.602      2991.25     78.07764     156.3417     312.4038      1.478     3.29     849.1872      55.0772     308.6387        17     1.241     0.838 -47.25   0
       341     32.9989    534.3729 307.9032514  +6.4531925     1448.629     1958.878     1701.911     77.95322     155.9687     312.2484      1.396     3.12     851.7742      55.0772     212.0937        13     0.942     0.891 -15.09   0
       342    645.0212    532.5290 307.6491499  +6.4744975     3234.057     4625.021     4787.926     77.95322     156.1553     312.4348      1.481     3.35     847.2413      55.0772     537.5671        22     1.421     0.845 -51.87   0
       343     84.3069    533.5922 307.8819713  +6.4552419     605.4716      862.473      993.649     77.95322     155.9687     312.2795      1.570     4.05     851.3553      55.0772     114.7866         6     1.051     0.445 -53.53   0
       344    706.8872    531.7224 307.6234838  +6.4769001     1415.957     2038.099     2499.572      78.3259     156.5898     312.5591      1.425     4.02     846.9368      55.0772     250.8153        11     1.206     0.579 -55.47   0
       345    655.1124    532.6702 307.6449542  +6.4747769     1458.597     1994.693     2030.361     78.44974     156.5278     312.4659      1.475     3.33     847.1426      55.0772     259.1718        11     1.095     0.665 -37.04   0
       346    382.5565    528.4935 307.7582868  +6.4673689     1856.898     2779.918     2675.014      78.3259     156.2796     312.5902      1.610     3.65     847.3655      55.0772     267.8075        17     1.269     0.860 -47.56   0
       347     64.2929    529.8733 307.8904084  +6.4561037     821.2649      1264.66     1352.661     78.20187     156.4037      312.497      1.671     2.79     851.4767      55.0772     172.9742         7     0.882     0.547 -35.22   0
       348    314.2611    526.5743 307.7867139  +6.4658690     4296.977     6216.441     6123.234     77.95322     156.2796     312.3727      1.530     3.38     847.4719      55.0772     715.8201        27     1.385     0.952 -46.21   0
       349    129.3479    525.1661 307.8635523  +6.4602361     27859.67     39689.71     41061.66     78.20187     156.2174     312.3727      1.507     3.29     850.6102      55.0772     4239.972        54     1.531     1.023 -43.39   0
       350    494.0665    525.9426 307.7120634  +6.4721614     2300.416     3422.204     3953.253     78.44974     156.2174     312.4348      1.540     3.19     847.5508      55.0772     409.5907        17     1.205     0.816 -46.51   0
       351    857.3853    525.5372 307.5611881  +6.4844832     1685.613     2405.247     2274.474     77.82859     156.1553     312.2795      1.493     3.61      845.515      55.0772     250.9503        14     1.159     0.823 -34.87   0
       352     94.5480    523.3873 307.8780640  +6.4597997      2876.42     4091.306     4318.948     77.70377     156.2174     312.1862      1.506     3.26     851.1235      55.0772     473.9452        23     1.289     0.938 -47.66   0
       353    954.8901    519.9236 307.5208810  +6.4900553     5542.256      7707.74     8119.031      78.3259     156.5278      312.497      1.400     3.21     843.0378      55.0772      1001.04        24     1.295     0.860 -48.48   0
       354    331.3902    521.7999 307.7797616  +6.4684153       965.14     1347.187     1874.077     77.70377     155.9687     312.2173      1.585     3.71     847.1771      55.0772     178.5829         9     1.099     0.589 -34.66   0
       355    528.0410    512.3937 307.6984106  +6.4788939     1575.985     2113.219     2673.895     77.70377     155.9687     312.1862      1.500     3.41     846.7861      55.0772     239.5067        12     1.083     0.671 -43.02   0
       356    426.3825    506.3467 307.7408335  +6.4779828     46539.79     65487.88     68182.83     77.82859     156.3417     312.1862      1.492     3.16     846.3998      55.0772     7003.851        59     1.474     1.041 -45.00   0
       357    402.7670    509.3836 307.7505385  +6.4759368     418.1785     572.3223     374.1502     77.95322     156.0309     312.3416      1.236     3.48     846.5158      55.0772      77.5127         5     0.798     0.438 -18.52   0
       358    634.3694    506.0289 307.6544659  +6.4850823     13157.24     18337.93     18939.56     77.82859     156.0309     312.2173      1.437     3.21     846.3894      55.0772      2247.19        34     1.421     0.899 -40.92   0
       359    274.0945    506.6941 307.8040663  +6.4727279      989.729     1587.693     1763.096      78.3259     156.8376     312.4348      1.779     3.90     847.0118      55.0772     164.4636        11     1.198     0.603 -36.46   0
       360    191.5437    503.9237 307.8384422  +6.4710977     20601.55      31370.1     32719.69      78.3259     156.2174     312.4348      1.630     3.22     848.5175      55.0772     2991.153        53     1.515     1.190 -45.57   0
       361    808.3345    504.3147 307.5822730  +6.4916072     1083.217     1656.463     1276.333     78.44974     156.4658      312.528      1.600     3.95     844.9098      55.0772     175.4357        10     1.177     0.577 -54.53   0
       362    157.3429    504.8639 307.8526135  +6.4695596     1795.313     2436.703     2357.041     78.44974     156.2174      312.497      1.520     3.13     849.4222      55.0772     285.4454        14     1.015     0.843 -38.78   0
       363    896.9818    503.8770 307.5454704  +6.4947483      736.353     883.1461     1245.913     77.82859     156.0309     312.4348      1.278     3.06      843.991      55.0772     136.9291         7     0.879     0.502 -43.27   0
       364    556.0731    502.9608 307.6870865  +6.4837275     3094.551     4290.608     4707.721     78.20187     156.2796      312.528      1.414     3.01     846.2665      55.0772     583.7145        19     1.319     0.722 -38.58   0
       365    930.0168    500.0318 307.5318792  +6.4974384     5154.426     6992.966     7396.544     77.95322     156.0309     312.3416      1.395     3.09     843.2623      55.0772     964.0969        22     1.297     0.821 -43.30   0
       366    603.2808    498.4086 307.6676341  +6.4871878     7127.024     9639.949     10159.22     77.95322     155.9064     312.3105      1.437     3.11     846.1675      55.0772     1142.318        29     1.374     0.896 -41.06   0
       367    502.7000    498.0898 307.7094170  +6.4839504      586.558     1062.004     404.6019      78.3259     156.6518     312.4348      1.722     6.13     846.3451      55.0772     86.73425         9     1.228     0.861  29.83   0
       368     90.6543    499.0233 307.8805057  +6.4697275     1316.109     1589.729     1406.522     77.82859     156.2796     312.2795      1.385     3.18     850.8574      55.0772     210.1714        10     0.981     0.667 -28.75   0
       369    968.3115    504.4385 307.5158264  +6.4968965      1324.88     2009.692     2249.527      78.3259     156.2174      312.497      1.604     4.32     842.1475      55.0772     250.0263        13     1.406     0.620 -36.97   0
       370    952.6748    492.2486 307.5227300  +6.5014079     3897.404     5580.285     5713.949     78.20187     156.3417      312.497      1.483     3.14     842.2764      55.0772     578.4457        22     1.336     0.798 -42.10   0
       371    391.2985    491.1544 307.7559166  +6.4830783     942.3586     1311.426     2012.812      78.3259     156.1553     312.6833      1.450     3.59     845.7269      55.0772     139.3933        10     1.037     0.659 -50.09   0
       372    361.4071    489.8228 307.7683755  +6.4826251     2974.945     4293.373     4474.385     77.82859     156.0931     312.2795      1.518     3.51      845.917      55.0772     451.6835        20     1.440     0.777 -54.14   0
       373    515.3954    489.6047 307.7044306  +6.4878791     8320.867     11484.13     12258.61     77.70377     155.8441     312.3416      1.487     3.36      845.892      55.0772     1279.905        28     1.334     0.910 -44.40   0
       374     84.5030    489.4720 307.8833835  +6.4734638     442.7643     704.9507     574.5797     78.20187     156.4037     312.4348      1.127     4.23     850.7993      55.0772     85.00946         6     1.255     0.406 -44.98   0
       375    871.9694    485.4286 307.5564784  +6.5015302     3476.108     4852.824     5194.125     77.82859     156.0309     312.2173      1.425     3.20      843.725      55.0772     566.6071        23     1.361     0.819 -41.21   0
       376    524.9484    486.1500 307.7005796  +6.4896255      826.845     1093.301     1613.049     78.44974     156.1553     312.4038      1.397     2.87     845.6108      55.0772     142.6752         8     0.825     0.709 -20.76   0
       377    219.4145    485.2081 307.8275007  +6.4797615     747.6805     1071.244     982.4083     77.95322     156.0309     312.3105      1.435     3.39     847.4799      55.0772     119.0822         8     0.948     0.593 -21.76   0
       378    918.7429    479.2112 307.5372607  +6.5056586     1245.586     1747.012     1663.286     77.70377     156.2174     312.1862      1.428     3.26     842.8825      55.0772     252.8858        11     1.182     0.583 -36.20   0
       379    879.3825    479.8196 307.5535879  +6.5040936     2342.004     3233.127     3485.629     78.07764     156.0931     312.3727      1.497     3.45     843.4478      55.0772     390.7508        15     1.170     0.755 -42.99   0
       380     98.4538    479.6417 307.8779228  +6.4779918      706.376      975.043     872.6415     78.20187     156.3417     312.4659      1.623     4.97     850.4841      55.0772     113.6255         8     1.231     0.569 -15.19   0
       381    703.3024    475.8091 307.6268540  +6.4998656      3222.61     4718.531      4629.36     78.07764     155.9064     312.2484      1.476     3.25     845.3401      55.0772     591.5326        23     1.351     0.876 -43.63   0
       382     65.1854    474.8756 307.8919000  +6.4788399     2000.157     2978.693      3346.93     77.82859     156.0309     312.3105      1.588     3.68     850.7762      55.0772     310.0433        18     1.275     0.873 -47.22   0
       383    414.4755    474.2932 307.7468601  +6.4908173     1152.258     1587.492      1807.97     78.20187     156.4037     312.4659      1.492     3.50     844.8044      55.0772     166.8244        12     1.030     0.754 -33.27   0
       384    374.0777    474.0378 307.7636463  +6.4895674     3916.532     5500.494     5306.342     78.20187     156.3417     312.4659      1.434     3.41     845.1955      55.0772     610.2759        21     1.310     0.847 -41.05   0
       385    601.8837    470.5923 307.6691512  +6.4986257     10873.21     15128.68        16116     77.95322     155.9687     312.3105      1.468     3.25     844.9785      55.0772     1667.969        34     1.434     0.883 -42.38   0
       386    764.5950    467.1914 307.6016873  +6.5054730     18040.44     24896.38      26205.6     77.70377     156.0309     312.3105      1.435     3.14     844.4766      55.0772     2806.625        44     1.464     0.954 -43.36   2
       387    768.8844    462.2813 307.6000709  +6.5076436     1571.552     2100.845     2528.971     78.07764     156.5898      312.528      1.328     3.83     844.2798      55.0772     258.7187        11     1.094     0.646 -34.24   3
       388    284.3900    467.4073 307.8011181  +6.4892939      2908.41     4344.294     4416.522     77.82859     156.0931     312.3416      1.585     3.19     845.2646      55.0772     407.6136        21     1.313     0.855 -46.49   0
       389    407.5755    467.3791 307.7499591  +6.4934405     687.6818     1074.476     1062.571     77.95322     156.0931     312.4659      1.841     4.62     844.6312      55.0772     94.60608         7     1.128     0.536 -48.36   0
       390    793.5779    464.3403 307.5897456  +6.5076187     1422.172     2018.814      1727.54     77.95322     156.2174     312.3416      1.428     3.83     843.8985      55.0772      212.571        10     1.102     0.604 -36.91   0
       391    367.3308    463.9301 307.7667896  +6.4935141     1703.145     2445.313     3042.691      78.3259     156.4037     312.4348      1.479     3.81     844.8829      55.0772     262.9092        15     1.291     0.712 -43.29   0
       392    894.1254    464.2745 307.5479869  +6.5110040     636.2687     782.9708     75.88292     78.57338     156.5278     312.5591      1.319     3.27     842.7573      55.0772     126.3688         5     0.926     0.344 -47.56   0
       393    382.8692    464.1289 307.7603296  +6.4939535     531.4416     635.5333     811.3614      78.3259     156.4037     312.4348      1.320     3.97     844.7459      55.0772     76.58551         6     0.781     0.579 -37.89   0
       394    949.7831    462.1621 307.5249409  +6.5137336     2230.967     3082.785     3239.518     77.95322     156.1553     312.2173      1.387     3.40     841.5443      55.0772     331.6449        16     1.212     0.708 -35.70   0
       395    698.2490    460.7704 307.6294589  +6.5059057     759.5291     873.0566     758.1288     77.95322     156.3417     312.3727      1.242     4.45     844.8738      55.0772     128.4653         8     1.154     0.489 -45.28   0
       396    355.7973    460.1858 307.7717060  +6.4946729     800.5202     1034.871     1520.854     77.95322     155.9687     312.3105      1.449     5.62     844.8195      55.0772     111.3879        11     1.435     0.620 -49.39   0
       397    740.0792    458.1832 307.6121725  +6.5083727     2479.814     3484.588     3315.037     77.95322     156.0309     312.3727      1.421     3.97     844.6168      55.0772     429.8221        16     1.388     0.660 -51.73   0
       398    101.9109    458.9175 307.8771886  +6.4866643      4728.44     6842.229     7178.472     78.07764     156.4658      312.528      1.494     3.34     849.4887      55.0772     720.5188        27     1.325     0.974 -44.22   0
       399   1003.8464    456.8711 307.5026637  +6.5177213     4303.293     6760.837     7274.758      78.3259     156.2796     312.4659      1.706     3.74     839.7458      55.0772     500.5714        31     1.430     1.174 -12.75   0
       400    259.7869    456.2446 307.8117131  +6.4930761     1615.797     2137.708     2530.809     77.70377     156.0931     312.2173      1.431     3.66     845.5824      55.0772     222.0416        16     1.269     0.754 -45.38   0
       401    338.0526    453.8073 307.7792910  +6.4967107     3415.391     4945.132     5125.828     77.82859     156.0931     312.1551      1.502     3.36     844.6049      55.0772     578.2261        21     1.264     0.887 -45.44   0
       402    967.7460    450.4706 307.5178726  +6.5191600     810.0876     1019.149     1322.436     78.20187     156.2174     312.4038      1.425     4.77     840.6896      55.0772     122.6049         9     1.383     0.466 -54.65   0
       403    693.8424    451.6064 307.6315975  +6.5095419     1777.868     2517.316     2619.317     77.82859     155.9687     312.1862      1.427     3.18     844.6072      55.0772     308.5869        15     1.233     0.711 -38.16   0
       404    397.6289    449.8531 307.7546816  +6.5003427     603.8427     1073.893     1258.012     78.07764     156.4037     312.3727      1.885     3.15     844.1367      55.0772     97.09802         6     0.733     0.627 -19.59   0
       405    225.8748    449.4476 307.8260268  +6.4947428     931.3431      1313.52     1082.461     78.20187     156.3417     312.4659      1.416     4.20     846.4564      55.0772     148.2726         9     1.112     0.536 -60.03   0
       406    535.3585    444.4345 307.6976622  +6.5071975     942.2346     1370.462      1584.43     78.07764     156.2796     312.2795      1.715     3.59     843.9272      55.0772     160.0928         9     1.082     0.582 -31.25   0
       407    683.8741    443.8540 307.6359986  +6.5124092     551.8879     784.8579     759.1624     78.20187     156.2796     312.4348      1.532     4.76     844.4095      55.0772     92.25183         7     1.393     0.461 -41.86   0
       408    457.5409    442.6317 307.7300426  +6.5053336     1516.086     2074.513     2112.486     78.07764     156.3417     312.4348      1.398     3.50     844.0117      55.0772     231.8414        13     1.165     0.742 -50.92   0
       409    820.1381    441.5591 307.5794800  +6.5179120     1604.292     2084.646     2029.202      78.3259     156.2796      312.497      1.310     2.96     843.1974      55.0772     319.0571        13     1.138     0.654 -41.25   0
       410    805.7174    440.8619 307.5854930  +6.5177181     2212.865     2992.198     2820.124     78.44974     156.2796     312.4348      1.340     3.17     843.4005      55.0772     362.7819        14     1.200     0.669 -43.50   0
       411    703.0645    438.8982 307.6281949  +6.5150973     16219.38     22243.19     22818.65      78.3259     156.3417      312.497      1.417     3.00     844.1573      55.0772     2991.245        38     1.400     0.927 -46.27   0
       412    605.1307    440.9376 307.6688016  +6.5109781     903.7537     1253.351     1216.477      78.3259     156.2796      312.528      1.383     4.25     843.5146      55.0772     132.0602        11     1.140     0.708 -40.44   0
       413    624.1999    434.8047 307.6610881  +6.5141485     2899.571     4007.199     4320.037     77.70377     155.8441     312.2173      1.378     3.39     843.4344      55.0772     512.8517        19     1.294     0.766 -49.69   0
       414    696.7747    433.8149 307.6309784  +6.5169856     701.1084     702.7434     548.2664     78.07764     156.0931     312.4038      1.188     4.03     844.0345      55.0772     133.7478         7     0.880     0.579 -53.41   0
       415    618.5269    433.5913 307.6634851  +6.5144596     694.0263     1039.118     754.6975     77.95322     155.8441     312.3105      1.675     4.38     843.3086      55.0772     141.3113         7     1.076     0.544 -44.70   0
       416    599.3953    431.8819 307.6714888  +6.5145249     5862.906     8597.086     9364.535     77.82859     155.9064     312.1862      1.537     3.21     843.1121      55.0772     972.1301        27     1.395     0.909 -43.00   3
       417    595.5911    429.3046 307.6731556  +6.5154616     15873.11     22717.58     24223.17     78.07764     155.9064     312.2484      1.514     3.19      842.991      55.0772     2389.391        41     1.444     0.993 -40.60   3
       418    367.4543    424.7391 307.7680616  +6.5096989     31582.16     44506.97     46050.54     78.44974     156.2174     312.4348      1.498     3.20     843.3972      55.0772     4853.771        50     1.466     1.039 -43.76   0
       419    883.8773    424.6935 307.5535729  +6.5270041     1695.142     2504.397     3170.162     78.07764     156.4658      312.497      1.441     3.19     841.7101      55.0772     295.6876        15     1.242     0.732 -45.13   0
       420    404.9899    426.0395 307.7524282  +6.5104215     564.7137     510.6043    -39.80139     77.70377     156.0931     312.2173      1.329     3.69     843.2849      55.0772     87.60095         7     0.877     0.541 -45.20   0
       421    113.4275    424.1169 307.8735838  +6.5014195     2550.872     3502.805     3265.586     78.20187     156.0931     312.4038      1.480     3.72     847.8469      55.0772     387.3309        19     1.313     0.814 -44.82   0
       422    880.9214    422.0000 307.5548911  +6.5280175     594.1837     1447.092     1661.636     77.57874     155.6572     312.1862      2.268     4.28     841.6635      55.0772     84.42523         5     0.865     0.603   2.16   3
       423    897.1960    419.2515 307.5482237  +6.5296956     5610.004     7639.675     7849.628     77.70377     156.0309     312.0618      1.411     3.22     841.3337      55.0772     939.9529        26     1.317     0.920 -48.35   0
       424     47.0269    419.6033 307.9013131  +6.5010481     1440.574     2464.746     2559.127     77.82859     156.0309     312.3105      1.822     3.54     850.0223      55.0772     238.1282        16     1.209     0.884 -40.86   0
       425    928.2673    428.8799 307.5349949  +6.5267573     4122.272     5543.177     5723.309     78.44974     156.5278     312.4659      1.384     3.14      841.186      55.0772     837.8736        21     1.355     0.754 -42.08   0
       426    225.0056    415.2609 307.8275437  +6.5088280     14767.28     21205.19     22114.63     77.70377     156.1553     312.2484      1.492     3.21     845.6002      55.0772     2388.151        40     1.463     0.970 -47.07   0
       427    952.7884    417.1071 307.5252052  +6.5324362     634.4449     1083.896     1192.872     78.07764     155.9687     312.2795      1.678     2.78     840.2521      55.0772     117.2147         6     0.750     0.543 -50.53   0
       428    719.9024    409.3541 307.6221956  +6.5278584     857.0628     1294.551     1594.072      78.3259     156.1553     312.6212      1.512     3.78     843.0249      55.0772     161.1599         7     1.088     0.559 -54.61   0
       429     60.5764    409.4773 307.8960288  +6.5056848     785.2297     1183.503     1417.218     77.95322     156.1553     312.4348      1.684     5.16     849.1147      55.0772      134.921        10     1.320     0.610 -43.93   0
       430    687.6473    408.4792 307.6356221  +6.5271408     757.8472     954.5878     1111.744      78.3259     156.3417     312.4348      1.334     4.68     843.2205      55.0772     112.8097         8     1.239     0.501 -41.68   0
       431    997.3665    407.8223 307.5070009  +6.5377566     495.3134     756.6757     194.8186     77.82859     156.0931     312.2484      1.280     4.29     838.7834      55.0772     82.33124         6     1.231     0.425 -56.75   0
       432    948.3065    407.5808 307.5273866  +6.5362199     1172.745     1571.449     1840.772     78.20187     156.0309     312.3416      1.232     2.96     839.9941      55.0772     226.9247        11     1.113     0.605 -41.87   0
       433    338.0583    404.7708 307.7809448  +6.5169564     1372.435     1917.552     1625.026     77.95322     156.3417     312.3416      1.495     3.77     842.6417      55.0772     222.4298        14     1.284     0.712 -49.16   0
       434    170.4771    405.1954 307.8505307  +6.5111504     939.3303     1387.545     1303.256     77.95322     155.7818     312.3105      1.474     5.13     846.4736      55.0772     151.8502        10     1.254     0.609 -37.22   0
       435    125.2604    403.7905 307.8693575  +6.5102096     5557.796     8224.816     8433.121     77.70377     156.1553     312.1862      1.573     3.33     847.2117      55.0772     875.1865        29     1.429     0.932 -44.60   0
       436    230.0154    402.8690 307.8258820  +6.5141125     1424.375     1870.566     2145.586     77.82859     156.2174     312.3727      1.380     3.84     844.9597      55.0772     202.1224        14     1.202     0.772 -41.54   0
       437    618.2310    402.9265 307.6646409  +6.5271104     614.5542     993.8283     1126.622     78.20187     156.2796     312.4659      1.783     4.71     841.9523      55.0772      111.873         5     1.095     0.574 -30.30   0
       438    422.5207    402.7223 307.7459341  +6.5206365     840.0981      1203.07     1058.964     78.57338     156.5278     312.6212      1.717     2.89     842.2441      55.0772     132.6609         9     0.986     0.602  -5.70   0
       439    147.3760    399.6200 307.8603137  +6.5126754     2587.081     4312.086     5038.457     78.07764     156.0931     312.4038      1.892     4.04     846.8442      55.0772     407.4072        28     1.702     0.931 -57.37   0
       440    810.9255    400.6894 307.5846803  +6.5344784     786.1924     1195.551      1319.36      78.3259     156.5898      312.497      1.486     4.31     842.3833      55.0772     142.6607        10     1.218     0.590 -52.87   0
       441    542.8668    398.6647 307.6960866  +6.5263461     1220.736     1806.117     2193.613      78.3259     156.2796      312.497      1.661     3.58     841.9679      55.0772     197.9365        11     1.060     0.671 -44.20   0
       442    958.9464    394.7702 307.5233972  +6.5418641     981.6302     1810.221     2212.676     78.07764     156.3417     312.4038      2.148     6.69     839.1523      55.0772     158.0701        14     1.818     0.690 -67.32   0
       443    370.6913    394.5327 307.7677371  +6.5222788     2249.923     2951.475     2807.777      78.3259     156.4037      312.497      1.439     3.49     841.9708      55.0772     312.6453        17     1.215     0.837 -46.17   0
       444    259.0108    394.7224 307.8141149  +6.5184503     867.4235     1148.281     1027.569     77.95322     155.9064     312.3105      1.344     3.05     843.8129      55.0772     162.4863         9     0.961     0.635 -48.43   0
       445    305.2076    392.6183 307.7949992  +6.5208707     796.4805     1251.201     1000.814     77.95322     155.9687     312.3105      1.620     4.87     842.6663      55.0772     141.9547         8     0.969     0.693 -37.48   0
       446    424.6350    388.1059 307.7455492  +6.5267421     7951.385     11426.02     11709.76     78.44974     156.1553     312.5591      1.522     3.17     841.4847      55.0772     1223.389        34     1.450     0.964 -44.99   0
       447     20.9485    388.9294 307.9131827  +6.5128338     3499.783     5424.825     5284.709     78.20187     156.2174      312.497      1.586     3.78     849.6779      55.0772     577.0809        25     1.479     0.887 -49.11   0
       448    757.3901    387.0612 307.6073750  +6.5383160     2091.463     3105.168     3494.736     77.70377     156.1553     312.2173      1.492     3.29     842.1296      55.0772     367.8485        16     1.221     0.767 -28.21   0
       449    765.2152    385.4923 307.6041775  +6.5392254     14449.15     19395.74     19737.85     78.07764     156.0931     312.3416      1.394     3.13     842.0464      55.0772      2476.31        32     1.349     0.872 -42.70   0
       450    328.8496    383.7928 307.7854781  +6.5253083     1266.683     1811.948     1551.501     77.82859     156.0309     312.0929      1.466     3.20     841.9759      55.0772     221.2164        14     1.158     0.752 -41.32   0
       451   1008.9843    380.7087 307.5030851  +6.5493387     3952.582     5511.436     5462.455     78.07764     156.0931     312.3416      1.389     3.28     836.9764      55.0772     698.5654        20     1.283     0.777 -46.71   0
       452    173.5525    376.4798 307.8502250  +6.5231094     835.8374     1114.735     979.3024      78.3259     156.2796     312.4348      1.526     5.40     845.9711      55.0772     131.6268        10     1.196     0.774 -61.63   0
       453    940.1750    377.0383 307.5317896  +6.5485590     595.0773     908.6097     1190.412     77.95322     156.0931     312.2795      1.638     3.15     838.9751      55.0772      104.968         5     0.785     0.499 -30.12   0
       454    890.3017    375.5805 307.5525543  +6.5474963     653.6562     897.7266     810.3351     78.20187     156.1553     312.2173      1.384     4.32     840.1537      55.0772     94.08752         7     0.952     0.559 -58.52   0
       455    379.6707    374.2699 307.7646918  +6.5309459     506.9135     827.6287     626.5416      78.3259     156.4037     312.4348      1.631     5.56     840.8898      55.0772     95.17865         8     1.532     0.570 -42.12   0
       456    472.9379    371.7308 307.7260394  +6.5351227     3352.382     4944.979     4862.675      78.3259     156.2796      312.528      1.524     3.27     840.5219      55.0772     515.5721        24     1.358     0.948 -38.51   0
       457    445.1578    372.2659 307.7375598  +6.5339702     2389.403     3348.648     3341.128      78.3259     156.2174      312.528      1.483     3.81     840.6123      55.0772     335.8789        17     1.295     0.783 -46.10   0
       458    901.4656    371.6631 307.5480488  +6.5494864     854.7459     908.9151     645.1858      78.3259     156.2796     312.4659      1.169     4.06      839.784      55.0772     160.2614         6     1.058     0.446 -35.02   0
       459    830.5896    368.4624 307.5775960  +6.5484412     36966.41      52450.3     54110.88     77.82859     156.0931     312.2795      1.528     3.28     840.9547      55.0772     5553.775        55     1.512     1.030 -51.56   0
       460    976.5107    368.4952 307.5169836  +6.5532985     577.7124     658.2661     973.9818      78.3259     156.6518      312.528      1.211     3.64     837.3495      55.0772     139.3779         5     1.093     0.362 -36.83   0
       461     48.1883    364.5164 307.9026967  +6.5238301     628.4825     941.6334     1032.855     77.95322     156.0931     312.3105      1.704     3.32     847.9494      55.0772     130.3799         5     1.190     0.268 -53.90   0
       462    322.8987    363.9675 307.7886195  +6.5332937     988.9562     1515.194      1251.26      78.3259     156.1553     312.5902      1.530     3.37     841.4819      55.0772     169.4528         8     0.964     0.571 -61.58   0
       463    602.2940    360.8629 307.6726773  +6.5439437     2896.968     4087.598     4349.201      78.3259     156.3417      312.528      1.485     3.55     840.1302      55.0772     460.1961        18     1.285     0.775 -48.21   0
       464     10.4621    361.1974 307.9184775  +6.5239298     999.0823     1511.586      1625.75     77.70377     156.1553     312.1862      1.606     4.27     848.4875      55.0772     155.2872        12     1.272     0.646 -55.02   0
       465    687.0565    354.4189 307.6376872  +6.5494412     87086.52     120807.3       125667     77.82859     156.2174     312.2795      1.455     3.18     841.0625      55.0772        13536        78     1.492     1.069 -42.21   0
       466    133.7815    358.9183 307.8673372  +6.5290221     669.2023     932.2584     1126.789     77.95322     155.9687     312.4038      1.674     4.51     846.5588      55.0772     97.83569         6     0.963     0.601 -25.07   0
       467    845.3295    355.8572 307.5718972  +6.5541379     1295.297      1802.39     2006.571     78.44974     156.2796     312.4659      1.542     4.18     840.4188      55.0772     226.2002        12     1.381     0.544 -52.04   0
       468     66.2358    353.8553 307.8955622  +6.5288392         1596     2279.253     2125.287     78.20187     156.2796      312.497      1.553     3.93     847.2592      55.0772     243.5149        13     1.123     0.784 -44.23   0
       469    549.4597    351.1073 307.6949513  +6.5462020     2811.993     3976.546     3851.537     78.20187     156.2174     312.5591      1.481     3.02     839.3651      55.0772     469.4033        23     1.376     0.833 -45.06   0
       470    928.4451    351.2531 307.5375278  +6.5588138     918.2727     1240.838     989.8127      78.3259     156.2796      312.497      1.291     3.55     838.4009      55.0772     188.2582         9     1.079     0.542 -30.33   0
       471    377.2061    351.3110 307.7664906  +6.5403422     502.5374     385.6046    -154.1284     77.82859     155.9687     312.2484      1.163     4.08     839.7753      55.0772     95.79462         5     0.935     0.508 -53.09   0
       472     86.7629    349.7982 307.8871741  +6.5312052     6564.475     9571.058     9911.432     77.45351     156.0931     312.2795      1.524     3.27     846.9009      55.0772     1019.985        29     1.386     0.955 -42.90   0
       473    756.2290    349.2267 307.6091299  +6.5538982     468.8825     733.8219     558.5626     77.82859     156.0931     312.2795      1.768     4.63     840.7222      55.0772     111.2192         6     1.450     0.419 -34.60   0
       474    747.9648    349.2339 307.6125624  +6.5536189     653.0369      846.801     625.5734     78.07764     156.0309     312.2173      1.380     4.76      840.749      55.0772      97.6662         8     1.029     0.624 -59.49   0
       475    532.8117    347.3925 307.7019914  +6.5471780      7643.28     11008.78     11356.84     77.95322     156.0931     312.3727      1.503     3.25     839.1196      55.0772     1254.029        30     1.388     0.951 -50.36   0
       476    261.7571    344.9205 307.8146578  +6.5391038     2920.019     3932.878     2459.984      78.3259     156.2796     312.4348      1.391     3.24     842.5712      55.0772     446.1779        20     1.270     0.817 -42.03   0
       477    395.7263    342.4463 307.7590975  +6.5446236     28072.89     39933.98     41412.72     78.20187     156.3417     312.4659      1.520     3.19     839.4262      55.0772     4184.523        49     1.488     1.018 -47.13   0
       478    574.4197    341.5777 307.6849051  +6.5509726     806.5203     1090.151      911.929     78.07764     156.2174     312.4038      1.516     3.06     839.0421      55.0772     141.4537         9     0.908     0.756 -65.90   0
       479    503.2684    341.2389 307.7144700  +6.5487285     1398.669     2003.202     2019.806     78.20187     156.2796     312.5902      1.384     3.60     838.9018      55.0772     221.6279        12     1.196     0.628 -34.91   0
       480    375.5341    340.6177 307.7675462  +6.5447009     1375.376     1892.862      2135.82     77.82859     156.2174     312.3416      1.539     3.44     839.4618      55.0772      215.377        13     1.201     0.709 -50.43   0
       481    474.9137    337.8924 307.7263603  +6.5491597     1266.187     1861.478     1638.789     78.20187     156.7138     312.5591      1.552     3.27     838.9064      55.0772     187.7374         8     0.845     0.626 -45.64   0
       482    790.6138    335.1327 307.5953214  +6.5608666     859.5549     1432.307     1269.285     77.82859     156.0931     312.4038      1.753     4.38     839.8038      55.0772     148.9377        11     1.177     0.812 -31.67   0
       483    625.9582    334.9762 307.6637201  +6.5554239      538.182     678.8754     381.9713     77.95322     156.1553     312.2484      1.393     4.56     839.2651      55.0772     93.62549         7     1.132     0.523 -32.47   0
       484    372.7169    335.1580 307.7689007  +6.5468605     755.2268     1088.579     1239.016      78.3259     156.2796     312.4038      1.361     3.03     839.2848      55.0772     131.8899         6     0.765     0.531 -45.02   0
       485    484.8510    332.8408 307.7224031  +6.5515785     9388.327     13146.81     13135.15      78.3259     156.2796     312.4348      1.466     3.18     838.6524      55.0772     1546.099        30     1.347     0.942 -44.71   0
       486    753.9091    331.6074 307.6106863  +6.5610952     3338.672     4711.757     5189.652     77.95322     155.9687     312.2795      1.420     3.22     839.7333      55.0772     568.7064        21     1.328     0.770 -42.14   0
       487    909.2581    331.3887 307.5461648  +6.5663750      979.223     1258.047     1211.831     77.70377     156.2174     312.1862      1.265     3.06     838.0004      55.0772     192.4231         9     1.016     0.582 -46.90   0
       488    701.6838    330.9865 307.6324003  +6.5596051     847.9843     1025.507     1214.838     77.95322     156.0931     312.3105      1.298     3.94     839.7062      55.0772     154.5374         8     1.182     0.475 -48.58   0
       489    311.5414    329.4659 307.7945023  +6.5471568     1036.023     1304.595     1374.656     78.44974     156.2174      312.497      1.379     4.00     840.6745      55.0772     140.7171         9     1.060     0.636 -47.64   0
       490    246.8517    323.7095 307.8215658  +6.5473602     516.9709     778.6202     708.8085      78.3259     156.0931     312.5902      1.360     4.43     842.3312      55.0772     87.95435         6     0.946     0.590  61.12   0
       491    146.7812    323.3915 307.8631404  +6.5441269     1284.499      1756.21     1304.855     78.07764     155.9687     312.3105      1.562     3.90     845.7009      55.0772     193.3033        12     1.071     0.766 -38.33   0
       492    593.4683    321.8568 307.6776575  +6.5597527     560.7571     854.0721    -178.9814     78.44974     156.2174     312.4038      1.413     3.45     838.2098      55.0772     99.74323         5     0.760     0.454 -70.05   0
       493    374.7369    317.0559 307.7686729  +6.5544020     7926.928     11414.61     11899.31     78.44974     156.2796     312.4659      1.480     3.23       838.71      55.0772     1262.909        29     1.365     0.942 -46.65   0
       494    728.1662    316.9565 307.6218722  +6.5662835     1031.815     1347.016     1005.201     78.07764     156.2796     312.2795      1.262     3.53     838.8862      55.0772     211.0585         9     1.145     0.525 -42.67   0
       495    230.4988    317.4987 307.8285679  +6.5493748     2407.874     3380.193     3388.366      78.3259     156.6518     312.3105      1.491     3.21     842.6707      55.0772     335.7314        16     1.207     0.763 -38.18   0
       496    742.5572    312.9805 307.6160283  +6.5684063     59507.45     82417.91     85441.05     77.82859     156.1553     312.2795      1.456     3.22     838.6433      55.0772     9509.297        66     1.486     1.015 -43.12   0
       497    414.2446    312.3492 307.7524218  +6.5576709     2628.437     3792.293     4342.024     78.44974     156.2174      312.497      1.563     3.76     838.2891      55.0772     350.7621        15     1.236     0.715 -37.15   0
       498    977.4464    310.0616 307.5185563  +6.5774558     2013.842     2901.786     2654.039     78.20187     156.1553     312.4659      1.482     3.13     835.5329      55.0772     363.0455        16     1.273     0.737 -45.57   0
       499    918.3560    309.1490 307.5431326  +6.5758609     2499.773     3460.313     3177.968     78.44974     156.2174      312.497      1.400     3.14     836.9159      55.0772     432.9706        17     1.313     0.748 -50.01   0
       500    560.3623    309.8888 307.6918121  +6.5635851     1362.418     1923.794     1913.411      78.3259     156.2174      312.497      1.453     4.22     837.0821      55.0772     217.5789        11     1.057     0.673 -29.02   0
       501    400.6192    307.9123 307.7582311  +6.5590456     2073.781     3075.361     3741.056     78.07764     156.0309     312.3727      1.596     3.29     838.2393      55.0772     330.6506        18     1.347     0.811 -40.30   0
       502    451.0255    308.9701 307.7372584  +6.5602998     1132.245     1492.309     1718.415     77.82859     156.0931     312.3105      1.271     3.38     837.9385      55.0772     198.5709         8     0.944     0.591 -30.16   0
       503    280.6000    307.6789 307.8080902  +6.5551125     627.1765     922.6521     287.5605     77.57874     155.6572     312.2173      1.208     3.37      840.854      55.0772     103.6194         6     0.836     0.512 -47.56   0
       504    450.7756    303.2677 307.7375546  +6.5626457     894.2116     1417.842       1544.8     77.95322     156.1553     312.3727      1.668     3.86     837.7122      55.0772     166.0397         9     0.972     0.835 -18.24   0
       505    822.1792    302.6890 307.5833006  +6.5753165     1267.696     1786.853     1644.767     78.20187     156.0309     312.3416      1.538     3.56     837.7174      55.0772     201.2065        14     1.056     0.927   5.35   0
       506    431.3676    299.3897 307.7457469  +6.5635959     1208.932     1716.089     1798.312     77.82859     156.0309     312.3105      1.738     4.71     837.7005      55.0772     215.0192        14     1.495     0.665 -44.64   0
       507    177.2843    299.3209 307.8512855  +6.5550906     2630.033     3879.637     4251.021      78.3259     156.5898     312.5591      1.527     3.34     844.2701      55.0772     414.5521        21     1.352     0.836 -45.07   0
       508    740.9875    297.5717 307.6171988  +6.5747157      6588.71     9007.922     9654.765     77.82859     156.0931     312.3727      1.423     3.20      837.762      55.0772     1087.062        27     1.327     0.860 -48.15   0
       509    212.7511    297.1355 307.8366282  +6.5571853     928.3341     1156.677     880.2193     78.20187     156.1553      312.497      1.348     3.91     843.0283      55.0772      137.184         9     1.030     0.642 -73.45   0
       510    757.3846    295.3910 307.6104610  +6.5761642     2916.889     3913.257     4563.275     78.07764     156.0309     312.3416      1.424     3.24     837.5622      55.0772     495.2656        19     1.322     0.767 -53.01   0
       511    331.4424    296.9349 307.7873354  +6.5612559     789.0696     1108.612     974.1794      78.3259     156.2174     312.4659      1.568     4.76     838.8983      55.0772     114.4967         8     1.354     0.474 -22.63   0
       512     73.3902    296.6857 307.8945270  +6.5526828     1264.315     1788.002       1751.3     77.95322     155.9687     312.3105      1.416     3.27     846.8579      55.0772       177.96        12     1.095     0.689 -46.91   0
       513    347.1714    290.1515 307.7810313  +6.5645846     1820.145     3545.994     4387.803     77.95322     156.3417     312.3727      2.268     6.52     838.2263      55.0772     260.3068        28     1.950     1.086 -12.14   0
       514     60.6201    290.5857 307.9000376  +6.5547712     1422.534     1889.852     1767.325     78.07764     156.0309     312.3727      1.454     3.10     847.0947      55.0772     222.3064        13     1.140     0.730 -63.61   0
       515    995.5375    286.5349 307.5118310  +6.5877728     6652.473       8863.8     9005.508      78.3259     156.2796      312.497      1.400     3.03      834.541      55.0772     1065.104        28     1.322     0.872 -39.80   0
       516    473.6793    286.3694 307.7286112  +6.5703905     2334.826     3480.546     3053.097     78.20187     156.2174     312.4348      1.600     3.48     836.9102      55.0772     358.5654        19     1.280     0.886 -47.20   0
       517    236.2330    281.7841 307.8273939  +6.5643126     6309.493     9050.658     9683.708     77.95322     156.0309     312.3416      1.519     3.18     841.9658      55.0772     1011.615        29     1.345     0.997 -53.58   0
       518    800.8741    280.4251 307.5928992  +6.5837969     740.5661     830.3524     576.5974     77.95322     156.0931     312.4038      1.121     4.19     836.9651      55.0772     134.1875         7     1.059     0.473 -48.54   0
       519    904.3604    280.2478 307.5499172  +6.5873264     703.8845     782.0092     568.6007     78.20187     156.2796     312.2795      1.209     3.66     835.8322      55.0772     121.6358         9     1.029     0.644 -23.12   0
       520    927.0453    277.2125 307.5405958  +6.5893368     534.8731     567.7856     658.8344     77.82859     156.0931     312.2173      1.235     3.48      835.491      55.0772     90.16626         5     0.794     0.501 -52.93   0
       521    755.6459    275.1156 307.6118654  +6.5844773     827.3973     1101.043     1211.032      78.3259     156.2796      312.497      1.318     4.65     837.0717      55.0772     175.3669         9     1.310     0.493 -52.36   0
       522    212.6852    274.7228 307.8374136  +6.5664364      787.609     1066.485      944.397      78.3259     156.5898     312.5591      1.376     3.09     842.6788      55.0772     166.0562         6     0.849     0.508 -52.39   0
       523    776.0845    272.9542 307.6034479  +6.5860529     654.1978     767.4254     730.5306      78.3259     156.2174      312.497      1.190     5.29     836.9463      55.0772     95.82269         8     1.040     0.760  80.36   0
       524    370.4543    272.5305 307.7719554  +6.5726412     1967.251     3116.016     3472.158     78.20187     156.2174     312.4038      1.748     3.22     837.6865      55.0772     280.2131        19     1.247     0.896 -37.30   0
       525    957.2287    271.6614 307.5282440  +6.5926359     1173.772      1475.66     1613.922     77.95322     156.2796     312.4038      1.339     3.38     834.7791      55.0772     228.2852        12     1.211     0.652 -39.40   0
       526    292.8107    268.5842 307.8043397  +6.5716634     1159.114     1723.118     1396.619     78.07764     156.0309     312.3416      1.422     3.38     839.4678      55.0772     192.8613        10     1.120     0.632 -33.23   0
       527    140.0451    268.3571 307.8678009  +6.5666216     1861.497     2635.555     2179.345      78.3259     156.2796     312.3727      1.418     3.58      844.616      55.0772     283.4851        15     1.263     0.691 -37.68   0
       528    549.7709    263.9805 307.6977591  +6.5821845     2413.458     3451.444     3143.714     77.95322     156.0931     312.4038      1.433     3.44     834.8415      55.0772     370.0803        19     1.286     0.790 -46.78   0
       529    893.5944    263.3565 307.5549569  +6.5939411     1929.582     2931.599     2932.116     77.70377     155.9687     312.1551      1.528     3.66     835.3223      55.0772     309.9321        14     1.313     0.682 -48.01   0
       530    713.4427    261.7166 307.6298473  +6.5885981     5611.764      7726.56     7976.818      78.3259     156.2796     312.4038      1.438     3.18     836.8276      55.0772     965.8616        27     1.323     0.918 -40.69   0
       531    654.3043    261.5205 307.6544198  +6.5867005     2412.459     3408.622     3756.622     78.07764     156.5278      312.528      1.403     3.06     836.2518      55.0772     431.8755        17     1.219     0.747 -48.93   0
       532    951.2903    261.8346 307.5310408  +6.5964950     716.1666     1048.675     510.7766     78.44974     156.1553     312.4659      1.537     3.83     834.4832      55.0772     126.5212         6     0.922     0.456 -54.58   0
       533    368.9142    255.6569 307.7731650  +6.5795560     867.6863     1229.203     1376.649      78.3259     156.2796     312.6212      1.502     4.61     837.4997      55.0772     137.4557         8     0.932     0.648 -49.22   0
       534    909.4720    253.9988 307.5486756  +6.5983347     1188.132     1605.855     2055.074     77.70377     155.8441     312.3105      1.457     3.64     834.7556      55.0772     205.0471        12     1.256     0.681 -48.00   0
       535    212.9874    246.7914 307.8382329  +6.5779783     2509.752     3694.717     3927.318     77.95322     156.0931     312.4038      1.457     3.57     842.1816      55.0772     351.8773        20     1.399     0.826 -44.39   0
       536    855.5869    246.0301 307.5713278  +6.5998256     1855.709     2485.287      2497.65     77.82859     156.0931     312.4038      1.381     3.75      835.408      55.0772     320.0159        12     1.191     0.630 -45.73   0
       537    746.0707    245.3319 307.6168450  +6.5964541     1838.117     2399.783       2135.2      78.3259     156.4037     312.4348      1.421     3.05     836.8929      55.0772     307.3182        15     1.196     0.744 -40.29   0
       538    234.7155    240.9210 307.8294062  +6.5811323     679.9188     1005.499     481.7599      78.3259     156.5898     312.5591      1.523     3.79     841.3692      55.0772     142.3763         6     1.109     0.451 -88.75   0
       539    446.8557    236.8292 307.7414249  +6.5899444     24585.17     35414.91     36605.48     78.07764     156.3417     312.3727      1.508     3.26     835.8077      55.0772     3923.845        43     1.476     0.983 -42.34   2
       540    452.5349    231.3145 307.7392519  +6.5924117     1577.695     2310.818     2513.371     78.44974     156.4658      312.528      1.529     3.41     835.5034      55.0772     242.4172        15     1.225     0.772 -48.29   3
       541    308.1690    238.6607 307.7989716  +6.5845335     700.1678     1057.771     880.4562     78.07764     156.3417     312.4348      1.575     4.76     838.7913      55.0772     94.82007         7     1.065     0.669 -38.98   0
       542    772.8998    236.0267 307.6060131  +6.6011929     14778.44     21052.53     22783.34      78.3259     156.0309     312.3727      1.491     3.25       836.43      55.0772     2495.212        43     1.552     1.002 -32.72   0
       543    711.7740    231.3374 307.6315630  +6.6010850     869.0674     1238.129     1118.498     77.95322     156.2174     312.3727      1.580     3.89       836.37      55.0772     126.7516         7     0.848     0.614 -76.78   0
       544    135.0677    230.1109 307.8711630  +6.5822442     2635.461     3650.649     3951.875     78.44974     156.4658     312.4038      1.449     3.41     843.8317      55.0772     377.1566        18     1.311     0.763 -48.21   0
       545    109.6905    229.1305 307.8817372  +6.5817950     1174.824     1835.745     2035.079      78.3259     156.4037     312.4659      1.767     4.37       844.36      55.0772     196.0462        13     1.253     0.841 -49.24   0
       546    765.2801    227.8288 307.6094542  +6.6043229     805.2562     1445.563     1489.998     78.20187     156.2174     312.4038      1.909     6.50     836.4482      55.0772     105.0667        10     1.168     1.014 -35.93   0
       547    162.1775    228.2047 307.8599668  +6.5839433     663.0293     934.6796     1012.407     77.95322     156.0309     312.2795      1.547     3.58     843.1852      55.0772     115.9739         7     1.024     0.478 -66.72   0
       548    909.0410    226.4482 307.5497802  +6.6096953     1526.278     2247.738     2277.063     78.20187     156.2174     312.3416      1.466     3.65     833.6445      55.0772     263.8646        12     1.237     0.576 -46.78   0
       549    291.5083    223.5581 307.8064026  +6.5902091      1349.79     1917.292     1579.617      78.3259     156.2796     312.5591      1.558     3.80      839.101      55.0772      208.294        15     1.227     0.843 -59.45   0
       550    570.9860    222.5757 307.6903423  +6.5999899     5151.427     7247.324      7370.72     78.07764     156.0931     312.4038      1.448     3.22     833.8915      55.0772     816.1101        25     1.373     0.859 -44.71   0
       551    533.5688    222.6001 307.7058846  +6.5987262     2405.053      3388.42     3826.861     77.57874     156.0931     312.2795      1.461     3.78     833.6252      55.0772     343.1009        15     1.315     0.678 -39.43   0
       552    375.4149    221.6408 307.7716135  +6.5938182     1727.848     2308.583     1888.801     77.82859     156.0931     312.2484      1.531     3.95     836.9518      55.0772     236.7933        16     1.262     0.798 -48.90   0
       553    931.7753    219.6177 307.5405654  +6.6132742     2900.871     4069.985     4270.947     78.07764     156.1553     312.4038      1.405     3.08     832.9536      55.0772      523.486        20     1.290     0.877 -40.85   0
       554    877.9457    219.2163 307.5629408  +6.6116430     12566.79     17156.03     17929.55     77.82859     156.2796     312.1862      1.403     3.14     834.1535      55.0772     2217.429        31     1.340     0.868 -42.63   0
       555    553.0578    219.1409 307.6979055  +6.6008074     991.6013      1328.63     1256.948      78.3259     156.2174      312.497      1.407     4.18     833.5065      55.0772     151.2934        11     1.089     0.723 -43.32   0
       556    305.4950    219.4111 307.8007329  +6.5923911     981.4473     1342.929     1731.642     77.95322     155.9687     312.2173      1.549     3.85     838.7242      55.0772     165.6031        10     1.108     0.656 -40.62   0
       557    964.6039    217.0475 307.5270140  +6.6154308     10864.23     14799.68     15419.15     77.70377     156.0309     312.1551      1.413     3.20     832.7178      55.0772     1716.484        31     1.329     0.896 -45.84   0
       558    196.8464    219.1748 307.8458717  +6.5888373     627.8756     749.4134     329.3493     77.95322     156.3417     312.3416      1.268     3.39     842.1027      55.0772     99.84497         6     0.732     0.587 -45.26   0
       559    675.9733    216.9277 307.6469202  +6.6058367     3050.427     4335.139      4556.79     77.95322     156.1553     312.3727      1.451     3.19     835.1321      55.0772     523.9786        20     1.312     0.788 -48.15   0
       560      4.1106    215.6083 307.9260498  +6.5838225     27256.67     39864.59     41640.68     77.82859     154.4677     275.2714      1.526     3.24     844.9469      55.0772     4230.133        49     1.491     1.072 -43.27  24
       561    250.3672    216.6436 307.8237257  +6.5916815     1274.885     1745.401     1785.753     77.95322     156.2174     312.3105      1.480     3.35     840.5519      55.0772     177.3185        13     1.055     0.798 -47.70   0
       562    484.6856    211.7965 307.7265552  +6.6015481     2100.812     2917.919     2936.258     77.82859     155.9064     312.1862      1.443     3.22     834.0975      55.0772      351.053        16     1.253     0.727 -40.01   0
       563    868.7416    207.8079 307.5671478  +6.6160459     2282.303     3017.892     3458.823     77.70377     156.1553     312.2484      1.424     3.04     833.9229      55.0772     374.8954        16     1.111     0.817 -48.27   0
       564    816.5166    208.5436 307.5888184  +6.6139976     2321.921     3199.103     3568.844      78.3259     156.2796     312.5591      1.518     3.19     834.8977      55.0772     380.5929        14     1.166     0.709 -47.87   0
       565    496.6667    207.8886 307.7217100  +6.6035632     2742.514     3894.777     3936.037     78.44974     156.4658     312.4348      1.488     3.36     833.8082      55.0772     404.1307        19     1.323     0.795 -51.51   0
       566    728.1586    205.1302 307.6256388  +6.6124533     43964.42      61001.6     63100.25     78.20187     156.2796      312.528      1.447     3.10     835.6622      55.0772     7500.769        58     1.468     1.000 -44.19   0
       567    331.2267    204.3805 307.7905521  +6.5994608     6310.488     11790.69     12762.64     77.95322     156.0931     312.3727      1.985     5.83     837.8304      55.0772     785.2491        39     1.981     1.003 -70.08   0
       568    961.9616    203.8743 307.5285540  +6.6207816     3165.931      4316.82       4698.5     78.20187     156.2796      312.528      1.423     3.54     832.3303      55.0772     504.6638        18     1.240     0.767 -36.40   0
       569    896.0760    202.2550 307.5559790  +6.6192512     8491.604     11697.99     12089.36      78.3259     156.2796     312.4348      1.423     3.09     833.1397      55.0772     1471.159        31     1.360     0.900 -46.21   0
       570   1000.2960    202.5811 307.5126722  +6.6225942     1890.582     2562.567      2499.43     78.20187     156.0931     312.2484      1.374     3.40     832.0613      55.0772     335.8094        13     1.238     0.631 -42.02   0
       571    439.5934    201.2062 307.7456440  +6.6044083     5353.248     7643.879     7830.757     77.70377     156.0931     312.3105      1.512     3.33     834.6822      55.0772      772.054        25     1.333     0.896 -46.60   0
       572    214.1920    197.9780 307.8393837  +6.5981717     740.8391     840.1277     565.8701     77.95322     156.0931     312.2795      1.217     2.91     841.4782      55.0772     178.6342         8     0.958     0.553 -28.45   0
       573     96.9315    192.4793 307.8882781  +6.5964972     5169.354     7381.433      7250.64     78.44974     156.4658     312.4348      1.532     3.56     844.0223      55.0772     733.5637        26     1.394     0.909 -48.74   0
       574    267.2456    189.2313 307.8176415  +6.6035661     37068.23     53314.55     55387.27     77.95322     156.3417     312.3416      1.531     3.30     839.8964      55.0772     5427.318        57     1.493     1.056 -46.13   0
       575    916.2164    191.9640 307.5479579  +6.6241725     893.3653     1330.309     2167.857     77.95322     156.0309     312.2484      1.675     3.99     832.4396      55.0772     160.9017         8     1.076     0.487 -36.48   0
       576    242.5321    190.3149 307.8278707  +6.6022882     7257.962     10459.48      11133.1     78.57338     156.5278      312.497      1.534     3.38     840.6785      55.0772     1049.586        30     1.407     0.952 -43.20   0
       577    593.3932    190.8797 307.6821024  +6.6138267     701.2247     1026.221     1535.752     77.95322     155.8441     312.2484      1.562     4.38     833.4378      55.0772     122.8903         8     1.104     0.495 -35.50   0
       578    696.2834    188.6907 307.6394338  +6.6181744     1007.937     1203.151      1353.51     78.07764     156.5278     312.6212      1.337     4.23     834.4518      55.0772     142.3831        11     1.112     0.707 -51.55   0
       579    391.3208    184.7513 307.7662521  +6.6095823     54586.96     78284.31     81293.35      78.3259     156.3417     312.4659      1.520     3.27     835.4534      55.0772     8699.762        63     1.494     1.087 -45.12   0
       580    147.2089    186.0008 307.8676130  +6.6008638     4412.496     6381.944     6819.821     77.70377     155.9687     312.2484      1.475     3.32     842.3362      55.0772     744.1719        23     1.315     0.892 -43.56   0
       581    408.5222    185.2375 307.7590901  +6.6099588     1571.554     2183.566     2234.221     78.20187     156.3417     312.4659      1.418     3.44     834.7977      55.0772     243.1147        15     1.211     0.816 -44.54   0
       582    295.2925    182.4386 307.8062206  +6.6073128     20327.83     28829.75     30084.16     78.44974     156.2174      312.528      1.534     3.34     838.9595      55.0772     3000.776        45     1.463     1.013 -47.25   0
       583    730.5655    181.0427 307.6254497  +6.6224788     36565.59     50417.86     52551.84     78.07764     156.2796     312.3105      1.447     3.24     834.4733      55.0772     5736.234        49     1.424     0.976 -42.51   0
       584    678.2075    183.1241 307.6471303  +6.6198679     1090.376     1460.799     1303.586     77.95322     155.7818     312.2795      1.365     3.70     834.0247      55.0772     156.2516        11     0.951     0.797 -45.81   0
       585    561.9102    184.2494 307.6954045  +6.6155095     672.8124       813.63     1368.342      78.3259     156.0931     312.6212      1.302     3.90     832.9891      55.0772     120.6706         6     0.952     0.458 -36.13   0
       586    302.9271    181.9794 307.8030647  +6.6077589     2203.363      3714.67     4591.758     77.95322     156.1553     312.4038      1.935     5.16     838.6606      55.0772     336.5311        21     1.823     0.817 -62.63   0
       587    569.8988    183.5921 307.6921080  +6.6160486     2347.142     2292.983     2277.605     78.07764     155.9064     312.2795      0.644     0.50     833.0574      55.0772     1306.992         5     0.586     0.302 -89.42   0
       588    778.9534    181.6210 307.6053286  +6.6238579     1257.221     1921.919     1942.479     77.95322     156.2796     312.3105      1.423     3.48     834.3073      55.0772     244.6528        12     1.211     0.606 -31.82   0
       589     18.0922    181.1566 307.9214100  +6.5985168     737.9418     960.6558     1270.435      78.3259     156.2796     312.5902      1.522     4.64     844.6759      55.0772     115.5886         8     0.916     0.666 -39.55   0
       590     47.3805    178.1122 307.9093474  +6.6007603     9879.579     14376.41     15129.11     78.07764     156.0309     312.3727      1.542     3.29     844.3454      55.0772      1446.79        35     1.427     0.990 -44.59   0
       591     81.2728    176.3797 307.8953278  +6.6026168     1673.428     2402.951     1646.297     77.95322     156.1553     312.4348      1.607     3.80     843.9497      55.0772     224.4432        16     1.226     0.853 -36.10   0
       592    989.1585    175.3869 307.5182120  +6.6334506     1129.147     1701.808     1596.169     77.70377     156.0931     312.2173      1.514     3.27     831.1782      55.0772     198.3782        11     1.096     0.680 -28.00   0
       593    957.0433    174.6600 307.5315782  +6.6326794      589.597     873.6921     1162.151     78.20187     156.2796     312.5902      1.509     4.56     831.4821      55.0772     101.9771         5     0.939     0.713 -68.09   0
       594    715.4630    168.7560 307.6321372  +6.6270465     664.3378     1002.054     955.9957      78.3259     156.2174      312.528      1.697     5.23      833.761      55.0772     115.7924         6     1.259     0.615 -36.73   0
       595    564.4169    165.8646 307.6949830  +6.6231840      864.714      1196.52     1237.898     77.82859     156.2174     312.3416      1.451     4.06     832.6545      55.0772     149.4064         7     0.910     0.645 -43.19   0
       596    990.0380    161.6368 307.5183082  +6.6391570      2436.24     3540.802     4234.986     78.07764     156.1553     312.3416      1.482     3.60     830.7253      55.0772     419.4646        18     1.283     0.821 -35.44   0
       597    573.0601    159.2393 307.6916157  +6.6262089     1032.244      1454.03     1423.738      78.3259     156.2796      312.528      1.473     3.11     832.5493      55.0772     159.7845         8     0.849     0.603 -38.44   0
       598    581.2950    157.3676 307.6882578  +6.6272575     2175.142     2962.646      3199.36     78.44974     156.1553     312.5591      1.485     3.31      832.537      55.0772     337.8413        17     1.265     0.743 -40.47   0
       599    325.7005    157.2098 307.7944416  +6.6187501     1126.417     1528.102     1556.682     78.07764     155.9064     312.2795      1.369     3.74     837.6635      55.0772     199.3441        11     1.152     0.633 -40.73   0
       600    266.1519    155.4733 307.8192373  +6.6174666     33462.41     48010.52     50105.67      78.3259     156.3417      312.497      1.534     3.24     839.8143      55.0772     5124.687        52     1.477     1.055 -46.92   0
       601     11.4414    153.9697 307.9250942  +6.6095169     4827.351     7088.977     7141.427     77.82859     156.1553     312.3105      1.553     3.33     844.7545      55.0772     788.0011        30     1.412     0.969 -48.83   0
       602    697.8102    152.2198 307.6400274  +6.6332832     8856.859     12193.74     12284.18     77.95322     155.9687     312.3416      1.427     2.96      832.903      55.0772     1472.704        29     1.327     0.892 -44.37   0
       603    174.9443    153.6396 307.8571873  +6.6151573     972.4113     1361.666     932.1185      78.3259     156.3417     312.4348      1.470     4.04     840.8915      55.0772     152.5635         7     0.895     0.522 -34.89   0
       604    251.7388    150.9045 307.8253791  +6.6188685     766.5822     1233.464      1086.59     78.07764     156.3417      312.528      1.306     3.28     840.1417      55.0772     153.5936         9     0.982     0.612 -36.11   0
       605    108.6156    149.0669 307.8848949  +6.6148133     5237.134     7501.859      7184.17     77.82859     156.1553     312.3727      1.473     3.34     842.4218      55.0772     773.8317        26     1.333     0.941 -48.23   0
       606    447.8139    146.2949 307.7440825  +6.6273549     1325.735     1853.317     1788.768     78.07764     156.0309     312.3105      1.416     5.00     832.7455      55.0772     187.3915        10     1.388     0.509 -56.09   0
       607    636.4887    146.2924 307.6657020  +6.6336783     981.4611     1485.448     1730.015      78.3259     156.7138     312.5591      1.517     3.22     832.4665      55.0772     179.9108        11     1.153     0.596 -45.75   0
       608    570.7711    147.1128 307.6929755  +6.6311388     740.2703     1115.248     845.8738     78.44974     156.0309     312.3416      1.582     3.12     832.3273      55.0772     128.2142         7     0.724     0.678 -44.54   0
       609    379.1684    145.3038 307.7726326  +6.6254608     4112.064     6582.515     7038.875     78.44974     156.0931     312.5591      1.737     3.64     835.3167      55.0772     541.1898        31     1.503     1.108 -60.49   0
       610    343.7593    144.2042 307.7873792  +6.6247260      3545.88     5421.835     5769.894     77.57874     156.0309     312.2173      1.589     3.46     837.1349      55.0772     541.7855        23     1.394     0.862 -43.16   0
       611     98.1154    143.9420 307.8894302  +6.6165757     1942.426     2794.547     2833.115      78.3259     156.2796     312.5591      1.498     3.32     842.4763      55.0772     323.7771        19     1.313     0.816 -42.19   0
       612    926.5977    143.2614 307.5452813  +6.6446271     487.1174     770.2406     581.6032     77.70377     156.0931     312.1862      2.108     4.50     830.5172      55.0772     72.52643         7     1.271     0.454 -49.55   0
       613    556.2435    144.0664 307.6991133  +6.6319099     599.8432     988.1583     868.4203      78.3259     156.2174      312.497      1.610     3.40     832.2383      55.0772     115.2283         5     1.033     0.324 -47.47   0
       614    733.9794    142.0617 307.6253434  +6.6386871     669.9058     1057.227      1053.03     77.95322     156.2796     312.3727      1.767     4.14     832.4937      55.0772      95.2088         7     0.970     0.503 -44.86   0
       615    659.5328    141.7713 307.6562811  +6.6363163     842.3723     1169.278     927.2718     78.07764     156.2796     312.4348      1.467     3.98     832.3569      55.0772     121.6451         7     0.972     0.466 -77.91   0
       616    990.5241    138.3996 307.5188864  +6.6487673     1644.597     2133.721     2058.919     77.57874     155.6572     312.2795      1.342     3.49     829.3376      55.0772     269.3868        13     1.272     0.679 -44.61   0
       617    716.1336    138.7966 307.6328672  +6.6394382     567.3497     725.5422     887.0553     77.70377     155.9687     312.2484      1.283     4.01     832.3079      55.0772     98.37885         6     0.803     0.572 -51.68   0
       618    657.3510    131.9498 307.6575183  +6.6402983     6757.964     9442.281     9907.141      78.3259     156.1553     312.4038      1.470     3.04     831.9503      55.0772     1198.321        28     1.354     0.889 -43.11   0
       619    195.5473    132.9874 307.8493276  +6.6243765     6012.227     8604.146     9061.036     77.70377     156.2174     312.1862      1.518     3.34     840.3477      55.0772      887.038        25     1.306     0.919 -44.64   0
       620     78.2342    132.8129 307.8980658  +6.6205010     2208.292     3444.945     3617.643     77.82859     156.0309     312.3416      1.592     3.44     842.5457      55.0772     326.5129        19     1.316     0.846 -48.19   0
       621    834.0289    132.9171 307.5840863  +6.6458069     494.9734     821.2737     1001.877     78.20187     156.0309     312.4038      1.869     3.76     831.5878      55.0772     77.75586         5     1.027     0.395 -58.47   0
       622    805.5152    131.7669 307.5959709  +6.6453290      1164.83     1611.002     1509.279      78.3259     156.0931     312.4348      1.474     3.95     831.8886      55.0772     219.1803        12     1.283     0.616 -51.12   0
       623    609.5229    129.2255 307.6774796  +6.6398218      10333.9     14713.22     15887.86     77.95322     156.2796     312.4348      1.516     3.19     832.0593      55.0772     1532.254        38     1.469     0.975 -46.31   3
       624    613.0642    120.7260 307.6762949  +6.6434495     59166.72     82469.24     85565.55     78.44974     156.2796     312.4659      1.457     3.19     831.8719      55.0772     10119.77        66     1.489     1.033 -43.28   2
       625    243.9890    129.6232 307.8293181  +6.6273941     807.8863     1285.534     1218.167     77.95322     156.0931     312.3416      1.710     3.95     839.9877      55.0772     147.8327         8     0.960     0.781 -30.17   0
       626      7.9181    128.2092 307.9274310  +6.6200333     1133.267     1775.103      1763.34     77.95322     155.9064     310.4713      1.648     5.73     845.2316      55.0772       159.54        12     1.423     0.651 -58.01  16
       627    547.6191    128.7106 307.7032139  +6.6379608     732.3027     971.7087     1255.411     78.07764     156.0309     312.3727      1.503     2.86     831.9672      55.0772     147.3453         6     0.954     0.548 -57.66   0
       628    518.4606    124.3671 307.7154738  +6.6387769     2006.223      2680.28     2812.349     78.07764     156.3417     312.4038      1.440     3.31     832.0125      55.0772     314.3146        16     1.215     0.769 -55.08   0
       629    336.7296    124.8972 307.7909519  +6.6324610     4009.728      6468.27      7130.62     78.20187     156.4658      312.497      1.753     3.97     837.6648      55.0772     593.3715        26     1.527     0.937 -49.73   0
       630    982.9747    123.9521 307.5225079  +6.6544805     791.9232     1019.102     793.2079     77.95322     156.3417     312.3727      1.374     2.75     828.6536      55.0772     177.6891         7     0.880     0.494 -47.64   0
       631    680.0239    121.1862 307.6484616  +6.6455010     505.3031     603.1842     622.3561     78.07764     156.0931     312.4038      1.497     3.63     831.3796      55.0772     103.9689         5     1.105     0.343 -10.11   0
       632    292.0662    114.4560 307.8098589  +6.6352716     4028.927     5593.798     5892.334     78.44974     156.2174     312.4659      1.454     3.40     839.0984      55.0772     609.3293        21     1.290     0.826 -47.73   0
       633    487.7741    111.7752 307.7286469  +6.6429469     571.4427     679.3508     36.91094     77.82859     156.0931     312.3727      1.403     3.45     832.1041      55.0772     85.45331         5     0.976     0.352 -45.70   0
       634    692.1609    109.0047 307.6438295  +6.6509364     1113.858     1578.495     1398.511     77.45351     156.0309     312.2173      1.569     4.34     830.8146      55.0772     209.8214        10     1.226     0.551 -51.25   0
       635    663.3477    107.9978 307.6558338  +6.6503880      1617.74     2122.186     1989.383     77.70377     156.0309     312.0618      1.372     3.44     830.8957      55.0772     271.5044        14     1.156     0.766 -39.62   0
       636    677.4203    104.7681 307.6500962  +6.6521924     3589.101     5041.844     5089.751     77.82859     156.0931     312.3416      1.479     3.20     830.6161      55.0772     627.7631        24     1.370     0.824 -45.77   0
       637     49.5046    102.3759 307.9110315  +6.6320995     676.1078     964.8891     821.5044     78.44974     156.0309     312.3416      1.398     4.73     842.9645      55.0772     95.71503         8     1.272     0.498  87.89   0
       638      1.5366     99.7345 307.9310472  +6.6315740     541.7603     1155.362     2614.596     70.63638     127.2462     238.4226      2.921     3.14      846.078      55.0772     119.7967         5     0.819     0.581 -38.64  27
       639      1.7094     93.8927 307.9311735  +6.6339915     932.1144     2015.782     3731.639     72.40086     130.1128     241.2557      5.195     8.22     845.8567      55.0772     127.1677        21     2.273     0.830 -85.50  27
       640    419.2460     95.5652 307.7576630  +6.6473409     4479.833     6270.796     6439.278     77.95322     156.2174     312.3416      1.475     3.36     832.3073      55.0772     706.0289        24     1.368     0.830 -42.79   0
       641    873.7529     92.1675 307.5689528  +6.6639581     2388.307     3190.035      2749.04     77.95322     156.2796     312.4038      1.417     3.23     829.6061      55.0772     396.8252        16     1.184     0.762 -47.58   0
       642    891.7866     91.1399 307.5614950  +6.6649845     4460.764     6280.425     6227.524     77.70377     156.2174     312.1862      1.435     3.13     829.0602      55.0772     769.7375        24     1.310     0.879 -40.58   0
       643    571.6710     91.7471 307.6944682  +6.6540276     841.9965     1240.878     873.1716     78.20187     156.2174     312.4038      1.455     3.60     831.1868      55.0772     135.6036         8     1.017     0.537 -33.67   0
       644    603.7607     89.5683 307.6812100  +6.6560020     566.6392     637.5061     267.4033     77.95322     156.0931     312.3105      1.090     3.84     831.0901      55.0772     147.9473         6     1.106     0.472 -44.46   0
       645    583.7599     89.6133 307.6895178  +6.6553135      2114.13      2726.01     2546.694     77.82859     156.0931     312.2173      1.386     2.87     831.0901      55.0772     333.1768        14     1.102     0.739 -37.22   0
       646    229.9570     88.6106 307.8365346  +6.6438547     962.0441     1260.956     1492.766     77.82859     156.0931     312.1862      1.459     4.26     839.3394      55.0772     166.2566         8     1.060     0.628 -53.80   0
       647    382.6279     87.4503 307.7731495  +6.6494623     2062.014     2801.896     2313.789     77.95322     156.4037     312.3727      1.402     3.54      835.165      55.0772     339.9136        15     1.211     0.750 -40.28   0
       648    278.6353     82.9044 307.8165052  +6.6478466     1490.893     2176.509     2279.035     78.44974     156.1553     312.5902      1.555     4.20     838.9791      55.0772     220.7215        15     1.305     0.761 -55.18   0
       649    130.5099     84.2337 307.8779953  +6.6423166     3493.525     5059.377     5434.866     78.44974     156.1553     312.4659      1.582     3.65     839.2574      55.0772     487.4203        24     1.337     0.945 -42.42   0
       650     12.3538     82.0734 307.9271524  +6.6392298     13627.02      19799.6     21989.39     78.20187     156.3417     312.4659      1.540     3.33     844.1622      55.0772     2036.778        41     1.503     1.014 -44.78   0
       651    747.0557     81.6676 307.6219436  +6.6640592     739.2643     1236.631     1846.563     78.44974     156.1553     312.4038      1.843     3.44     829.7438      55.0772     139.9855         7     1.099     0.411 -58.12   0
       652    552.3928     81.8685 307.7028104  +6.6574602     741.9254     1113.393     615.9577     77.82859     155.9687     312.3727      1.552     3.15     830.7034      55.0772     152.9791         8     1.143     0.555 -29.31   0
       653    539.7101     81.8101 307.7080813  +6.6570593     798.1975     749.3723     196.5533     78.07764     155.9687     312.2795      1.337     4.94     830.7596      55.0772      121.301         9     1.215     0.569 -49.15   0
       654    932.6085     81.1884 307.5448694  +6.6704559     616.0328     922.3788     935.0895     77.95322     156.0931     312.4038      1.702     3.63     827.5753      55.0772     107.3708         7     1.096     0.541 -16.96   0
       655    141.8177     80.5653 307.8734220  +6.6442117     531.9155     592.7208     319.8932     77.82859     156.0931     312.2795      1.245     3.05     839.1398      55.0772      108.684         5     0.837     0.530 -53.21   0
       656    904.7510     77.6253 307.5565630  +6.6709972     492.3673     533.5375     252.2581     77.95322     156.3417     312.3727      1.238     3.81     828.2052      55.0772     88.33051         5     0.995     0.420 -83.37   0
       657    881.1700     77.9998 307.5663475  +6.6700552     780.7509     1081.407     901.1356     77.57874     156.0931     312.2795      1.395     4.35     828.8051      55.0772     144.0462         8     1.101     0.489 -38.98   0
       658    814.1473     76.8560 307.5942316  +6.6682885      7093.15     9751.699     10630.92     78.44974     156.2796     312.4348      1.399     2.95     829.2372      55.0772     1283.364        28     1.348     0.877 -45.49   0
       659    759.1575     77.2103 307.6170659  +6.6663042     3664.133     4628.601     4864.593     77.70377     156.0931     312.2173      1.320     3.18     829.5081      55.0772     575.9956        16     1.174     0.752 -47.49   0
       660    404.1941     77.5815 307.7645235  +6.6542605     1086.877     1407.905     1686.122     77.95322     155.9064     312.3105      1.285     3.12     833.3923      55.0772     211.7318         9     1.036     0.607 -54.18   0
       661    745.8775     76.8769 307.6225944  +6.6659977     695.0359     1123.002     1464.184     78.57338     156.5278      312.528      1.609     3.66     829.5858      55.0772     117.3994         6     0.934     0.435 -55.10   0
       662    521.7155     75.2635 307.7157780  +6.6591591     1190.242     1567.712     1955.557     78.44974     156.4037     312.4349      1.360     2.96     830.6304      55.0772     201.5195        10     0.982     0.682 -42.85   0
       663     52.6052     73.9632 307.9107063  +6.6439340     3599.823     5349.627     5357.417     77.45351     156.0309     312.2795      1.517     3.41     841.4862      55.0772     571.7687        22     1.350     0.879 -46.77   0
       664     37.3085     74.7523 307.9170340  +6.6430930      1041.78      1324.25      1124.66      78.3259     156.2174     312.5902      1.383     3.41     842.3254      55.0772     188.1924        12     1.121     0.724 -46.80   0
       665    414.0412     73.4161 307.7605732  +6.6563107     921.0837     1376.982     1957.601     77.82859     156.0309     312.2484      1.452     5.34     832.5453      55.0772       142.94        12     1.426     0.694 -42.71   0
       666    576.6038     70.7928 307.6931253  +6.6628441     1457.469     1956.788     1821.738     77.70377     155.9687     312.3416      1.433     3.62     830.1716      55.0772     215.5487        13     1.128     0.730 -40.28   0
       667    703.1577     67.3154 307.6406647  +6.6685165     645.6161     753.4551     600.5212      78.3259     156.1553     312.4348      1.092     3.47     829.3431      55.0772     120.5636         7     0.856     0.581 -37.98   0
       668    753.6924     64.7753 307.6197549  +6.6712555     2314.757       3220.4      3909.66     78.44974     156.0309     312.3105      1.472     2.77     829.1191      55.0772     421.6625        16     1.204     0.731 -43.67   0
       669    394.6942     64.6490 307.7689069  +6.6592810     1188.463     1762.314     1730.453     78.20187     156.1553     312.5902      1.387     4.27     834.1418      55.0772     214.2932        13     1.414     0.660 -51.90   0
       670     67.4100     65.5032 307.9048428  +6.6479253     933.2283     1562.125     1538.432     78.07764     155.9064     312.2795      1.822     4.23     840.4976      55.0772     139.4025        10     1.115     0.819 -54.05   0
       671    645.5421     64.7075 307.6646896  +6.6676651     641.0586     726.5607     1139.537     78.20187     156.2174     312.5902      1.238     4.07     829.5369      55.0772     128.8386         7     1.019     0.464 -78.42   0
       672     91.6070     63.2958 307.8948656  +6.6496513     948.1854     1538.131     1387.844     78.07764     155.9064     312.2795      1.688     3.47     839.4089      55.0772      143.387         9     1.012     0.643 -47.77   0
       673     80.4592     58.3003 307.8996659  +6.6513384     10281.12     15019.55      15299.4     78.07764     156.2796     312.6212      1.556     3.35     839.7373      55.0772     1460.144        37     1.453     1.002 -48.56   0
       674    409.6068     58.1975 307.7629294  +6.6624450     2799.918     4122.657      3643.62     77.70377     155.9687     312.3105      1.531     3.36     832.8694      55.0772     416.3753        21     1.251     0.982 -47.60   0
       675    230.6073     57.9633 307.8373012  +6.6565294     696.6076     899.4053     461.7849     77.57874     156.0931     312.2173      1.448     4.42     838.7369      55.0772     117.1592         7     1.003     0.555 -37.27   0
       676    623.2250     50.4368 307.6744423  +6.6728098     20420.27     28228.28      29099.3     77.95322     156.0931     312.2173      1.460     3.25     829.0872      55.0772      3317.32        45     1.436     0.972 -44.53   0
       677    247.2759     52.4136 307.8305642  +6.6593809     1625.131     2585.437     3408.444     77.95322     156.0309     312.3105      1.688     3.99     838.5508      55.0772     236.1577        15     1.222     0.816 -36.02   0
       678    652.8269     51.8498 307.6620962  +6.6732174     623.2589     635.3889     507.8623     77.95322     156.3417     312.4038      1.103     3.86     829.0098      55.0772     113.8152         6     0.761     0.562  26.75   0
       679    523.0316     46.4638 307.7162027  +6.6710935     5775.927     8050.498     8153.028     78.07764     156.3417     312.4348      1.478     3.25      829.244      55.0772     871.3722        25     1.289     0.915 -44.20   0
       680    241.1655     46.6902 307.8332963  +6.6615384     2185.083     3311.303     4847.076     78.44974     156.1553     312.4659      1.780     3.36     838.4818      55.0772     328.2097        20     1.339     0.858 -44.10   0
       681    610.5468     44.4718 307.6799107  +6.6748480     988.0568     1406.978     1928.476     78.20187     156.2174     312.4038      1.768     3.49       828.86      55.0772     156.2288        12     1.133     0.718 -44.91   3
       682    609.4386     40.1927 307.6805153  +6.6765776     3665.429      5068.87     5422.287     77.57874     156.0309     312.1862      1.441     3.04      828.673      55.0772     573.5882        18     1.213     0.788 -55.88   2
       683    428.5801     42.0735 307.7555914  +6.6697386     24886.57     36038.95     37454.73     77.95322     156.2174     312.4038      1.510     3.36     831.7624      55.0772      3741.27        50     1.487     1.048 -46.88   0
       684    249.1080     42.4563 307.8301399  +6.6635534      10314.9      15052.6     15790.65     78.20187     156.2174     312.5902      1.550     3.40     838.3527      55.0772     1486.041        35     1.462     0.971 -48.35   0
       685    309.0110     42.7310 307.8052442  +6.6654530     1092.755     1467.902     1945.812     77.82859     156.0931     312.3416      1.382     4.30     838.0414      55.0772     201.0664        12     1.264     0.666 -64.98   0
       686    906.4818     42.2323 307.5570333  +6.6856677     2118.405     3026.809     3539.821     78.20187     156.2174     312.4348      1.597     3.38     826.8223      55.0772     329.1443        14     1.156     0.720 -42.64   0
       687     14.5862     42.0009 307.9275835  +6.6558487      2414.06     3384.646     3555.895     77.95322     155.9687     312.2484      1.481     3.31     840.6417      55.0772     378.7657        16     1.229     0.748 -55.93   0
       688    541.8569     41.8993 307.7085355  +6.6736089     721.1616     943.5496     701.2338     78.07764     156.2796     312.6523      1.316     3.12     828.8085      55.0772     119.7507         6     0.903     0.452 -34.57   0
       689    513.6672     41.9902 307.7202442  +6.6726266     671.1613     981.6763     826.1548     77.82859     156.0931     312.3727      1.503     4.99     829.1708      55.0772     108.9819         7     1.192     0.590 -50.95   0
       690    237.0580     38.9676 307.8352640  +6.6645886     3267.798     4836.796     5191.607     78.20187     156.3417     312.4038      1.525     3.36     838.3458      55.0772     504.9545        22     1.367     0.867 -40.85   0
       691    290.2235     36.9710 307.8132441  +6.6671998     1133.009     1735.577     2420.035     77.82859     156.1553     312.3105      1.935     3.87     838.0869      55.0772     171.2399        14     1.150     0.867 -34.06   0
       692    927.1906     32.3974 307.5487596  +6.6904195         1071     1425.131      1529.63     77.70377     155.9687     312.2795      1.458     4.88     826.1314      55.0772      166.838        10     1.218     0.555 -47.70   0
       693    678.4288     31.7097 307.6521379  +6.6823895     2181.522     2783.024     2089.965     78.44974     156.0309     312.3727      1.346     3.27     828.3043      55.0772     342.6236        14     1.184     0.695 -45.65   0
       694     83.2195     31.8686 307.8994147  +6.6623436     563.4493     821.9834     589.7488     77.95322     156.1553     312.4038      1.446     4.87     838.9825      55.0772     128.7967         8     1.201     0.584 -24.67   0
       695    243.9133     26.6071 307.8328341  +6.6699222     865.1074     1123.969     1678.113     77.82859     155.9687     312.2173      1.535     3.29     838.0884      55.0772     142.4554         8     1.009     0.544 -54.23   0
       696    189.2771     27.0290 307.8555181  +6.6679108     857.4827     1042.353     778.3118     78.20187     156.3417      312.497      1.366     3.72     838.1771      55.0772     124.7108         8     0.833     0.668  50.04   0
       697    166.6716     24.5086 307.8649948  +6.6681909     11628.83     16775.54      17672.7     78.20187     156.4658     312.4659      1.546     3.19     838.1545      55.0772     1668.851        36     1.455     0.996 -43.77   0
       698    510.9060     22.7119 307.7220418  +6.6804932     3319.293     4723.555       5143.7      78.3259     156.7138      312.528      1.494     3.21     828.3185      55.0772     502.7487        24     1.406     0.849 -52.92   0
       699    698.7509   1021.3468 307.6103939  +6.2744727     1082.897       1649.8     2243.735     78.44974     151.8693     269.6422      1.578     3.97      860.787      55.0772     223.7065        11     1.291     0.574 -48.12  19
       700    713.1335     20.9423 307.6380816  +6.6879961     2194.153     3013.255     3194.341     78.44974     156.2174     312.4659      1.454     3.57     827.9725      55.0772     373.3815        16     1.273     0.722 -45.68   0
       701    449.1606     21.1753 307.7477466  +6.6790571     2108.946     3057.957     3169.466     77.95322     156.0931     312.2484      1.506     3.09     830.4404      55.0772     378.8369        17     1.224     0.845 -51.82   0
       702     67.7315     20.7208 307.9062266  +6.6664244     431.9973     500.7668      176.364     78.44974     156.4658     312.4349      1.303     4.34     838.7453      55.0772       88.776         5     0.973     0.551 -37.30   0
       703    704.2061   1018.9594 307.6082094  +6.2756408     2970.203     4521.021     5160.265     77.57874     155.9687     296.6244      1.596     3.28     860.6838      55.0772     495.7434        22     1.329     0.891 -42.04  18
       704    772.0306     18.3672 307.6136977  +6.6910290     567.7689     814.1331     196.1292     77.82859     156.0309     312.1862      1.418     3.79     827.0543      55.0772     95.52979         6     0.820     0.655 -33.35   0
       705    228.6453   1020.8524 307.8055660  +6.2589232     1409.739     1885.175     1927.421      78.3259     154.9697     275.9055      1.487     3.52     862.0721      55.0772      225.426        12     1.114     0.707 -51.66  16
       706    427.2484   1019.6269 307.7231626  +6.2660933      1020.43     1114.088     1073.647     77.95322     156.3417     290.0723      1.279     3.92     862.3586      55.0772     162.5744        10     1.103     0.641 -49.19  16
       707    719.8690   1017.9946 307.6017395  +6.2765627     1021.379     1445.595     1083.283     77.82859     155.9064     304.9825      1.342     4.11     860.5346      55.0772     163.8889        10     1.215     0.575 -50.52  16
       708    350.7961   1016.3788 307.7550096  +6.2648705     2062.435     2888.608     3026.319     77.95322     155.9687     312.2484      1.408     3.77     862.2284      55.0772     363.0706        17     1.397     0.748 -45.43  16
       709    961.0238   1013.9005 307.5017611  +6.2863047       606.41     857.9084     620.0928     78.44974     156.0309     312.2795      1.216     4.33     856.1656      55.0772     104.1752         7     1.067     0.544 -39.73   0
       710    602.1464   1010.2742 307.6508711  +6.2758129     585.1526     943.0511     872.7263     78.20187     156.2796     312.4348      1.491     4.83     860.4649      55.0772     92.08466         7     1.153     0.573 -54.12   0
       711    737.6390   1006.0115 307.5947651  +6.2821043     8467.759     12476.78     13210.04     77.82859     156.0931     312.2173      1.529     3.19     860.0322      55.0772       1211.4        33     1.456     0.990 -47.24   0
       712    533.1154   1006.5674 307.6796535  +6.2750324     4728.786     6695.364       6895.5      78.3259     156.0931     312.4038      1.497     3.30     862.0959      55.0772     691.3315        26     1.382     0.901 -47.48   0
       713    503.3801   1007.9028 307.6919528  +6.2734851     1286.525     1618.418     1166.741     78.20187     156.0931     312.2173      1.333     2.77     862.1169      55.0772     205.7212        11     0.966     0.692 -22.44   0
       714    283.4113   1005.0718 307.7833644  +6.2672774      16351.9     23810.45     26184.02     77.82859     155.9064     312.2795      1.563     3.48     861.8373      55.0772     2606.683        52     1.832     1.004 -41.88   0
       715    798.7205   1005.4399 307.5694262  +6.2843811      1179.24     1852.847     1739.854     78.20187     156.2796     312.4348      1.590     4.45     859.4719      55.0772     169.0018        13     1.282     0.764 -46.14   0
       716    407.7581   1005.6459 307.7317250  +6.2712122     1049.108     1511.516     1538.428     78.20187     156.2796     312.3105      1.700     5.14     861.9603      55.0772     154.5829        10     1.117     0.669 -42.02   0
       717    109.1414   1006.0582 307.8556740  +6.2610150     619.0245     789.8446     590.6298      78.3259     156.2796      312.497      1.245     3.76     858.5961      55.0772     118.9266         7     1.009     0.520 -31.53   0
       718    254.9286   1002.7596 307.7952664  +6.2672758     1010.786     1657.531     1485.942     78.20187     156.2796      312.528      1.553     4.03     861.6512      55.0772     167.0264        13     1.279     0.679 -29.30   0
