#   1 NUMBER                 Running object number                                     
#   2 X_IMAGE                Object position along x                                    [pixel]
#   3 Y_IMAGE                Object position along y                                    [pixel]
#   4 ALPHA_J2000            Right ascension of barycenter (J2000)                      [deg]
#   5 DELTA_J2000            Declination of barycenter (J2000)                          [deg]
#   6 FLUX_APER              Flux vector within fixed circular aperture(s)              [count]
#   9 FLUXERR_APER           RMS error vector for aperture flux(es)                     [count]
#  12 FLUX_RADIUS            Fraction-of-light radii                                    [pixel]
#  13 FWHM_IMAGE             FWHM assuming a gaussian core                              [pixel]
#  14 BACKGROUND             Background at centroid position                            [count]
#  15 THRESHOLD              Detection threshold above background                       [count]
#  16 FLUX_MAX               Peak flux above background                                 [count]
#  17 ISOAREA_IMAGE          Isophotal area above Analysis threshold                    [pixel**2]
#  18 A_IMAGE                Profile RMS along major axis                               [pixel]
#  19 B_IMAGE                Profile RMS along minor axis                               [pixel]
#  20 THETA_IMAGE            Position angle (CCW/x)                                     [deg]
#  21 FLAGS                  Extraction flags                                          
         1    178.7715     18.4829 307.8650025  +6.6680392     10968.19      16822.6     17365.26     78.54387     156.7757       313.77      1.670     4.06     842.7603     55.31807     1367.982        39     1.529     1.034  47.13   0
         2    924.3537     16.3979 307.5552539  +6.6939433     4234.003     6424.442     6795.417     78.04359     156.6508     313.4578      1.637     4.47     825.8051     55.31807     660.4092        23     1.507     0.803  49.69   0
         3    522.9031     16.6205 307.7220692  +6.6803911      2770.71     4374.194     4643.875     78.54387     156.7757     313.6452      1.629     4.21     828.6956     55.31807     366.1963        21     1.520     0.791  52.60   0
         4    725.3911     14.9243 307.6379835  +6.6878875     2044.219     3020.347     3084.948     78.29413     156.5257     313.6452      1.577     4.35     827.8151     55.31807     294.1505        17     1.302     0.779  49.64   0
         5    461.0927     15.0115 307.7478080  +6.6789778     1762.637     2966.651     2908.734      78.4191     156.6508     313.6452      1.667     5.06     830.3022     55.31807     253.5923        18     1.525     0.738  45.34   0
         6    989.2646     12.6262 307.5284061  +6.6976714     1962.452     3086.579     2850.028     78.29413     156.9006     313.7388      1.685     4.85     824.2543     55.31807     252.4859        19     1.359     0.901  39.56   0
         7    708.5568      9.0542 307.6451766  +6.6897461     7309.083     11218.32        11754     78.66844      156.963     313.8324      1.654     4.48     827.8105     55.31807     1091.897        31     1.503     0.916  49.96  16
         8    628.7515      8.2782 307.6783659  +6.6873891     3835.625     5744.127       5563.3     78.66844     157.0254      313.364      1.613     4.30     828.2088     55.31807     542.4087        23     1.449     0.859  44.04  16
         9    330.9713      7.9918 307.8021148  +6.6774975     737.5928     1207.544     1616.294     78.29413     156.7757     312.2057      2.050     4.69     840.6559     55.31807     114.1458         9     1.272     0.490  57.71  16
        10    384.4755      6.4806 307.7799332  +6.6799221     787.4992     1012.806      1219.89       78.917     157.2124     302.2291      1.589     5.04     836.3067     55.31807      114.855        10     1.298     0.649  42.57  16
        11    428.9885      4.4880 307.7615037  +6.6822420     6310.248     9753.478     10338.96     78.29413     156.7133     281.0768      1.675     4.10     831.9272     55.31807     785.7787        32     1.563     0.948  52.33  24
        12    675.8504      3.1599 307.6589663  +6.6910821     829.2862     1176.154     1480.514     78.66844     147.9053     263.8991      1.648     4.60     827.9966     55.31807     136.1879         8     1.245     0.483  48.97  16
        13    504.8396      1.7522 307.7300769  +6.6859213      834.287     1013.617     1080.932     73.12036     130.8316     242.7953      1.331     4.41     828.3819     55.31807      140.364         7     1.134     0.487  35.42  24
        14    326.0476      1.4168 307.8043830  +6.6800457      3678.08     4550.624     5338.376     69.26918     126.1058     237.4531      1.110     2.75     840.8658     55.31807     1046.326        16     1.260     0.626  -8.49  24
        15     29.9327      4.0178 307.9273368  +6.6689872      8294.09     13212.61     13551.15     78.16895     155.0801     275.5529      1.661     4.25     841.9833     55.31807       1050.6        35     1.610     0.978  50.39  24
        16     99.7334      1.1641 307.8984304  +6.6725215     1024.258     1118.399     796.1423       66.086     122.0011     233.2928      1.000     3.06     843.2779     55.31807     279.9788         6     0.908     0.369  -2.27  24
        17    121.9724   1000.1304 307.8553852  +6.2609330      541.496     732.2442     891.2131      78.4191     156.8382     313.7388      1.417     6.14     863.1585     55.31807     93.47394         8     1.495     0.709 -89.63   0
        18    716.3360   1023.6836 307.6078103  +6.2711844     3060.011     3601.839     3715.078     68.41573     124.6217     235.9223      1.043     2.80     863.6321     55.31807      796.136        11     1.052     0.523   1.58  24
        19    709.0388   1023.4258 307.6108489  +6.2710463     756.5839     680.4861     1225.287     71.08318     128.1852     239.9147      1.053     3.70     863.7993     55.31807     141.1464         8     0.981     0.592  20.50  24
        20    582.9964   1023.4115 307.6631836  +6.2668259     568.7779     1156.293     1693.764     70.80713     128.1088     239.9963      2.926     6.14     866.9183     55.31807     101.9957         9     1.704     0.623 -17.44  24
        21    572.9241   1023.3390 307.6673681  +6.2665179     2730.898     3620.534     4091.054      72.5827     129.7041     241.6228      1.328     3.49     866.8779     55.31807     430.2217        15     1.345     0.654  12.26  24
        22    431.1215   1023.8036 307.7262294  +6.2615647     1300.712     1825.442     2084.969       66.234     122.3217     233.7121      1.147     2.35     866.3879     55.31807     372.7286         6     0.877     0.380   8.32  24
        23    420.0811    999.8367 307.7316214  +6.2710867         1011     1799.606     1382.633     78.66844     157.0254     313.8012      1.789     5.92     865.7278     55.31807     131.1084        13     1.292     0.793  43.63   0
        24    811.0078    999.2360 307.5693220  +6.2844469     1097.785     1566.395      1584.11     78.04359     156.7757     313.5827      1.459     5.16     861.2609     55.31807     185.8889        11     1.218     0.618  38.64   0
        25    267.0735    996.8318 307.7952518  +6.2671814     955.5574     1455.571     1611.328     78.54387      156.963     313.8324      1.608     4.59     865.5878     55.31807     154.8101        12     1.343     0.778  44.89   0
        26    911.2073    993.4351 307.5279109  +6.2901942      7986.43      13989.9     14927.07     78.16895     156.7757      313.614      1.871     4.35     860.5111     55.31807     943.5187        40     1.698     1.130  49.16   0
        27    542.5579    992.7252 307.6810072  +6.2781357      8385.87     13034.65     14103.26     78.54387     157.0254     313.8636      1.721     4.40     865.5579     55.31807     1119.074        37     1.583     1.014  52.24   0
        28     41.2341    992.6754 307.8891587  +6.2612881      502.466     593.1572     824.5396     78.54387      156.963     313.8012      1.530     5.73       863.24     55.31807     80.70642         7     1.250     0.739 -89.43   0
        29    884.7700    989.5475 307.5390190  +6.2909147     11407.17     19289.13     21167.32      78.4191     157.0877       313.77      1.853     4.25     860.5403     55.31807     1407.506        54     1.754     1.229  44.03   0
        30   1006.4799    989.0692 307.4884967  +6.2951813     4179.505      7418.47     7969.091       78.917     157.2124     313.8012      1.922     4.46     854.7761     55.31807     535.7714        32     1.632     1.122  45.14   0
        31    597.4944    990.0969 307.6582851  +6.2810641     1283.089     2138.868      2118.63     78.66844     157.5235     313.7076      1.753     6.03     865.4167     55.31807     165.3551        15     1.415     0.745  58.65   0
        32    529.1142    988.6021 307.6867281  +6.2793863     4202.653     6840.566     7838.562     78.04359     156.5883     313.5515      1.828     4.29     865.4024     55.31807     583.7075        32     1.759     1.015  28.91   0
        33    638.4031    987.7902 307.6413765  +6.2833883     1487.738     2343.772     2628.148     78.16896     156.6508     313.6764      1.749     4.30     864.6203     55.31807     222.2285        17     1.394     0.781  54.38   0
        34     63.7797    987.4021 307.8799765  +6.2642251     971.3734     1572.402     1901.473     78.29413     156.6508     313.5827      1.700     5.82     863.0132     55.31807     123.4138        13     1.364     0.699  39.40   0
        35    481.9326    984.9811 307.7064406  +6.2792967     2129.032     3140.157     3132.169     78.29413     156.9006     313.7388      1.525     3.95     865.2885     55.31807     267.9341        20     1.325     0.918  51.97   0
        36    916.6143    977.2125 307.5262100  +6.2970716     40169.55     68282.41     73259.36     78.54387     156.6508       313.77      1.829     4.35     859.4101     55.31807     5074.807        84     1.828     1.287  49.31   0
        37    321.3216    978.3387 307.7733521  +6.2766402     423.0026      588.826     435.6777     78.79282     157.0254     313.8012      2.036     4.40     865.6249     55.31807     71.07245         6     1.387     0.397  50.49   0
        38    223.7928    975.3861 307.8139462  +6.2745767     1729.683     2570.937     2309.604     78.29413     156.7133     313.6764      1.638     4.69     863.7903     55.31807     216.0485        19     1.472     0.851  37.36   0
        39    762.6651    968.8749 307.5904153  +6.2953609     6547.922     10853.97     12090.21     78.79282      156.963     313.8012      1.833     4.34     861.1559     55.31807     784.0223        44     1.708     1.306  73.50   0
        40    622.5728    973.1010 307.6484438  +6.2889209     904.1229     1126.562     825.5907     78.79282     156.7133     313.8012      1.508     3.90     864.3124     55.31807     133.4604         8     1.140     0.484  27.60   0
        41    814.4594    970.8013 307.5688437  +6.2963000     2185.704     3433.521     3817.208     78.04359     156.7133     313.5515      1.638     4.29      860.282     55.31807     306.3235        21     1.540     0.832  45.96   0
        42    549.4675    968.3279 307.6789597  +6.2884384      869.793     1478.325     2151.879     78.66844     157.0877     313.8324      2.104     5.55     864.5397     55.31807     135.6517        11     1.652     0.646  49.15   0
        43    232.2748    967.9103 307.8106770  +6.2779481     1453.556     2354.113      2246.39     78.66844     157.2746     313.8948      1.690     4.47     863.8092     55.31807     237.7042        16     1.467     0.810  48.25   0
        44    950.9119    964.0010 307.5124114  +6.3036720     6122.103     10801.63     12130.32     77.91801     156.5257     313.5827      1.885     4.38     857.3609     55.31807      762.032        41     1.701     1.183  51.94   0
        45    196.3916    967.3845 307.8255936  +6.2769568     911.4333     1247.328     1405.554     78.29413     156.7133     313.6764      1.519     4.61     863.1722     55.31807     169.2625        11     1.213     0.838  58.98   0
        46     57.0995    965.8246 307.8834801  +6.2729063     2665.093      4287.05     4246.431     78.79282     156.7133     313.6452      1.655     3.93     862.4585     55.31807     348.1082        24     1.390     1.013  47.73   0
        47    206.7181    959.3453 307.8215776  +6.2806229     715.2658     1158.801     1307.098     78.66844      156.963     313.8636      1.843     6.27     863.1394     55.31807     121.9743         8     1.188     0.929 -73.03   0
        48    633.2709    958.1063 307.6445062  +6.2954693     719.7247      1193.31     1235.593     78.66844     157.0254     313.8324      1.796     6.20     863.5007     55.31807     91.22131         8     1.219     0.886  38.09   0
        49    924.4984    955.4642 307.5236658  +6.3063127     2026.593     3494.308     2305.317     78.66844     157.0254     313.8636      1.812     5.15     857.7473     55.31807      287.942        24     1.686     0.949  42.31   0
        50    995.4944    952.4438 307.4942861  +6.3099329     689.7841     1078.477     1303.979     78.66844      156.963     313.9572      1.635     4.23     855.5668     55.31807      98.1983         6     1.087     0.470  80.04   0
        51    784.0198    951.8817 307.5821189  +6.3030906     1229.165      1925.01     2043.827     78.29413     156.6508       313.77      1.619     4.39     860.1369     55.31807      188.681        15     1.462     0.740  37.76   0
        52    645.3900    951.4637 307.6396974  +6.2986177     4643.762     7162.403     7103.746     78.16896     156.7757     313.6764      1.675     4.26     863.0638     55.31807     660.8354        27     1.472     0.948  49.50   0
        53    257.6161    951.6831 307.8007031  +6.2854993     4488.539     6902.316     7434.828     78.29413     156.6508     313.7388      1.670     4.23      864.088     55.31807     591.5623        28     1.456     1.027  47.66   0
        54    467.6810    949.7022 307.7135470  +6.2933805     1131.165     1695.246     1763.143     78.54387     157.2746     313.8948      1.663     5.63     864.2249     55.31807     161.4352        12     1.396     0.639  46.10   0
        55     26.2684    949.1130 307.8968466  +6.2787643     2286.099     3400.743     3539.886     78.79282     157.2124     313.8636      1.575     4.18     861.7129     55.31807     272.9695        21     1.427     0.907  36.35   0
        56    877.1118    947.8484 307.5435985  +6.3078715     821.0515     1480.833     1564.574     78.66844     156.8382      313.926      1.824     4.64     858.8141     55.31807     120.4809         9     1.347     0.454  24.83   0
        57    948.6960    944.9211 307.5139714  +6.3114740     659.6696      1170.01     1341.549      78.4191     157.2124     313.8636      2.053     4.96     856.4752     55.31807     93.19177         8     1.217     0.573  46.44   0
        58    293.8974    945.3036 307.7858540  +6.2893536      924.906     1129.751     779.9768     78.66844     157.5235     313.6764      1.442     5.56     864.7233     55.31807     116.5906        14     1.262     1.063  64.38   0
        59   1001.2693    943.7819 307.4921785  +6.3137015     637.7746     1276.365     1387.728     78.16895     156.8382       313.77      2.317     6.18     855.4623     55.31807     86.28973         9     1.391     0.843  56.28   0
        60    570.2323    943.9451 307.6711585  +6.2992001     1715.653     2806.689     3259.444     78.54387      156.963       313.77      1.706     4.48      863.423     55.31807     264.9776        21     1.401     1.013  16.67   0
        61     58.7744    941.0081 307.8836244  +6.2832062     728.1194     1202.322       1624.6     78.29413     156.7757     313.6764      1.573     5.36     861.8076     55.31807     102.2765         9     1.126     0.720  68.86   0
        62    609.0719    940.2064 307.6551568  +6.3020464     1221.423     1996.984     1950.265     78.29413     156.5257     313.7388      1.678     4.22     862.9697     55.31807     157.9387        15     1.209     0.890  62.64   0
        63    289.0171    938.0098 307.7881266  +6.2922001     1440.762     2219.097     2275.108      78.4191     156.7133     313.7076      1.655     5.08      864.551     55.31807      224.228        18     1.404     1.018  45.74   0
        64    557.2257    935.8243 307.6768327  +6.3021157     578.4573     818.6487     963.1787     78.16895     156.7757     313.7388      1.328     4.32     863.1744     55.31807     104.9566         7     1.090     0.488  66.32   0
        65    756.2707    934.5130 307.5942252  +6.3093308     934.1081     1375.657     1613.138     78.79282     157.2124     313.8324      1.607     5.02     860.4091     55.31807      131.054        10     1.168     0.612  55.64   0
        66    893.6682    930.9636 307.5372901  +6.3153952     6843.917     11277.04     11945.23     78.54387     157.0254      313.926      1.768     4.29     857.3531     55.31807     928.6616        39     1.656     1.062  49.65   0
        67    131.8304    932.7162 307.8535717  +6.2890918     474.8049     565.9741     705.8024     78.66844     156.7757     313.7076      1.421     4.40     862.1501     55.31807     92.42316         5     1.274     0.432 -61.73   0
        68    429.4800    928.1539 307.7301355  +6.3009917     2337.755     3549.502      3954.54     78.66844      156.963     313.8324      1.710     3.92     863.7906     55.31807     336.9009        20     1.506     0.834  50.17   0
        69    103.2098    929.7907 307.8655541  +6.2893346     497.0707     793.7852     841.4125     78.29413     156.7757     313.7388      1.473     3.43     862.0814     55.31807     80.43903         5     0.975     0.348  46.51   0
        70    331.1953    926.3436 307.7710071  +6.2984346      9489.63     14711.81     15751.39     78.04359     156.8382     313.5515      1.674     4.09     864.0095     55.31807     1344.786        37     1.525     1.051  47.27   0
        71    251.2651    925.2368 307.8042333  +6.2962019     7225.266     11194.37     11734.19     78.54387      156.963     313.8948      1.671     4.10     863.2284     55.31807     934.3006        33     1.495     1.041  53.25   0
        72    169.6875    923.8945 307.8381511  +6.2940087     595.5268     899.7144     1442.964     78.66844     157.3991     313.8948      1.689     5.37       862.16     55.31807     107.7352         6     1.078     0.755  33.30   0
        73    579.4597    919.8412 307.6681384  +6.3094594     1217.265     1840.588     1893.126     78.66844      156.963     313.8948      1.539     4.70     862.6093     55.31807     177.8723        13     1.206     0.751  46.42   0
        74    763.7840    919.5339 307.5916087  +6.3157657     751.0649     1095.569     1495.264     78.16896     156.8382     313.7388      1.442     4.10     859.8231     55.31807     112.7737         7     0.850     0.648  76.57   0
        75    909.2699    915.9170 307.5313164  +6.3221282     950.7249     1638.748     2024.868       78.917     157.2124     313.8636      1.961     4.61     856.4468     55.31807     134.9061        14     1.404     0.892  51.43   0
        76    865.3706    914.6481 307.5495885  +6.3211834     810.2781     1283.981     1555.072     78.29413     157.0254     313.7388      1.783     6.49     858.1195     55.31807      122.437        11     1.358     0.870   4.60   0
        77    212.6504    914.5821 307.8206269  +6.2992997      502.106     840.1093     1090.214     78.16896     157.0254     313.5827      1.942     4.26     862.3743     55.31807     89.66278         5     1.207     0.428  37.48   0
        78    142.0083    915.2426 307.8499365  +6.2966473     539.7225     648.3528     403.6425     78.16895     156.7757     313.5827      1.373     3.82     862.0117     55.31807     101.4678         5     0.826     0.506  61.56   0
        79    977.6388    912.1914 307.5030504  +6.3259521     709.6046     1096.411     1076.018     78.04359     156.7133     313.5515      1.633     3.74      854.955     55.31807     119.0442         6     0.758     0.635  23.59   0
        80    746.1129    909.1235 307.5992965  +6.3194710     1725.519     2688.447     3155.149     78.66844     157.2746      313.926      1.667     4.74     860.0106     55.31807     227.7488        22     1.575     0.876  42.74   0
        81    569.3845    909.4764 307.6726711  +6.3133997     706.5579     931.9336     616.4484     78.16896     156.7133     313.7076      1.457     4.97     862.5757     55.31807      127.956         9     1.221     0.573  46.40   0
        82    976.9359    904.8032 307.5035900  +6.3289784     1208.244     2199.527     2788.602     78.04359     156.7757      313.614      2.079     5.46     854.7038     55.31807     182.7526        22     1.444     1.238  71.41   0
        83    609.5832    905.3300 307.6561183  +6.3164600     872.6577     1251.902     979.8593     78.16896     156.8382     313.7388      1.591     5.19     862.2701     55.31807     115.5463        10     1.169     0.650  37.16   0
        84    530.7827    904.6185 307.6888638  +6.3141093     1155.726      1874.85     1627.402      78.4191     156.7133       313.77      1.662     5.47     862.7576     55.31807     181.3943        13     1.489     0.651  47.11   0
        85    664.2676    902.1766 307.6335166  +6.3195956     2421.459     3586.167     3886.629     78.29413     156.9006       313.77      1.681     4.36     861.5511     55.31807      351.453        18     1.416     0.765  43.84   0
        86     60.7664    898.4144 307.8842386  +6.3008546     2955.727     4709.918     4700.505     78.29413     156.7133     313.7076      1.681     3.86     861.1108     55.31807     383.3531        25     1.522     0.932  60.18   0
        87    825.3464    898.6940 307.5667446  +6.3264296     936.6293     1369.495     1179.516     78.54387     156.9006     314.0508      1.621     4.72     858.2736     55.31807     140.3765        10     1.213     0.592  33.71   0
        88    204.1201    897.2057 307.8247560  +6.3061849     2196.243       3692.2     4047.354     78.29413     156.5257      313.614      1.815     4.19     862.2188     55.31807     327.0239        23     1.591     0.958  42.32   0
        89     78.3058    897.5347 307.8769857  +6.3018092     1919.994     2977.836     3031.744     78.66844     157.0877     313.8636      1.686     4.94     861.3312     55.31807     238.6594        17     1.409     0.783  48.33   0
        90    942.3713    897.5032 307.5181884  +6.3308363     719.1301     1120.363     971.0723     78.79282     156.7133     313.8324      1.404     3.32     855.3185     55.31807     141.4896         5     1.093     0.292  68.57   0
        91    658.8596    891.4108 307.6361245  +6.3238583      6978.49     10509.04     10912.06     78.04359     156.8382     313.5515      1.610     4.04     861.3934     55.31807     900.9658        30     1.493     0.914  46.24   0
        92    343.6609    893.6497 307.7669343  +6.3123492     912.5658     1483.623     1742.075     78.66844     156.9006     313.8948      1.876     4.77      863.726     55.31807      136.184         9     1.159     0.556  53.62   0
        93    238.2390    893.8268 307.8107030  +6.3087286     818.6259     1297.858     1027.318     78.29413     156.7757     313.6764      1.517     4.28     862.6358     55.31807     136.9998         7     1.038     0.503  62.91   0
        94    797.1786    893.2622 307.5786240  +6.3277287     600.4059     1139.683     1211.547     78.29413      156.963     313.7076      1.873     3.96     858.6716     55.31807     97.65344         6     0.957     0.469 -56.85   2
        95     18.9044    889.7206 307.9019146  +6.3030310     1331.158     1987.687     1706.341      78.4191     157.2124     313.8948      1.646     4.95     860.4828     55.31807     156.8388        14     1.183     0.845  49.90   0
        96    896.7286    887.7057 307.5374710  +6.3333541     2613.415     4269.436     4577.148     78.54387     157.0254     313.8324      1.777     4.66     856.4732     55.31807      323.845        23     1.520     0.880  50.98   0
        97     31.9224    888.0692 307.8965652  +6.3041518     1106.821      1811.43     1814.637     78.79282     157.1501     313.8012      1.742     5.75     860.6218     55.31807     141.5574        14     1.344     0.870  37.61   0
        98    341.9444    884.5591 307.7679538  +6.3160438     16655.14     25251.27     26810.12     78.54387     157.0254     313.8636      1.636     4.00     863.6797     55.31807     2182.775        45     1.548     1.044  46.10   0
        99     76.1890    885.5813 307.8782691  +6.3066718     1276.666     2107.555     2036.146     78.29413     156.6508     313.7388      1.695     5.09     861.1346     55.31807     189.2212        16     1.410     0.901  50.31   0
       100    212.9954    884.4794 307.8215007  +6.3117369     1218.942     1614.958     1476.885     78.29413     156.4631     313.5827      1.465     4.14     862.1699     55.31807     189.7582        14     1.212     0.837  19.36   0
       101    392.8989    883.3763 307.7468353  +6.3182455     707.2066     1164.758     1041.385     78.79282     156.7133     313.6452      1.516     3.46     863.0212     55.31807     141.0555         5     0.979     0.353  44.55   0
       102    419.6159    875.6494 307.7360017  +6.3223330     939.0557     1548.254     1786.604     78.16896     157.0254     313.5203      1.679     4.16     862.4787     55.31807     159.2722        10     1.184     0.620  45.76   0
       103    105.1666    875.2618 307.8665860  +6.3119084      1681.47     2586.511     2903.796      78.4191     157.0254       313.77      1.636     4.18     861.3156     55.31807     222.0148        18     1.441     0.858  44.25   0
       104    500.1193    872.2839 307.7026861  +6.3264268      690.744     1156.257     1676.886     78.54387     157.2124     313.8948      2.232     5.04     862.3166     55.31807     130.8541         8     1.212     0.991 -23.33   0
       105    673.1108    871.3136 307.6308826  +6.3326319     835.3865     1535.366     2066.056      78.4191     157.3991     313.9572      2.143     5.76      860.686     55.31807     117.4866        12     1.327     0.703  49.96   0
       106    886.8961    869.3123 307.5421715  +6.3406178     1993.218     3064.273     3191.102     78.66844     157.3369     313.8636      1.670     4.51     856.3558     55.31807     259.2258        19     1.496     0.778  50.08   0
       107    857.7224    868.9587 307.5542985  +6.3397876     2023.923     3058.726     2739.338     78.54387      156.963     313.8948      1.563     4.15     856.9307     55.31807     260.2347        18     1.365     0.811  43.27   0
       108    821.0234    868.3387 307.5695593  +6.3388152     3140.217     4972.604     5513.804     78.29413     156.9006     313.7388      1.714     4.33     857.8657     55.31807     436.2605        24     1.431     0.942  52.49   0
       109     88.6510    868.5889 307.8736694  +6.3141060     2480.677     3994.148     5001.361     78.04359     156.8382     313.5515      1.813     4.53     861.0366     55.31807     306.5881        19     1.396     0.850  37.99   0
       110    557.0093    859.7853 307.6794831  +6.3334960     339087.5     515363.6     542163.2      78.4191     156.7133     313.7076      1.624     4.00     861.9878     55.31807     44150.92       192     1.760     1.291  49.88   0
       111    451.8789    866.6883 307.7229066  +6.3271162     605.9984     1095.402       1872.3      78.4191     157.2124     313.9572      1.821     2.62     862.2363     55.31807     121.9504         5     0.762     0.409  19.78   0
       112    401.3008    862.4760 307.7440513  +6.3271551     7732.479     11806.03     12535.78     78.16896     157.0877     313.8012      1.673     4.51      862.472     55.31807     1098.695        35     1.559     1.009  50.32   0
       113    644.9155    862.7537 307.6428790  +6.3352199     1281.259     1614.468     1917.575     78.66844      156.963     313.8636      1.346     4.32     861.1363     55.31807     195.1885        14     1.292     0.743  41.06   0
       114    344.4273    860.7429 307.7677265  +6.3259581     12738.53     19259.86     20277.48     78.29413     157.0254     313.7388      1.657     4.34     863.4296     55.31807     1692.035        43     1.562     1.041  53.06   0
       115    895.0349    855.9783 307.5392392  +6.3463942     5157.978     8139.469     8657.338     78.16895     156.7757     313.5827      1.720     4.34     855.9324     55.31807     657.5714        34     1.808     1.103  19.22   0
       116    662.7975    857.0573 307.6356449  +6.3381710     3760.391     5764.182     5928.337     78.04359     156.6508     313.5827      1.668     3.93     860.5613     55.31807     493.2322        23     1.463     0.845  45.86   0
       117    734.7689    853.4786 307.6058777  +6.3420605     813.3879     1101.191     1680.715     78.54387      156.963     313.8012      1.554     3.52     858.8008     55.31807     143.8028         8     0.980     0.562  68.05   0
       118    637.6974    851.0330 307.6462708  +6.3398160     3352.922     4888.219     5229.767     78.66844     156.8382     313.9572      1.594     4.48     860.9461     55.31807     444.4351        21     1.408     0.803  46.24   0
       119    628.2198    850.3782 307.6502286  +6.3397684     1011.801     1761.463      2525.67      78.4191     156.9006       313.77      1.795     4.61     861.1335     55.31807     160.3726        13     1.336     0.834  37.74   0
       120    826.2682    850.2292 307.5679895  +6.3464662     1606.613      2397.04     3244.515      78.4191      156.963     313.8012      1.811     4.83     857.2312     55.31807     191.5593        17     1.345     0.884  53.66   0
       121    180.4847    851.2323 307.8361239  +6.3243653     494.6583     733.1968     849.0062     78.66844     156.7757       313.77      1.736     4.21     861.8455     55.31807     99.11963         5     1.003     0.504  49.26   0
       122    953.2276    848.8959 307.5153106  +6.3512639     701.1297     1150.697      1605.82     78.79282     156.7133       313.77      1.799     5.51     854.0015     55.31807     131.9156         9     1.460     0.908  38.92   0
       123    630.5944    845.6868 307.6494004  +6.3417846     2272.607     3426.426     3628.992     78.16896     156.6508     313.5515      1.701     4.52     860.9482     55.31807     346.6531        16     1.313     0.773  51.31   0
       124    914.0693    843.6944 307.5317468  +6.3521016     3115.508     5028.086     5349.688     78.54387     157.0254     313.8636      1.718     4.10     855.2396     55.31807     391.3009        27     1.579     0.938  47.38   0
       125    324.5785    844.4287 307.7765193  +6.3320246      1107.23     1555.482     1139.604     78.04359     156.7133     313.7076      1.603     5.40     863.0245     55.31807     157.6733        12     1.192     0.818  32.67   0
       126    372.2701    839.6425 307.7568767  +6.3356042     2648.418     3987.928     4328.023     78.54387      156.963     313.8948      1.649     4.37     862.5342     55.31807     393.4261        21     1.363     0.898  54.70   0
       127    852.8646    835.4421 307.5574412  +6.3534604     474.6792     775.2867     1343.059     78.66844     156.9006     313.8636      1.349     4.62     856.3402     55.31807     73.30664         5     1.159     0.523  57.34   0
       128    508.6487    829.4908 307.7005860  +6.3443775      3215.39     4900.989     5468.318     78.66844     156.7757     313.9884      1.685     4.55     860.9318     55.31807     453.2778        22     1.395     0.906  45.70   0
       129    853.0504    828.4713 307.5575981  +6.3563441     1029.453       1779.6     2537.445     78.66844      156.963     313.8636      2.006     4.95     856.1965     55.31807     156.6974        11     1.352     0.565  48.61   0
       130    573.7148    827.0503 307.6736482  +6.3475691      816.058     1133.621     1057.861     78.66844     156.9006     313.8948      1.670     5.58     860.8327     55.31807     130.7339        11     1.519     0.577  52.72   0
       131    555.4353    825.6271 307.6812871  +6.3475431     6029.328     9080.761     9968.137     78.16896     156.7133      313.614      1.644     4.20     860.8167     55.31807     907.1154        27     1.490     0.890  48.55   0
       132    562.4088    825.0718 307.6784099  +6.3480064     1288.017     2063.709     2032.815     78.16895     156.5257     313.7076      1.685     4.53     860.7758     55.31807      188.702        13     1.240     0.723  37.62   0
       133    266.9305    825.7725 307.8010878  +6.3377855     689.9498     1026.438     873.0959      78.4191     156.8382     313.7388      1.517     4.53     862.3963     55.31807     115.8661         6     1.216     0.479  45.28   0
       134    891.3444    823.8444 307.5418504  +6.3595354     1388.687     2055.256     1882.226     78.66844      156.963     313.8324      1.625     4.07     855.2789     55.31807     181.2265        13     1.195     0.805  47.54   0
       135    473.2409    824.4861 307.7154584  +6.3452541     1663.348     2450.103      2395.13     78.66844     156.9006     313.8636      1.582     4.26     860.8807     55.31807     238.2123        14     1.244     0.704  38.68   0
       136    115.1056    823.6566 307.8642044  +6.3335445     1495.221     2019.255     2255.305     78.54387      156.963     314.0196      1.481     4.87       860.33     55.31807     194.7866        15     1.295     0.766  39.87   0
       137    691.0102    822.4052 307.6250945  +6.3534207     905.7849     1240.774     1385.299     78.16895     156.7133     313.7076      1.487     5.15     859.1383     55.31807     127.8124         8     1.135     0.660  50.56   0
       138    526.1089    819.4723 307.6936728  +6.3490992     20154.78     30056.28     31683.35     78.54387     157.1501     313.8324      1.613     4.24     860.5818     55.31807     2747.244        49     1.555     1.043  51.35   0
       139    367.2477    821.0877 307.7595883  +6.3430944     806.5901     1148.804     1098.624     78.66844     156.8382     313.8948      1.495     5.54     862.1378     55.31807     132.5175        11     1.404     0.615  46.77   0
       140    939.8009    817.8035 307.5219296  +6.3636497     3791.127     5793.349     6148.846     78.04359     156.5257     313.5827      1.609     3.90     853.6979     55.31807     545.1591        28     1.593     0.887  40.88   0
       141    173.0590    818.7820 307.8403043  +6.3375097     621.6793     974.5958     600.5628     78.29413     156.8382      313.614      1.620     5.14     861.4296     55.31807     90.79797         7     1.108     0.675  14.38   0
       142     36.5368    810.0159 307.8972912  +6.3365252     1523.773     2414.744     3167.884     78.16895     156.9006     313.6764      1.904     4.09     859.7295     55.31807     224.7736        15     1.243     0.795  41.18   0
       143    318.6990    808.0616 307.7801884  +6.3468382     3224.861     4880.423     5115.135      78.4191      156.963     313.9572      1.602     3.98     862.0038     55.31807     420.2836        21     1.440     0.874  52.87   0
       144    784.2903    804.0731 307.5869729  +6.3641134     55797.25     84346.98     88718.56     78.66844     157.2124     313.8636      1.630     4.15     856.5383     55.31807     7551.661        75     1.647     1.122  46.41   0
       145    581.1552    808.8259 307.6711720  +6.3553416     415.6717     848.1289     726.6617     78.16895     157.0254     313.7076      1.288     3.50     860.2218     55.31807     94.58813         5     1.064     0.332  44.05   0
       146     18.6659    806.1765 307.9048420  +6.3375071     2195.778     3386.012      3767.96     78.29413      156.963       313.77      1.663     4.08       859.76     55.31807     271.4433        19     1.325     0.917  45.41   0
       147    722.9165    805.5709 307.6124104  +6.3614391     730.1307     785.5212     1005.327     78.66844     156.7133     313.7076      1.468     4.91     858.3441     55.31807     122.5707         9     1.279     0.534  27.51   0
       148    427.8209    803.1672 307.7350387  +6.3525279     875.6581     1210.962     1043.348     78.16895     156.7757     313.6764      1.511     5.18     861.2554     55.31807     142.3974         9     1.158     0.654  62.26   0
       149    241.5917    801.8531 307.8124178  +6.3468057     5249.498     8618.266     10808.31     78.16895     156.8382     313.5515      1.895     4.23     861.8735     55.31807     678.8414        35     1.549     1.100  50.23   0
       150    909.4974    799.3906 307.5351323  +6.3702369     8564.029     13275.45     14548.38      78.4191     156.5883     313.6452      1.712     4.37     854.1605     55.31807     1105.416        37     1.604     1.025  48.39   0
       151    712.4800    798.6642 307.6169768  +6.3639403     22229.99     34201.16     37352.37       78.917     157.0254     313.8012      1.712     4.48     858.3543     55.31807     3138.848        48     1.647     1.057  49.81   3
       152    706.2351    795.1613 307.6196881  +6.3651769     89907.74     135685.7     142418.8      78.4191     156.8382     313.6452      1.635     4.18     858.3278     55.31807     12736.79        89     1.656     1.146  53.33   3
       153    351.1325    795.9786 307.7671277  +6.3529169     20483.34     31510.43     33082.61     78.29413     156.9006     313.7388      1.629     4.04       861.48     55.31807     2626.831        49     1.574     1.066  47.77   0
       154   1010.4002    793.6414 307.4934202  +6.3759836     5069.885     8739.149     9984.775     77.91801     156.5883     313.5203      1.845     3.99     851.1696     55.31807     3094.062        18     2.240     0.355  78.94  16
       155    412.9648    793.8323 307.7415229  +6.3558818     22408.19     33998.34     35688.98     78.29413     156.7133     313.5827      1.604     4.08     861.2046     55.31807     2882.502        51     1.594     1.038  48.04   0
       156    400.3227    796.1068 307.7466961  +6.3545180     1530.621     2073.378     1591.885      78.4191     157.2124     313.8636      1.514     5.08      861.329     55.31807      210.663        12     1.235     0.642  47.86   0
       157    640.0902    795.7399 307.6471378  +6.3627204      834.702     1274.292     1849.644     78.54387     157.0254     313.8636      1.564     4.62     859.3152     55.31807     146.7679         8     1.319     0.459  48.60   0
       158    241.1203    780.4021 307.8133383  +6.3556443     753052.2      1722356      1920453     78.04359     156.4631      313.614      2.278     7.27      861.019     55.31807     62776.22       583     2.470     2.078  59.44   4
       159    906.4625    790.7664 307.5366822  +6.3736954     6807.303     10347.28     11978.82     78.54387     157.0254       313.77      1.689     4.45     854.1877     55.31807     944.3104        32     1.504     0.973  48.55   0
       160    878.9454    791.5734 307.5480830  +6.3724417     782.4476     1310.123     1282.029     78.29413     157.0254     313.6764      1.513     4.34     854.9819     55.31807     140.2665         9     1.346     0.444  40.59   0
       161    647.0122    789.6565 307.6444679  +6.3654637     6422.417     9530.805     10616.56     78.04359     156.9006     313.5203      1.601     4.17      859.048     55.31807     862.3535        30     1.481     0.913  49.23   0
       162    435.7992    787.7599 307.7322451  +6.3591559     1773.497      2623.53     2247.532     77.79224     156.7133     313.5515      1.516     4.29     860.5574     55.31807     265.0718        17     1.443     0.771  55.84   0
       163    604.4822    788.8981 307.6621556  +6.3643502     398.0409     395.0494     179.9431     78.66844     157.3369      313.926      1.521     3.83     859.6063     55.31807     91.08856         5     1.299     0.324  39.13   0
       164    160.7816    786.8133 307.8464834  +6.3502918     837.0832     1230.414     1012.642      78.4191     156.6508     313.7388      1.514     5.60      860.498     55.31807     131.4362        10     1.344     0.657  52.24   0
       165    875.1082    781.4191 307.5500174  +6.3765049     684.4507     1086.156     1122.356     78.54387     156.7133     313.6764      1.745     4.32     854.8853     55.31807     96.73499         7     1.170     0.455  49.48   0
       166    682.2697    779.9007 307.6301540  +6.3706730     2534.498     3863.155     3811.917     78.66844     157.0877     313.8636      1.628     4.77     858.2807     55.31807     386.5042        19     1.530     0.714  47.88   0
       167    600.2716    781.6073 307.6641497  +6.3672184     977.5635     1383.711     1331.668     78.16896     156.5257       313.77      1.441     5.35     859.4061     55.31807     142.1577        10     1.290     0.626  47.39   0
       168    415.9309    776.5007 307.7408757  +6.3631357     54492.43     81929.73     85883.38     78.66844     157.0877     313.8012      1.642     4.25     860.4755     55.31807     7041.421        74     1.606     1.158  48.60   0
       169    151.3809    780.4520 307.8506022  +6.3526007     973.4642     1528.563     1504.243     78.16896     157.0254     313.6452      1.666     5.39     860.0233     55.31807     131.9534        11     1.139     0.721  46.25   0
       170    126.2940    780.4666 307.8610193  +6.3517491     1203.337     1821.024     1687.419     78.54387     157.1501     313.8324      1.596     4.47     859.5422     55.31807     175.5289        14     1.294     0.806  50.19   0
       171    958.7357    778.3684 307.5153890  +6.3805613     627.5767     976.3397     1061.169      78.4191     157.0254     313.8012      1.499     3.42     852.6376     55.31807     86.45343         5     0.743     0.455 -15.85   0
       172    533.6265    775.5032 307.6920322  +6.3675013     7334.831     10658.21     11069.46     78.79282     156.7133       313.77      1.636     4.53     859.3002     55.31807     965.7189        28     1.441     0.902  43.62   0
       173    950.0956    792.9323 307.5184887  +6.3742605     2096.607     3206.132     3368.972     78.54387     157.0877     313.8324      1.618     3.87     852.9153     55.31807     289.4219        22     1.339     0.941  48.11   0
       174    450.4337    774.1511 307.7266265  +6.3652651     4419.422     6828.275     7509.351      78.4191      156.963       313.77      1.688     4.32     859.8229     55.31807     602.3218        28     1.585     0.890  47.34   2
       175    447.1267    767.7548 307.7282155  +6.3677942     2252.691       3453.2     4255.269     78.54387     157.0254     313.8636      1.677     4.26     859.6707     55.31807     319.2289        16     1.365     0.743  50.69   3
       176    778.9067    772.1956 307.5902799  +6.3770918     11826.34     17983.37     18674.06     78.29413     156.6508     313.5515      1.629     4.09      855.877     55.31807     1489.122        38     1.565     0.962  48.14   0
       177      8.2400    768.1448 307.9104591  +6.3528534      1044.73     1526.635     1173.406     78.54387     157.0254     313.3015      1.643     5.93     859.0679     55.31807     134.7853        13     1.340     0.818  59.07  16
       178    800.4480    766.2700 307.5815329  +6.3802592     1335.068      2061.48     2562.745     78.66844     156.9006     313.8636      1.628     4.57     855.0393     55.31807     197.8831        14     1.354     0.719  48.68   0
       179    144.7710    764.3384 307.8538920  +6.3590292     2967.313     4584.106     5058.425      78.4191      156.963     313.8012      1.700     4.80     859.3691     55.31807     369.3557        23     1.393     0.944  48.98   0
       180    136.6317    764.0428 307.8572819  +6.3588769     11372.01     17760.73     19354.78     78.16895     156.9006     313.6764      1.677     4.04     859.2684     55.31807     1452.991        41     1.558     1.043  45.78   3
       181    128.9708    761.4819 307.8605499  +6.3596757     3014.567     4852.411      5965.01     78.54387     156.8382     313.8012      1.900     4.28     859.0867     55.31807      408.369        26     1.519     0.978  46.28   3
       182    967.9438    765.1932 307.5120067  +6.3863077     557.1823      836.442     1152.484     78.16895     156.8382     313.5515      1.668     4.11     852.3562     55.31807     88.32697         5     1.029     0.509  33.75   0
       183    924.4376    760.8355 307.5302215  +6.3866518     6493.324     10076.27     10376.46      78.4191     156.8382      313.614      1.656     4.39     853.6072     55.31807     916.7834        30     1.566     0.905  47.07   0
       184    973.6543    760.6971 307.5097859  +6.3883546      1545.52     2202.547     2375.143     78.54387      156.963     314.0508      1.625     5.30     852.1719     55.31807     215.8641        14     1.292     0.763  33.52   0
       185    679.8707    758.3954 307.6318737  +6.3794696     1732.898     2361.795     2605.053     78.29413     156.5883     313.6764      1.542     4.06     857.7759     55.31807     249.5774        17     1.417     0.739  48.67   0
       186    566.7630    757.5159 307.6788768  +6.3760385     2394.976       3444.6     3764.003     78.66844      156.963       313.77      1.655     4.21     858.7676     55.31807     347.8832        17     1.337     0.780  48.91   0
       187    414.8437    757.1270 307.7419806  +6.3710962     1166.623     1781.268     2038.284     78.54387     157.0254     313.8636      1.734     4.36     859.6302     55.31807     160.9566        15     1.242     0.835  44.45   0
       188    128.8865    754.9103 307.8608071  +6.3623854     1948.758     2899.021     3179.423      78.4191     157.3991     313.9572      1.575     4.16     858.9246     55.31807     249.0958        18     1.265     0.888  54.39   1
       189    918.5489    752.8526 307.5329351  +6.3897502     3017.668     4588.262     4583.371     78.79282     156.8382     313.8636      1.636     4.24     853.6672     55.31807       468.69        20     1.401     0.807  48.95   0
       190    978.9709    751.9723 307.5078705  +6.3921339     1827.456     2929.459     2771.958     78.16895     156.7757     313.6452      1.611     4.38     852.0092     55.31807     270.3628        19     1.449     0.795  45.58   0
       191    948.0151    752.1439 307.5207212  +6.3910281     3173.134      4938.96     5208.772     78.04359     156.9006     313.5203      1.596     4.11     852.9417     55.31807     442.7993        20     1.447     0.774  42.61   0
       192    671.0732    752.0258 307.6357416  +6.3818040     1444.118      2172.93     2657.788     78.29413     156.8382       313.77      1.591     5.19     857.7694     55.31807     182.6066        15     1.483     0.733  47.89   0
       193    818.2670    750.3063 307.5746689  +6.3874455     1182.069     1585.331     1426.794     78.54387     157.1501     313.8324      1.492     5.28      854.571     55.31807      151.157        11     1.156     0.681  39.34   0
       194    894.0196    748.2336 307.5432775  +6.3908364     646.9433     975.6997     1118.252     78.16895     156.7757     313.6452      1.526     4.04      853.988     55.31807     108.0724         6     0.942     0.495  34.85   0
       195    243.6893    746.9725 307.8134009  +6.3695296     1681.128      2958.16      3520.93     78.79282     156.7133     313.7076      1.857     4.59     859.7189     55.31807      224.179        18     1.370     0.944  43.04   0
       196    936.6401    742.3367 307.5257744  +6.3946961     998.4299     1463.849     1196.142     78.66844     156.9006     313.8636      1.652     6.30     853.2673     55.31807     148.4435        14     1.232     0.916  58.14   0
       197    910.2469    741.4401 307.5367661  +6.3941835      1140.07     1804.385      1623.79     78.54387      156.963     313.6452      1.691     5.51     853.7211     55.31807     202.0978        15     1.412     0.924  49.60   0
       198    262.9692    741.5096 307.8055789  +6.3724336     514.3311      1068.74     1277.584     78.79282     156.7757     313.8012      1.782     3.49      859.694     55.31807     88.52277         5     1.012     0.348  45.52   2
       199    159.1207    741.9954 307.8486885  +6.3687353     708.8607     1139.785     714.0521     78.29413     156.4631     313.5827      1.464     4.34     858.6766     55.31807     112.8266         8     1.305     0.411  57.67   0
       200    963.0161    740.0431 307.5148970  +6.3965248     2464.005     3838.644     4140.476     78.16895     156.8382      313.614      1.635     4.16     852.4769     55.31807     370.7239        19     1.435     0.786  45.32   0
       201    682.4276    739.1174 307.6314603  +6.3875131     968.1179     1755.797     2358.969     78.54387     156.7757       313.77      1.850     5.57     857.2804     55.31807      143.677        14     1.670     0.717  44.96   0
       202   1004.5845    733.4010 307.4978555  +6.4006560     1706.202     2563.702     2138.093     78.29413     156.5883      313.614      1.688     4.96     851.1339     55.31807     201.4352        17     1.492     0.752  42.41   0
       203    473.8474    734.6942 307.7182332  +6.3823388     598.8638     963.0098     1711.161     78.54387     156.9006     313.9572      1.730     5.46     858.4348     55.31807     85.26837         7     1.487     0.565  39.57   0
       204    630.8866    732.7713 307.6530792  +6.3884042     758.5669     1120.708     1205.473     78.79282     156.6508     313.7076      1.397     4.24     857.7001     55.31807     140.0926         6     1.105     0.504  38.74   0
       205    805.9984    731.7543 307.5803875  +6.3946928     1112.074     1716.259     1905.956     78.04359     156.6508     313.4578      1.774     5.02      854.248     55.31807     168.0121        12     1.416     0.565  37.00   0
       206    892.1906    729.2325 307.5446750  +6.3986186     1526.254      2381.98     2275.788     78.16895     156.7133     313.6764      1.646     4.88     853.6933     55.31807     210.5206        18     1.447     0.814  57.34   0
       207    866.7881    724.7581 307.5553754  +6.3996156     1061.598     1480.894     1782.133     78.04359     156.7757     313.5515      1.561     5.40     853.9838     55.31807     143.4651        12     1.362     0.628  42.52   0
       208    849.2451    720.6503 307.5627994  +6.4007242     1514.044     2231.862     2327.128     78.79282     156.8382     313.8636      1.555     4.85     854.0201     55.31807     220.3148        13     1.202     0.721  46.14   0
       209     48.2761    719.4786 307.8954812  +6.3742921     2458.749     3916.596     4123.061       78.917     157.2124      313.926      1.734     4.28     858.1271     55.31807     346.8638        26     1.553     0.959  45.75   0
       210    112.2645    717.7606 307.8689664  +6.3771593     966.0822     1934.418     2143.736     78.66844     156.9006      313.926      2.206     6.80     857.9673     55.31807      128.297        14     1.548     0.838  71.38   0
       211    460.6572    718.4745 307.7242579  +6.3885908     652.8832     895.0577     778.8631     78.66844     156.8382     313.8012      1.625     5.13     857.9044     55.31807     108.9584         7     1.070     0.695  49.57   0
       212    703.9372    711.0383 307.6234717  +6.3998248     642.1186     907.4903     1214.076     78.66844      156.963     313.8948      1.341     4.41     856.0184     55.31807     119.3535         5     1.166     0.474  26.22   0
       213    661.0562    708.1182 307.6413791  +6.3995926     6408.079     9680.166     10460.14     78.66844      156.963     313.8636      1.598     4.02     856.5865     55.31807     853.3362        29     1.478     0.901  43.20   0
       214    607.6079    707.1493 307.6636096  +6.3981997     1316.783     2138.766     2655.942     78.16895     156.8382     313.5203      1.822     5.29     856.8939     55.31807     199.5739        14     1.397     0.664  50.65   0
       215    529.3726    707.4926 307.6960901  +6.3954321     609.5963     663.8226     355.2256     78.79282     156.7133     313.7076      1.556     5.58      857.054     55.31807     86.28882         7     1.150     0.763  36.00   0
       216    518.4536    707.8706 307.7006122  +6.3949093      668.403     1083.686     994.5104     78.54387     156.9006       313.77      1.767     4.84     857.1488     55.31807     131.4728         9     1.118     0.752  48.24   0
       217    998.0164    703.3278 307.5015919  +6.4128505     2546.922     4126.183     3991.184     78.16895     156.9006     313.7388      1.671     4.00     850.8126     55.31807     358.4287        24     1.474     0.967  57.99   0
       218    123.8980    703.7748 307.8646084  +6.3833244     3711.617     6146.971     6646.065     78.79282     156.7133     313.7076      1.765     4.03     857.6451     55.31807     497.2679        26     1.477     1.003  55.48   0
       219    634.5903    703.7588 307.6525176  +6.4005044     2142.401      3322.02     3673.534     78.04359     156.7757     313.5827      1.701     4.34     856.6155     55.31807     300.7804        18     1.324     0.908  43.83   0
       220    777.8936    700.2073 307.5931201  +6.4067738     20431.82     31010.73     33113.46     78.29413     156.6508     313.6452      1.607     4.09     854.3401     55.31807     2677.357        51     1.625     1.027  49.66   0
       221    310.2174    703.3865 307.7872447  +6.3897602     768.6899     945.9557     958.1861      78.4191     156.6508     313.7388      1.468     5.22      858.245     55.31807     113.8041        10     1.249     0.617  34.32   0
       222    246.1301    703.7000 307.8138493  +6.3874736     819.0399     1182.924     1134.302     78.66844     157.0877     313.8636      1.477     5.58     858.1653     55.31807     104.8865        11     1.033     0.851  27.79   0
       223    907.8039    699.8494 307.5391768  +6.4112701     3557.091     5343.854     6034.724     78.04359     156.7757     313.4578      1.644     3.87     852.6385     55.31807     531.8474        24     1.539     0.856  50.02   0
       224    476.7768    700.2094 307.7181791  +6.3966719     1434.365     1962.546     1932.525     78.29413     156.7757     313.6764      1.512     4.61     857.0629     55.31807     215.2421        13     1.284     0.650  52.34   0
       225    279.0659    700.2542 307.8002876  +6.3900047     680.7126     677.2875     496.5936     78.66844     156.9006     313.8012      1.404     5.05     858.2059     55.31807     95.62756         7     1.096     0.659  66.69   0
       226    505.8285    699.8828 307.7061247  +6.3977826     764.5899     1219.531     1208.562     78.54387     156.7757       313.77      1.733     4.88     856.8817     55.31807     130.8688         8     1.474     0.457  41.83   0
       227    322.4669    699.8767 307.7822760  +6.3916212     688.8732     1274.812     1060.969     78.79282     157.0254     313.8012      1.922     4.29     858.0658     55.31807     113.7287         8     1.026     0.762  65.60   0
       228    658.3954    693.0558 307.6429910  +6.4057208     6988.542     10897.58     11266.33     78.04359     156.7757     313.5515      1.679     4.22     856.1173     55.31807     966.3781        33     1.547     0.973  51.36   0
       229     86.4630    696.1827 307.8804115  +6.3851959     581.4186     1098.508     1117.891     78.16895     156.9006     313.6764      1.742     4.27     857.5184     55.31807     77.85608         6     1.082     0.481  30.82   0
       230    640.9036    694.2725 307.6502148  +6.4046320     1061.564     1738.702      1912.82      78.4191     157.1501     313.8012      1.743     4.79     856.2281     55.31807     155.9375        10     1.213     0.584  51.30   0
       231    251.4064    693.7134 307.8119955  +6.3917734     6317.549     9405.663     9982.744     78.16896     156.6508     313.5827      1.625     4.22     857.8332     55.31807     909.7282        29     1.470     0.925  45.55   0
       232    353.7175    692.9005 307.7695331  +6.3955521     791.5761     1133.579     1076.615     78.66844     157.4613      313.926      1.448     4.60     857.6954     55.31807     107.8901         9     1.173     0.661  67.19   0
       233    918.2579    685.6074 307.5353129  +6.4174987     1229.775     1960.239     2172.506     78.04359     156.8382     313.5827      1.715     5.15     851.9061     55.31807     170.8156        12     1.225     0.653  42.58   0
       234    730.2025    681.4259 307.6135590  +6.4129287     3640.786     5836.004     6584.426     78.16895     156.6508     313.6452      1.707     4.58      854.539     55.31807     472.7225        27     1.642     0.868  55.21   0
       235    685.5784    681.8217 307.6320793  +6.4112696     895.2283     1517.987     1336.512      78.4191     156.7757     313.8324      1.721     4.48      855.455     55.31807     159.9717        11     1.334     0.591  52.23   0
       236    996.4763    678.0176 307.5030804  +6.4232470     8974.213     13754.99     14294.32     78.16895     156.7133       313.77      1.666     4.17     850.3996     55.31807     1174.308        38     1.566     1.013  42.11   0
       237    934.9357    678.5355 307.5286233  +6.4209757     2373.417      3702.58     3778.452     78.66844      156.963     313.8636      1.669     4.53     851.2012     55.31807     348.1016        20     1.528     0.759  45.61   0
       238     15.7052    677.7579 307.9104198  +6.3904139     1892.093     3107.232     3757.363     78.66844     156.9006     313.9572      1.745     4.12     857.8403     55.31807     264.7075        18     1.349     0.832  45.72   0
       239    985.1431    677.7736 307.5077958  +6.4229689     504.7498     831.3931     556.7792     78.29413     157.0254     313.6764      1.658     4.54     850.5375     55.31807     87.09259         5     0.825     0.711  40.86   0
       240    549.2498    675.8464 307.6889010  +6.4091624     611.5492     742.4119     701.2579     78.66844     156.8382     313.8948      1.301     3.44     855.6663     55.31807     85.00476         5     0.985     0.347  45.64   0
       241     73.8263    672.7302 307.8864531  +6.3944501     25342.99     39757.01     42069.92     78.29413     156.8382       313.77      1.674     4.05     857.1581     55.31807     3413.538        57     1.634     1.124  47.22   0
       242    534.9450    673.7137 307.6949140  +6.4095625     2211.277     3230.653     3119.204     78.66844     156.9006     313.9884      1.564     4.08     855.6444     55.31807      312.089        17     1.317     0.785  50.39   0
       243    503.8161    670.9178 307.7079367  +6.4096712     1465.359     2156.265      2117.52     78.29413     156.6508     313.7076      1.521     4.66     855.7546     55.31807     232.3666        16     1.502     0.765  53.23   0
       244    924.4824    669.7125 307.5332611  +6.4242682     1067.145     1593.239     1451.467      78.4191     157.1501     313.8948      1.565     4.85     851.1581     55.31807     182.6669        10     1.240     0.537  38.36   0
       245    719.7640    665.0606 307.6184448  +6.4193343     3545.022      5324.95     5549.828     78.66844      156.963     313.8012      1.605     4.18     854.2783     55.31807     484.7502        27     1.705     0.898  48.71   0
       246    544.0568    667.2357 307.6913479  +6.4125424     990.0138     1375.397      1145.14     78.54387      156.963     313.8636      1.432     4.61     855.4444     55.31807     142.0761        10     1.012     0.686  58.76   0
       247    741.7710    663.2350 307.6093659  +6.4208254     4135.846     6280.477     6177.896     78.29413     156.7133     313.6452      1.629     4.22     853.8776     55.31807     582.0643        26     1.478     0.867  52.61   0
       248    573.2503    661.3006 307.6794230  +6.4159723     3292.121     4995.349     5350.618     78.66844      156.963     313.9884      1.642     4.37     855.3181     55.31807      452.759        23     1.478     0.866  46.14   0
       249    409.4621    661.7562 307.7474326  +6.4102823     1204.096     2003.334     2076.745     78.66844     156.9006      313.926      1.718     5.69     856.6208     55.31807     175.5307        13     1.464     0.623  50.76   0
       250   1014.6863    659.4224 307.4961406  +6.4315315     4875.843     7561.358     7891.638     78.66844     156.7757     313.7076      1.695     4.11     849.2617     55.31807     675.2892        29     1.485     0.995  45.30  16
       251    980.1055    658.4329 307.5105369  +6.4307842     8146.239     12277.44     12809.96     78.79282     156.8382      313.926      1.614     4.31     849.7937     55.31807      1136.04        33     1.523     0.964  46.23   0
       252    317.4331    660.2003 307.7857062  +6.4078292      1359.13     1951.515     1372.385     77.91801     156.7757     313.5827      1.542     5.44     856.5698     55.31807     185.6984        14     1.313     0.700  46.85   0
       253    233.7547    660.5392 307.8204472  +6.4048724     1928.542     2638.244      2481.82     78.54387     156.9006     313.8948      1.544     4.05     856.7371     55.31807     268.2144        16     1.248     0.806  45.82   0
       254    533.6561    658.3154 307.6959681  +6.4158753      639.216     849.8961     468.9133     78.66844      156.963     313.9572      1.345     4.60     855.3393     55.31807     98.49377         7     0.911     0.659  65.78   0
       255    699.8598    656.9081 307.6269859  +6.4220324     934.3171     1637.639     1856.745     78.54387     156.9006      313.926      1.873     5.61     854.4364     55.31807     155.7552        11     1.450     0.632  42.83   0
       256     92.0508    655.4681 307.8794687  +6.4021900     710.4874     1083.415     1663.039     78.54387     156.8382       313.77      1.796     4.51     856.7518     55.31807     132.5547         7     1.060     0.546  53.66   0
       257    425.5944    652.6026 307.7410413  +6.4146030     2954.229     4434.369     5176.869     78.04359     156.6508     313.6452      1.684     3.89     856.0846     55.31807      450.188        23     1.397     0.891  45.41   0
       258    138.5485    651.6000 307.8602891  +6.4053545     24216.11     37158.43     38786.25     77.91801     156.4631      313.364      1.676     4.30      856.543     55.31807     3434.373        49     1.570     1.069  47.76   0
       259    807.0592    652.3218 307.5826160  +6.4275172     1190.399     1761.724      1620.37     78.79282      156.963       313.77      1.661     4.48     853.2975     55.31807     184.2928         8     0.979     0.582  55.38   0
       260    358.0157    647.0305 307.7692962  +6.4146308     807.6716     1396.569     1311.666     78.29413     156.7133       313.77      1.792     5.48     855.8178     55.31807     118.4395        10     1.453     0.582  44.20   0
       261    599.6337    646.2118 307.6689733  +6.4230862     573.1212     700.1948     450.8093     78.16896     156.7133     313.6764      1.624     4.28     854.9986     55.31807     109.7064         5     1.050     0.622  26.75   0
       262    975.0039    641.3218 307.5132299  +6.4376770     6894.989     11285.18     11953.88     78.29413     156.4631     313.6452      1.738     4.34     849.1278     55.31807     948.4106        39     1.735     1.009  46.05   0
       263     19.4019    640.4570 307.9101478  +6.4059352     1176.889     1943.217      2052.52     78.04359     156.6508     313.5827      1.694     4.36     857.3754     55.31807     211.6255        14     1.414     0.784  50.60   0
       264    568.5506    636.5443 307.6822088  +6.4260335     49416.16     73174.27     76982.93     78.66844      156.963     313.8948      1.654     4.50     854.8821     55.31807     7309.747        74     1.609     1.145  49.04   0
       265    932.9569    637.9835 307.5308062  +6.4376491     687.9733     1007.433     210.9692     78.16895     156.8382     313.5827      1.325     4.21     850.0352     55.31807     120.1292         7     0.980     0.515  39.58   0
       266    528.0316    636.7238 307.6990317  +6.4245991     610.1625     853.5021      786.889     78.54387     157.0254     313.8012      1.472     4.31     854.9783     55.31807     95.75958         7     1.167     0.453  54.68   0
       267    211.6454    637.1523 307.8304199  +6.4137812     647.7999      1004.35     921.5234     78.66844     156.8382     313.8324      1.606     4.35     856.2128     55.31807     103.4982         6     1.057     0.629  -4.04   0
       268    793.4073    636.2565 307.5888261  +6.4336916     673.9981      814.759      1023.67     78.04359     156.8382     313.5827      1.388     3.54     853.1387     55.31807     97.98218         5     0.800     0.453  73.22   0
       269    176.0140    633.0593 307.8453564  +6.4142702     2743.153     4275.465     4220.054     78.04359     156.9006     313.5515      1.611     3.97     856.1047     55.31807      332.451        20     1.413     0.826  50.98   0
       270    498.6302    633.3331 307.7113573  +6.4250112     586.1054      955.816      783.545      78.4191      156.963     313.8012      1.866     5.68      854.972     55.31807     94.95074         7     1.430     0.635  69.76   0
       271    979.7097    633.2920 307.5115447  +6.4411489     671.6333     1031.236     1068.017     78.66844     157.4613      313.926      1.661     3.98     848.6411     55.31807     105.6382         8     0.966     0.609  19.43   0
       272     68.3108    627.1924 307.8902850  +6.4130606     1314.342     2075.684     1743.633     78.16895     156.6508     313.5827      1.703     5.08     856.6884     55.31807     173.2563        17     1.380     0.880  38.43   0
       273    465.8206    620.3184 307.7254230  +6.4292812     62734.69     95335.23     100125.1      78.4191     156.6508       313.77      1.642     4.11      854.679     55.31807     8224.312        77     1.636     1.122  48.96   0
       274      9.6745    622.1010 307.9148093  +6.4131836     1695.257     2622.314      2847.41     78.16895     157.0877       313.77      1.666     4.36     857.2636     55.31807     222.8215        18     1.376     0.839  54.25   0
       275    651.5688    617.2799 307.6483766  +6.4367711     771.2641     1069.236     909.6374     78.54387     156.9006     313.8012      1.476     5.29     853.8708     55.31807     116.6239        10     1.208     0.655  35.22   0
       276    140.2842    615.4423 307.8607913  +6.4203377      1493.46     2106.376     1666.616     78.66844     156.9006     313.7388      1.484     4.20     855.8953     55.31807      194.512        14     1.227     0.733  35.36   0
       277    419.4192    612.7677 307.7449498  +6.4308385     981.3713       1275.7     1378.238     78.16896     156.7757     313.6764      1.477     5.07     854.2341     55.31807     124.2545        12     1.204     0.681  45.98   0
       278    611.9533    611.9518 307.6650101  +6.4376415     749.0348     1102.512     956.4442     78.66844     156.8382     313.8324      1.617     4.57     854.2462     55.31807     135.5558         7     1.108     0.536  37.23   0
       279    311.2386    609.6105 307.7899873  +6.4285030     2198.361     3565.862     4472.388     78.04359     156.7757     313.5515      1.868     3.93     854.3503     55.31807     330.4072        20     1.291     0.984  51.16   0
       280    463.4163    608.3235 307.7268261  +6.4341517     840.6351     1267.196     1886.099     78.16896     156.7133     313.7076      1.514     4.59     854.3055     55.31807      143.733         9     1.277     0.469  39.53   0
       281    737.9155    603.8473 307.6129643  +6.4452106     5387.259     7984.144     8274.513     78.66844      156.963     313.8636      1.571     4.09     852.5808     55.31807     736.7061        26     1.445     0.880  44.02   0
       282    791.4308    599.1755 307.5908934  +6.4489320     14194.86     21409.75     21460.42     78.16895     156.8382     313.6452      1.618     4.13     852.4276     55.31807      2153.84        43     1.544     1.032  48.01   0
       283   1008.4863    599.4719 307.5007264  +6.4560714     938.4974     1442.178     1265.237     78.79282     157.2124     313.8324      1.765     4.81     846.3756     55.31807     149.0427        10     1.315     0.499  43.50   0
       284    533.6115    599.0580 307.6979834  +6.4403342     1108.372     1910.835     2156.353     78.04359     156.9006     313.5515      1.693     4.69      854.101     55.31807     180.0938        12     1.310     0.636  41.95   0
       285    615.2050    597.1388 307.6641582  +6.4438652     2858.598     4331.315     4337.726     78.16895     156.7757      313.614      1.591     4.25     853.7427     55.31807     420.6781        20     1.405     0.839  54.36   0
       286     37.1206    598.3242 307.9042159  +6.4239240     674.3644     976.9954     826.4354       78.917     157.2124      313.926      1.808     4.31     856.7946     55.31807     105.7667         7     1.227     0.431  40.65   0
       287    932.0814    593.2282 307.5326720  +6.4560944     1004.344     1553.882      2093.56     78.54387     156.7757     313.8012      2.151     5.22     848.7038     55.31807     140.0969        15     1.497     0.860  45.55   0
       288    373.5915    590.7702 307.7647260  +6.4383776     879.0497     1371.645     1137.972     78.16896     156.7757      313.614      1.553     4.86     853.4821     55.31807     146.9397        12     1.356     0.595  51.51   0
       289    227.7786    590.8470 307.8252846  +6.4334382     1250.951     1811.478     1739.112     78.29413      156.963     313.6764      1.527     5.34     855.0703     55.31807     182.6829        13     1.415     0.678  42.24   0
       290    191.7672    591.9899 307.8402025  +6.4317533     647.0156     1171.245     1547.911     78.16895     156.7133     313.6764      2.072     3.25     855.2361     55.31807      108.058         5     0.874     0.660 -67.99   0
       291    867.3766    582.3585 307.5599133  +6.4584165     2774.172     4148.665      4490.67     78.29413     156.7757      313.614      1.642     4.75     850.0087     55.31807     426.8379        18     1.397     0.724  51.04   0
       292    162.7470    582.2047 307.8525862  +6.4348144     756.9946     1337.797     1963.487     78.04359     156.7133      313.489      2.290     5.54     855.1537     55.31807     108.7702         9     1.413     0.613  33.45   0
       293    826.2188    579.9245 307.5770907  +6.4580435      2492.37     3881.961     3614.639     78.16895     156.7133       313.77      1.576     4.08     851.1535     55.31807     411.4596        22     1.502     0.835  49.50   0
       294    797.0743    575.8029 307.5893349  +6.4587689     2415.177     3826.883     5046.748     78.16895     156.4631     313.7076      1.792     4.00     851.7939     55.31807     359.1299        18     1.343     0.781  43.42   0
       295    806.7960    571.0350 307.5854570  +6.4610626     159120.5       239484     252351.7     77.79224     156.8382      313.614      1.598     4.05     851.4646     55.31807     21906.42       134     1.728     1.195  50.62   0
       296    254.2389    574.7125 307.8148400  +6.4409892     7846.461     11718.61     11684.05     78.66844     156.9006     313.8636      1.615     4.14     854.3634     55.31807     1106.625        31     1.553     0.915  45.67   0
       297    188.4119    569.2454 307.8423651  +6.4410285      57485.7     89629.77     95166.57     78.16896     156.7757     313.5515      1.706     4.16     854.7595     55.31807     7892.213        83     1.672     1.210  48.38   0
       298    737.1514    571.7832 307.6143600  +6.4584207     640.2556     1178.717     1611.612     78.16895     157.0254      313.614      3.003     4.87     851.8397     55.31807     98.35864         8     1.025     0.655  56.99   0
       299    112.3371    565.4003 307.8740914  +6.4400512     6088.777     9627.811     10125.25     77.91801     156.7133     313.5827      1.732     4.13     855.1762     55.31807     885.6037        29     1.478     0.982  44.98   0
       300    977.7021    562.8771 307.5147409  +6.4701485     1380.118     2323.191     2185.984     78.29413     157.2124     313.8636      1.834     4.96      846.556     55.31807      208.105        14     1.416     0.700  50.85   0
       301    998.1908    562.0634 307.5062577  +6.4711693     649.2728     918.2834     831.1705     78.16895     156.7757     313.6452      1.511     3.93     846.0655     55.31807      125.358         5     1.014     0.437  41.74   0
       302    226.8544    561.0231 307.8266765  +6.4457175     700.0211     1029.706     1323.423     78.16895      156.963     313.6452      1.496     3.81     854.2628     55.31807     116.0634         6     1.010     0.412  50.06   0
       303    843.2852    558.4072 307.5707247  +6.4674969     4371.366     6614.433     6790.233     78.29413     156.6508     313.6764      1.619     4.20     849.9764     55.31807     714.2489        24     1.457     0.885  47.52   0
       304    361.8063    556.4313 307.7707800  +6.4521555     16869.81      26212.9     27382.71     78.04359     156.7757      313.614      1.675     4.12     852.6662     55.31807     2247.946        47     1.593     1.068  49.93   0
       305    452.0426    556.7717 307.7332886  +6.4550490     765.6677     1158.215     1684.705     78.29413     157.0254     313.7076      1.797     5.92     852.6853     55.31807     102.0987        10     1.379     0.715  47.86   0
       306    163.5471    555.2420 307.8531659  +6.4459707     1916.134     2811.429     3026.141     78.66844     157.0254     313.8636      1.657     4.36     854.6888     55.31807     258.6993        17     1.440     0.737  48.49   0
       307    797.2738    551.5807 307.5900662  +6.4687742     6043.792     8729.024     9178.686     78.29413     156.9006       313.77      1.585     4.62      851.137     55.31807     910.6052        28     1.505     0.845  48.66   0
       308    528.1829    551.2905 307.7018480  +6.4598694      6323.54     9792.205     10549.21      78.4191     156.7133     313.7388      1.671     4.03     852.3916     55.31807     971.9558        32     1.575     0.917  45.95   0
       309    169.3573    552.7670 307.8508364  +6.4471882     549.6531     936.1916     1496.987      78.4191      156.963     313.6764      1.554     2.52     854.6058     55.31807     101.5519         5     0.719     0.447 -72.08   0
       310    100.8348    552.4983 307.8793053  +6.4449889     896.8899     1377.246      1697.26     78.66844     156.8382     313.9572      1.838     5.94     854.9805     55.31807     142.7618        11     1.304     0.762  57.55   0
       311    386.4046    547.9405 307.7608497  +6.4564876     1483.338     2096.508     2110.275     78.04359     156.8382      313.614      1.571     4.27      852.489     55.31807     220.4979        14     1.331     0.722  54.30   0
       312    175.2403    544.4700 307.8486736  +6.4508112     6738.639     10215.69     10588.29     78.54387      156.963     313.8948      1.658     4.15     854.3642     55.31807     930.9151        30     1.521     0.933  48.82   0
       313    572.8480    544.3258 307.6835303  +6.4642440     2267.522     4082.109     4416.726     78.54387     157.0254     313.8636      1.909     4.15     852.0747     55.31807     302.3752        25     1.441     1.136  18.70   0
       314    856.3104    544.6503 307.5657766  +6.4736117      560.798     707.5235      546.655     78.66844     156.7757     313.9572      1.265     3.94     849.1615     55.31807     93.51831         6     0.881     0.503  41.97   0
       315    814.1384    543.9557 307.5833173  +6.4724865     1413.631     2163.655     2408.649     78.66844     156.9006     313.9572      1.626     4.37     850.4764     55.31807     212.1735        14     1.366     0.656  42.62   0
       316    270.4115    540.8987 307.8092654  +6.4554912     86056.02       133445     140153.9      78.4191     156.7133      313.614      1.677     4.18     853.3541     55.31807     11742.95        89     1.670     1.185  47.80   0
       317     46.7846    543.1080 307.9020720  +6.4470415     4844.382      7721.88     8189.862      78.4191     156.7757     313.7076      1.698     4.24     856.3765     55.31807     624.6258        29     1.628     0.901  50.00   0
       318    559.7509    538.2044 307.6891767  +6.4663311     810.0775     1168.569     1297.342     78.04359     156.7757      313.489      1.596     5.13     851.7528     55.31807     114.2165        10     1.096     0.680  48.49   0
       319    254.3027    535.9828 307.8161223  +6.4569779     1385.741     2015.898     439.0604     78.54387     156.7757      313.614      1.614     4.37     853.2038     55.31807     192.6765        14     1.175     0.804  46.38   0
       320    969.8315    534.6915 307.5189560  +6.4815202     1534.134     2300.417     2349.829     78.79282     156.7757     313.8636      1.593     4.29     846.0276     55.31807     237.8036        14     1.386     0.663  44.32   0
       321    793.5366    533.4371 307.5922284  +6.4761385     16671.25     24145.13     25209.73     78.66844      156.963     313.8324      1.611     4.27     850.5701     55.31807     2585.225        37     1.516     0.940  50.15   0
       322    497.1749    531.7603 307.7153859  +6.4668897     40184.37     66120.74     71291.73     78.29413     156.7757      313.614      1.760     4.36     851.6914     55.31807      5259.53        79     1.789     1.264  38.53   0
       323    647.9222    530.5143 307.6528118  +6.4724643     888.4175     1493.446     1838.815     78.66844     157.2746      313.926      1.726     4.01     850.9963     55.31807     144.8277         8     1.079     0.547  35.61   0
       324    209.6512    528.1287 307.8349337  +6.4587158     1756.162     3006.873     3290.403     78.54387      156.963     313.8636      1.818     4.06     853.4012     55.31807     229.3145        19     1.330     0.939  55.53   0
       325     45.4315    528.4545 307.9031302  +6.4530443     1193.925     1893.314     1897.829     78.54387     157.0254     313.8012      1.695     5.47     856.4041     55.31807      147.903        12     1.195     0.728  53.41   0
       326    667.3340    526.8107 307.6448733  +6.4746441      1381.19     1964.114     2115.828     78.16895     156.7757     313.6764      1.606     4.72     850.6481     55.31807      201.848        14     1.408     0.662  36.35   0
       327    657.1841    526.7455 307.6490915  +6.4743306     3000.344     4726.419     5328.536     78.04359      156.963     313.5515      1.703     3.92     850.7469     55.31807     447.2377        23     1.421     0.941  39.47   0
       328     96.0017    528.1144 307.8821380  +6.4548907     581.4811     924.5687     958.3821     77.91801     156.5883     313.5515      1.636     3.62      854.827     55.31807       111.03         6     0.922     0.450  37.79   0
       329    719.3397    525.8005 307.6233052  +6.4768047     1228.699     1819.246     1272.411     77.91801     156.7757     313.5203      1.565     4.34     850.5541     55.31807     190.9437        13     1.258     0.671  50.98   0
       330     76.2761    524.0192 307.8904694  +6.4559157     728.5864     1204.854     1435.961     78.29413     156.6508       313.77      1.638     4.21      855.433     55.31807     139.8682         7     1.339     0.377  56.30   0
       331    394.7738    522.3553 307.7582369  +6.4673301     1714.523     2699.033     2865.176     78.16896     157.0254     313.7388      1.695     4.39     851.1205     55.31807     226.7084        18     1.346     0.865  48.36   0
       332    141.4941    519.2253 307.8635438  +6.4600939     25956.86     39632.16     41713.23     78.79282     156.7133     313.6764      1.677     4.23     854.0945     55.31807     3424.617        53     1.615     1.070  49.09   0
       333    326.2788    520.5944 307.7867465  +6.4657528     4006.138     5800.495     6315.137     78.29413     156.4631      313.614      1.610     3.99     851.3514     55.31807     537.9539        24     1.407     0.897  49.50   0
       334    869.3234    519.3678 307.5612204  +6.4844835      1689.63     2460.305     2657.747     78.54387      156.963       313.77      1.540     4.18     847.7603     55.31807     281.2226        17     1.414     0.748  43.12   0
       335    506.5106    520.1373 307.7119000  +6.4720010     2128.557     3363.912     3746.645     78.66844     157.0877     313.8948      1.696     4.48     851.1025     55.31807     284.9736        21     1.437     0.894  36.01   0
       336    106.6971    517.4810 307.8780556  +6.4596406     2649.783     3956.086     4047.662     78.54387     157.2746     313.8636      1.626     4.06     854.5956     55.31807     354.1281        22     1.420     0.845  53.54   0
       337    343.3841    515.5101 307.7798134  +6.4684270     1152.392     1604.376     1593.789      78.4191     156.7757     313.6764      1.522     3.77     850.8752     55.31807     177.3073        12     1.080     0.738  37.41   0
       338    967.1132    513.9255 307.5207820  +6.4900013     5142.113     7585.008      7400.97     78.79282     157.2746     313.8948      1.550     3.73     845.5403     55.31807     724.7322        28     1.484     0.902  42.64   0
       339    540.2354    506.4130 307.6983541  +6.4787988     1508.033     2205.738     2441.632     78.16896     156.7757     313.6452      1.552     4.30     849.9869     55.31807     201.1561        13     1.227     0.684  55.41   0
       340      5.7718    503.5568 307.9204457  +6.4619826      24776.8     38450.92        40048     78.29413     157.0254     295.4461      1.684     4.05     857.5828     55.31807     3294.729        53     1.601     1.093  48.20  16
       341    438.5218    500.3842 307.7408067  +6.4778701     42666.79     64898.61     68327.69     78.29413     156.7133     313.6764      1.687     4.30     850.1502     55.31807     5968.827        64     1.612     1.123  47.31   0
       342    646.5861    500.1352 307.6543895  +6.4849595     11902.49     18071.42     18843.19     78.16895     156.7757       313.77      1.637     4.15     849.7571     55.31807     1693.143        40     1.550     1.015  46.89   0
       343    286.6454    500.4180 307.8038903  +6.4727470     791.8665     1472.827     1481.694     78.29413     156.8382     313.5827      1.872     5.87     850.2641     55.31807     116.7456        12     1.222     0.876  31.99   0
       344    203.6788    497.9327 307.8384353  +6.4709787     18811.29     30579.53     32270.82     78.79282     157.0254     313.8012      1.719     4.23     852.4414     55.31807     2512.471        54     1.734     1.104  46.55   0
       345    980.5561    498.5475 307.5157139  +6.4967986     1052.825     1646.671     1695.294     78.66844      156.963     313.8324      1.622     4.29     844.7598     55.31807     177.0543        13     1.282     0.770  60.12   0
       346    169.4812    498.9019 307.8526068  +6.4694262     1545.923     2286.908     2294.429     78.54387     157.3369      313.926      1.578     4.81     853.0695     55.31807     206.4508        16     1.383     0.827  52.40   0
       347    820.5638    497.9957 307.5821928  +6.4916734     995.3121     1481.915      1343.99     77.79224     156.7133     313.6452      1.601     5.75     848.6641     55.31807     153.3375        14     1.413     0.660  52.92   0
       348    909.0884    497.9174 307.5454227  +6.4946686     766.1169     1199.908     1530.803      78.4191     157.1501     313.8636      1.483     4.39     846.4393     55.31807     143.1409         8     1.081     0.507  49.63   0
       349    568.3206    496.8591 307.6870100  +6.4836854      2684.87     4051.067     4487.702     78.79282      156.963       313.77      1.644     4.21     849.5279     55.31807     403.4508        20     1.454     0.817  40.68   0
       350    942.2410    494.1114 307.5317789  +6.4973487     4821.016     7281.636     8064.731     78.66844     156.9006     313.8636      1.626     4.14     845.7343     55.31807     712.6136        25     1.432     0.894  43.11   0
       351    615.3202    492.4614 307.6676353  +6.4870782     6678.558     9859.549     10356.41     78.79282      156.963     313.8324      1.645     4.18     849.5102     55.31807     1017.988        31     1.460     0.972  45.06   0
       352    103.1744    493.0771 307.8803447  +6.4695949     1079.352     1594.821     1940.143     78.29413     156.9006     313.8012      1.507     5.10     854.5135     55.31807     139.7462        10     1.280     0.574  48.37   0
       353    527.4844    483.6974 307.7044162  +6.4877471     7452.833     11178.59     11716.61     78.66844     157.3369     313.8948      1.639     4.20     849.0571     55.31807     1066.097        30     1.488     0.949  48.79   0
       354    403.3680    484.9749 307.7559287  +6.4830488     760.5725     1334.335     2089.155     78.16895     156.7757     313.6764      1.960     4.83     849.0334     55.31807      113.451         8     1.193     0.554  49.98   0
       355    373.5422    483.7634 307.7683584  +6.4825458     2684.167     4043.073     4088.708     78.66844      156.963     313.8324      1.639     4.06      848.977     55.31807     359.3271        19     1.409     0.797  46.02   0
       356    964.8034    486.4557 307.5226634  +6.5012634     3499.444       5179.3     5139.974     78.04359     156.7757     313.5203      1.600     4.03     844.8682     55.31807      504.537        23     1.551     0.776  47.54   0
       357    884.0295    479.6122 307.5564469  +6.5013864     3270.253     5097.321     6081.686     78.16895     156.7133     313.7388      1.728     4.00     846.1386     55.31807     435.2932        24     1.501     0.839  45.87   0
       358    232.2420    479.0649 307.8272092  +6.4797290     690.3353     916.5585     879.5302     78.66844     156.9006     313.8948      1.451     4.31     851.0798     55.31807     114.9423         7     0.872     0.606 -69.94   0
       359    891.4456    474.1446 307.5535499  +6.5038915     2215.575     3221.421     3605.073     78.66844      156.963     313.8324      1.601     4.37      845.772     55.31807     298.3396        17     1.386     0.791  58.25   0
       360    931.0161    473.5864 307.5371308  +6.5054457     1456.862     2246.285     1989.385      78.4191     156.6508       313.77      1.611     4.22     845.4166     55.31807      208.363        16     1.342     0.771  32.10   0
       361    110.4682    473.6120 307.8779740  +6.4778754     650.4487     1033.656     1105.157     78.16896     156.8382     313.7388      1.725     4.73      853.995     55.31807     89.97894         8     1.207     0.525  49.45   0
       362    715.3530    469.9705 307.6268395  +6.4997169     2765.784       4183.9     4644.562     78.29413     157.0254     313.7388      1.593     4.40     848.1873     55.31807     391.6793        18     1.370     0.782  48.07   0
       363    386.2744    468.0808 307.7635991  +6.4894474     3684.427     5743.158     6428.864       78.917     157.2124     313.8948      1.722     4.10     848.4334     55.31807     507.2057        24     1.472     0.881  46.95   0
       364     77.0705    468.7321 307.8920112  +6.4787631     1875.932     3032.483     2761.254     78.66844     157.0877     313.8012      1.733     4.39     854.8383     55.31807     258.0436        19     1.409     0.829  53.61   0
       365    426.4142    467.9772 307.7469293  +6.4908399     1013.831     1597.055     1859.169      78.4191     156.7757     313.7388      1.771     5.69     848.5234     55.31807     185.6556        12     1.511     0.604  37.51   0
       366    776.7044    461.2961 307.6016457  +6.5053535     16680.06     24678.26     26197.65     78.66844     157.5856     313.6764      1.580     4.20     847.4948     55.31807     2357.599        40     1.543     0.943  49.98   0
       367    296.3394    461.3954 307.8011820  +6.4891808      2637.17     4174.442     4510.633     78.04359     156.8382      313.614      1.693     4.29     848.4288     55.31807     350.1005        22     1.442     0.918  52.51   0
       368    614.0359    464.7445 307.6691022  +6.4984761     9718.732     14731.42     15033.11     78.54387      156.963     313.8636      1.605     4.07     847.7975     55.31807     1310.569        36     1.529     0.970  45.99   0
       369    906.6324    458.6447 307.5477617  +6.5107978     538.7882     805.4757     316.0977      78.4191     157.0254     313.7076      1.460     3.74     844.8456     55.31807     113.7982         5     0.996     0.402  73.05   0
       370    805.5957    458.3257 307.5897440  +6.5075474     1320.036     1903.808     1293.615     78.29413     156.4631     313.7388      1.499     4.31     847.0892     55.31807     200.6752        11     1.239     0.578  47.37   0
       371    379.4384    457.9052 307.7667822  +6.4934178     1637.143      2827.44     3532.927     78.79282     156.8382     313.9572      2.151     3.98     848.1454     55.31807     213.6215        16     1.317     0.769  60.01   0
       372    961.8714    456.0766 307.5249009  +6.5137055     2016.385     3053.911     2943.898       78.917     157.2124     313.8324      1.558     4.58      843.458     55.31807     295.4575        17     1.492     0.747  46.33   0
       373    780.6825    456.3684 307.6001589  +6.5075209     1504.388     2576.719     2694.049     78.66844     156.7757     313.7076      1.763     4.81     847.1347     55.31807     209.8172        12     1.227     0.654  46.24   0
       374    709.6362    454.8479 307.6297230  +6.5057676     628.6282     1068.192     1591.097      78.4191     156.9006     313.7388      2.008     4.74     847.0865     55.31807     90.48767         7     1.103     0.579  18.24   0
       375    368.2070    454.4406 307.7715645  +6.4944701     700.9597     1020.366     1234.085     78.04359     156.6508     313.5203      1.651     4.79     848.0303     55.31807     116.6774         8     1.072     0.605  38.56   0
       376    114.0866    453.0108 307.8771683  +6.4865009     4232.688     6664.955     7130.581     78.29413     156.7133     313.6764      1.624     4.20     853.2105     55.31807     529.0302        26     1.490     0.934  47.08   0
       377    752.2905    452.1862 307.6120938  +6.5082960     2265.336     3293.868     3331.613      78.4191     156.7133     313.6452      1.551     4.37     846.8801     55.31807     348.6534        19     1.419     0.772  45.07   0
       378   1015.8470    450.9767 307.5026497  +6.5176150     4208.086     6938.409     7153.393     78.29413      156.963     313.7076      1.743     4.18     841.4917     55.31807     647.6053        28     1.709     0.855  38.53  16
       379    271.9335    450.2597 307.8116960  +6.4929557      1402.28     2061.219     2650.699     78.79282     156.9006     313.8324      1.585     4.39     848.7532     55.31807     180.8262        14     1.272     0.802  73.52   0
       380    350.0945    447.7791 307.7793131  +6.4966104     3245.037     4883.179      5259.63     78.54387     156.7757     313.6764      1.608     3.99     847.8746     55.31807     411.8987        22     1.508     0.827  43.70   0
       381    706.3381    445.8426 307.6313961  +6.5093743     1578.442     2279.456     2364.884     78.66844     156.9006      313.926      1.613     6.13     846.4222     55.31807      229.851        16     1.561     0.734  38.53   0
       382    979.5539    444.3299 307.5179495  +6.5191456     671.0628      863.233     1393.218     78.66844     156.9006     313.8324      1.536     4.30     842.2338     55.31807     99.13501         6     1.145     0.460  45.37   0
       383    237.8595    443.6631 307.8260725  +6.4945310      860.725     1174.382     1277.076     78.66844     156.9006     313.8636      1.547     5.12     849.5178     55.31807     117.3066        10     1.418     0.523  44.44   0
       384    547.5699    438.3310 307.6976019  +6.5071480     1118.136     1638.556     1203.337     78.54387      156.963       313.77      1.521     3.59     845.9781     55.31807     175.0143        11     1.173     0.647  60.43   0
       385    448.0863    438.8434 307.7389099  +6.5035943     565.8508     769.5347     654.4841     78.66844     156.8382     313.8324      1.335     4.03     847.3097     55.31807     94.68799         6     0.963     0.482  38.73   0
       386    832.3057    435.8140 307.5794050  +6.5177344     1404.984     2050.614     2221.108      78.4191     156.7133     313.6764      1.702     5.43     844.8964     55.31807     193.8933        15     1.400     0.721  47.49   0
       387    469.6696    436.4062 307.7300265  +6.5053257     1326.905     2158.469     1799.426     78.16896     156.5883     313.6764      1.704     6.22     846.9125     55.31807     189.9664        15     1.552     0.701  51.57   0
       388    817.8799    434.8730 307.5854293  +6.5176397     2005.423     2867.305     3278.634       78.917     157.2124     313.8636      1.648     4.75     845.1958     55.31807     276.9318        19     1.492     0.777  44.50   0
       389    715.2022    432.9668 307.6281471  +6.5149864     14818.29     22265.09     23470.25     77.91801     156.7757      313.614      1.608     4.04     845.4838     55.31807     2125.519        39     1.530     0.977  48.65   0
       390    617.5515    434.8661 307.6686481  +6.5109273     795.1475     1114.852     1080.437     78.54387     156.9006     313.8324      1.479     4.09     845.5596     55.31807     123.6299         7     1.045     0.461  43.34   0
       391    636.3619    428.8890 307.6610354  +6.5140257     2578.146     3760.519     4455.146     78.66844     156.9006     313.8636      1.597     4.23     845.1119     55.31807     350.4904        18     1.315     0.800  47.08   2
       392    608.6888    424.1155 307.6726918  +6.5150676     13155.29     25862.28     30864.18      78.4191     157.2124      313.926      2.260     7.61      844.739     55.31807     2113.671        65     2.521     1.061  37.44   0
       393    708.5982    427.2904 307.6310815  +6.5171082     697.1707     880.3679     1134.606     77.91801     156.6508      313.614      1.502     4.08     845.0336     55.31807     109.5224         6     0.900     0.529  46.14   0
       394    940.5266    422.9190 307.5348810  +6.5266788     3723.356     5366.281     5376.306       78.917     157.2124     313.8948      1.564     4.61     842.3026     55.31807     511.0325        21     1.417     0.787  46.16   0
       395    379.6319    418.7719 307.7680229  +6.5095775        28695     44181.01      46131.7     78.16896     156.7133     313.6452      1.670     4.13     847.0225     55.31807      3876.15        57     1.594     1.122  46.72   0
       396    895.4831    417.7180 307.5537678  +6.5273189     1333.721     2589.466     3638.365      78.4191     157.2124      313.926      2.348     7.60     842.7849     55.31807     221.6707        22     2.328     0.695  47.87   0
       397    416.9831    420.5071 307.7524487  +6.5101174     556.9443     722.2341     402.0398      78.4191     156.7757     313.6764      1.279     3.67       847.08     55.31807     110.0491         6     1.303     0.298  18.47   0
       398    125.5960    418.1917 307.8735660  +6.5012612     2149.584     3678.607     3973.647     78.04359     156.6508     313.6764      1.859     4.13     851.9661     55.31807     288.1672        22     1.428     1.013  34.00   0
       399    909.2678    413.3467 307.5481881  +6.5295845     5091.127     7375.833     7066.556     78.66844     156.9006     313.7388      1.568     4.26     842.4164     55.31807      825.929        26     1.498     0.820  49.45   0
       400    591.2010    414.6754 307.6802744  +6.5183774     597.2215     969.7266     1079.503     77.91801     156.4005     313.6764      1.492     4.80     844.2845     55.31807      87.1593         7     1.168     0.559  64.24   0
       401     59.1462    413.8273 307.9013155  +6.5008211     1448.172     2352.106     2373.431      78.4191     157.0877     313.7388      1.574     4.21     853.5156     55.31807     203.6331        15     1.284     0.791  48.25   0
       402    965.1140    411.4441 307.5250519  +6.5322378     534.9202      596.717     503.0461     78.66844     156.8382     313.8324      1.547     6.10     841.0324     55.31807      109.785         7     1.474     0.709  53.79   0
       403    237.1081    409.3210 307.8275456  +6.5086811      13468.6     21457.97     22670.42      78.4191     157.2124     313.8948      1.713     4.26     848.3271     55.31807     1881.704        43     1.607     1.059  50.30   0
       404    732.1205    403.4395 307.6221124  +6.5277419     883.9115     1215.349     1356.871     78.54387     157.0254     313.8012      1.477     4.65     843.6161     55.31807     148.1044         9     1.118     0.548  57.21   0
       405     72.7838    403.0994 307.8960140  +6.5057094     801.2686     1304.567      1695.01     78.66844     156.7133     313.6452      1.676     5.57      852.573     55.31807     112.5426        10     1.272     0.689  61.72   0
       406    700.5455    402.8728 307.6352483  +6.5269174     730.1158     1055.166     955.6179     78.54387     156.8382       313.77      1.374     4.70     843.5953     55.31807     123.9091         8     0.923     0.679  40.25   0
       407    960.5542    401.5240 307.5272792  +6.5361802     1030.273     1574.871     1825.092     78.54387     157.0254     313.8636      1.789     4.96     840.8597     55.31807     167.5395        10     1.271     0.548  45.52   0
       408    182.3080    397.6146 307.8507049  +6.5116667     598.2708     968.4306     675.2151      78.4191     156.7757     313.6452      1.861     5.34     850.1182     55.31807     93.39172         7     0.979     0.823  34.85   2
       409    350.2018    399.1362 307.7809110  +6.5166926     1204.265     1794.009     1402.146     78.04359     156.7133      313.614      1.431     4.54     845.9789     55.31807     193.8188        10     1.234     0.556  42.30   0
       410    137.3984    397.9716 307.8693477  +6.5100054     4966.544     7963.535     8309.559     78.16895     156.7133      313.614      1.729     4.42     851.2582     55.31807     653.4834        28     1.471     1.006  42.63   0
       411    377.3426    398.1673 307.7696694  +6.5180056     593.2576     749.2346     312.6978     78.54387     157.0254     313.8012      1.477     3.51     845.8127     55.31807     98.72424         5     0.969     0.368  -4.10   0
       412    242.0870    396.7503 307.8259024  +6.5140376     1334.024     2039.799     2330.774     78.66844     156.8382      313.926      1.642     4.01     847.9565     55.31807     194.9531        16     1.320     0.770  42.69   0
       413    630.4471    396.4448 307.6645850  +6.5272196     455.7165     689.5689     642.3893     78.66844     156.9006     313.8012      1.398     4.08     843.3297     55.31807     93.08221         5     1.202     0.396  53.17   0
       414    435.0578    396.9003 307.7457370  +6.5204694     665.3418     879.2032     841.5485      78.4191      156.963     314.0508      1.694     4.76     845.2662     55.31807     95.51526         7     1.099     0.641  32.20   0
       415    823.3062    394.3590 307.5845369  +6.5345451      670.457     1116.797     1058.609     78.79282     156.9006      313.926      1.639     4.50      842.854     55.31807     144.1849         8     1.172     0.669  44.32   0
       416    159.4928    393.5801 307.8603186  +6.5125630     2427.017     4230.814     4309.788     78.54387     156.7757     313.6764      1.881     4.36     850.9194     55.31807     294.1845        28     1.458     1.155  73.54   0
       417    555.0103    392.5787 307.6960530  +6.5262835      951.991     1440.068     1147.237     78.29413     156.7133     313.6764      1.615     3.81     843.4323     55.31807       136.58        12     1.147     0.724  38.72   0
       418    382.9857    388.5687 307.7676493  +6.5221574     2021.888     3083.763     2926.895     78.29413     156.7133       313.77      1.616     4.26     845.2492     55.31807     268.1786        19     1.383     0.851  44.82   0
       419    270.7401    389.2292 307.8142542  +6.5181072     784.4971     1157.985     1137.134      78.4191      156.963     313.8012      1.703     4.96     847.2498     55.31807     109.3519         9     1.282     0.543  39.98   0
       420      1.8053    389.0042 307.9259745  +6.5091316     767.7988     935.8513     662.3623     73.52103     131.5035     243.6408      1.362     4.94     853.8904     55.31807     148.2911        10     1.203     0.574  59.38  24
       421    971.5363    387.5544 307.5231857  +6.5423139     1016.518     1366.806     1837.444     78.66844     156.9006     313.8636      1.450     5.31     840.1639     55.31807     144.1973        11     1.264     0.631  47.66   0
       422     33.0589    382.8295 307.9132015  +6.5127354     3163.903      5505.42     5888.123      78.4191      156.963     313.7388      1.808     4.22      852.741     55.31807     401.1462        34     1.492     1.349  62.50   0
       423    436.7273    382.1695 307.7455405  +6.5266061     7087.688     10992.21     11192.57     78.54387      156.963     313.8324      1.644     4.13     844.2737     55.31807     878.8951        31     1.495     0.964  46.01   0
       424    769.3469    381.1275 307.6073981  +6.5381995     1998.222     3034.942     3274.179     78.54387     156.9006     313.8012      1.607     4.36     842.4464     55.31807     346.3053        17     1.393     0.770  53.20   0
       425    777.3688    379.5086 307.6041199  +6.5391365     13246.82     19291.89     20052.82     78.79282     156.7757     313.8324      1.619     4.49     842.3931     55.31807      2135.68        39     1.534     0.972  49.98   0
       426    340.4879    377.8068 307.7856666  +6.5251699     1079.841     1770.424     1327.101     78.16895     156.6508     313.5827      1.717     4.60     845.0929     55.31807     175.1287        12     1.201     0.651  44.81   0
       427   1021.3226    374.7419 307.5029323  +6.5492670     3636.161     5332.079      5511.35     78.79282     152.5977     271.0743      1.574     4.21     838.9096     55.31807     475.7024        23     1.522     0.794  45.99  24
       428    952.4064    371.2307 307.5316809  +6.5484125     629.7582     949.5126      1437.88     78.04359     156.7133      313.614      1.518     5.04     840.0082     55.31807      129.869         8     1.445     0.497  51.14   0
       429    185.8385    370.6869 307.8501492  +6.5229006     873.3811     1326.329     1100.783     78.66844     156.9006     313.8324      1.652     4.45     849.2138     55.31807     150.4453         8     1.105     0.510  51.65   0
       430    456.9906    366.3544 307.7376564  +6.5338153     2272.926     3376.065     3104.487     78.16895     156.8382     313.5203      1.584     4.25     842.8687     55.31807     291.6088        20     1.413     0.866  43.27   0
       431    484.8875    365.7724 307.7260871  +6.5349931     3130.268     4852.951     4838.899     78.79282     156.7133     313.7076      1.637     4.34     842.3711     55.31807     397.4833        21     1.426     0.850  50.41   0
       432    913.4230    365.6333 307.5480642  +6.5494190     783.6939     1077.363     1137.382     78.16896     156.7757     313.6452      1.507     4.92       840.48     55.31807     126.8341         8     1.247     0.551  22.98   0
       433    842.7208    362.5305 307.5775412  +6.5483335     33742.65     51581.78     54197.11       78.917     157.2124     313.8012      1.706     4.10     841.3536     55.31807     4689.517        59     1.617     1.130  56.31   0
       434     60.8296    358.9948 307.9024732  +6.5235107     645.3771      872.127     752.0912     78.16895     156.7757     313.6452      1.435     3.75     851.0049     55.31807       105.33         5     0.810     0.499  32.56   0
       435    334.8515    357.9366 307.7886791  +6.5331821     904.9912     1395.757     1187.428     78.66844     156.9006     313.8012      1.609     4.97       844.26     55.31807     119.5753         9     1.017     0.687  19.48   0
       436    614.6065    354.8215 307.6725675  +6.5438694     2638.535     3914.969     4311.435     78.29413     156.7757     313.6452      1.678     4.33     841.6732     55.31807     354.9316        22     1.427     0.921  50.12   0
       437     22.8745    355.2371 307.9183668  +6.5237807     1047.768     1626.793     1609.267     78.54387     157.0254     313.8636      1.681     5.39     851.3212     55.31807     159.5934        15     1.435     0.719  44.77   0
       438    699.2096    348.4951 307.6376334  +6.5493188     80924.01     120095.7       126227     78.29413     156.5883      313.614      1.618     4.20     840.9965     55.31807     12478.88        83     1.636     1.124  44.04   0
       439    857.3114    349.9378 307.5719028  +6.5540201     1196.165     1844.875     2651.557     78.66844     157.0877     313.8948      1.647     4.44      840.808     55.31807     194.7205        11     1.330     0.662  31.19   0
       440     78.6313    348.0535 307.8954490  +6.5286276     1293.337      2064.61     2342.258     78.54387     157.0254     313.7388      1.759     6.22     850.5013     55.31807     175.7355        17     1.713     0.707  42.64   0
       441    561.7748    345.1794 307.6948403  +6.5460760     2633.876     3879.014     3914.544     78.29413     156.7757     313.7388      1.559     3.89     840.9916     55.31807     369.0952        21     1.493     0.810  44.94   0
       442    940.6071    345.3458 307.5374520  +6.5587028     835.1829     1165.122     1160.694     78.16896     156.7133     313.5515      1.463     3.53     839.1483     55.31807     151.0999         9     1.162     0.666  36.84   0
       443     98.9987    343.9293 307.8871280  +6.5310171     6017.897     9459.792      9905.77     78.16895     156.5257     313.6452      1.681     4.08     850.2637     55.31807     791.0237        33     1.587     0.952  50.74   0
       444    544.9455    341.3796 307.7019598  +6.5470794      7014.77     10885.19     11508.86     78.16895      156.963     313.6452      1.652     4.07     840.6697     55.31807     946.4043        33     1.508     0.981  48.11   0
       445    273.8501    338.9436 307.8146618  +6.5389683     2642.821     4063.605     3893.401     78.66844      156.963     313.8324      1.600     4.17     845.8194     55.31807     339.7105        19     1.357     0.848  48.84   0
       446    407.8482    336.5002 307.7590787  +6.5444862      25811.6     39811.23     41766.43     78.66844     156.8382     314.0508      1.671     4.04      842.281     55.31807     3238.648        53     1.589     1.099  46.85   0
       447    586.3032    335.6589 307.6849712  +6.5508294     553.9084     916.8546     852.9896      78.4191      156.963     313.9572      1.799     5.40     840.7625     55.31807       99.979         8     1.412     0.582  40.33   0
       448    515.6659    335.4482 307.7143235  +6.5485443     1280.824     1897.667     1885.526     78.54387     156.9006     313.8324      1.752     5.46     840.4681     55.31807      182.761        12     1.251     0.672  43.68   0
       449    674.2139    334.5505 307.6484870  +6.5542367     622.3284     851.1243     988.8904     78.04359     156.9006     313.5515      1.480     5.37     840.6776     55.31807     93.29224         7     1.317     0.617  44.77   0
       450    387.6793    334.4277 307.7675273  +6.5446633     1227.538     1843.247     1921.965     78.54387     156.9006     313.8324      1.681     4.77     842.4772     55.31807     174.1464        12     1.106     0.752  36.95   0
       451    487.0851    331.7119 307.7263229  +6.5491263     1296.868     1718.989     1450.532      78.4191     157.1501      313.926      1.445     4.45     840.4074     55.31807     169.2174        12     1.037     0.802  58.56   0
       452    803.0095    329.2343 307.5951582  +6.5607479     960.8794     1333.739     1347.368     78.16895     156.7757     313.6764      1.454     3.51      840.081     55.31807     148.1151         8     0.950     0.587  57.27   0
       453    496.9208    326.9183 307.7223985  +6.5514355     8413.091     13035.41     13635.61     78.79282     157.2124     314.0196      1.622     4.07     840.0947     55.31807     1031.905        35     1.530     0.991  48.18   0
       454    384.7920    329.0803 307.7689073  +6.5467735     877.5911      1331.36     1229.533     78.29413     156.5883     313.6764      1.501     5.79       842.39     55.31807     102.5958        11     1.232     0.766  31.73   0
       455    766.0335    325.7854 307.6106359  +6.5609328     3181.503     4891.847     5657.681     78.29413     156.7133     313.7076      1.655     4.11     840.1055     55.31807     444.0685        22     1.438     0.839  46.04   0
       456    921.3746    325.5195 307.5461079  +6.5662435     1063.986      1373.43     1504.797      78.4191     156.7757     313.8324      1.514     5.18     838.6628     55.31807     137.2558        11     1.234     0.625  47.17   0
       457    713.9368    324.9026 307.6323091  +6.5595511      849.618     1226.853      1707.02     78.54387     157.0877     313.8636      1.553     4.39     840.2377     55.31807     138.2957         8     1.101     0.499  57.40   0
       458    323.5885    323.8690 307.7945088  +6.5468652     1042.367     1586.837       1160.3     78.16895     156.7757     313.7076      1.543     5.64     843.7726     55.31807     166.4459        13     1.454     0.622  48.37   0
       459    159.1994    317.3479 307.8630198  +6.5440191     1008.178     1544.806     1637.745     77.91801     156.5257     313.3953      1.548     4.65     848.8719     55.31807     161.4777         8     1.224     0.501  47.65   0
       460    435.8250    317.1714 307.7481086  +6.5534053     508.0013     834.4851     858.6348     78.16895     156.7757     313.7076      1.502     3.35     840.8106     55.31807     109.3975         5     0.970     0.336  45.84   0
       461    605.7136    315.7347 307.6775786  +6.5597052     575.2447     696.4888     625.2735     78.66844     157.1501     313.8636      1.351     5.50     840.1418     55.31807     105.6368         6     1.263     0.675  37.34   0
       462    386.8463    311.0697 307.7686620  +6.5542769     7162.377      11153.3     11509.23     78.66844     156.9006     313.8324      1.654     4.08     841.8585     55.31807     928.7214        33     1.512     1.004  50.07   0
       463    242.5911    311.4847 307.8285756  +6.5492496     2102.868     3282.609     3448.302     78.29413     156.6508     313.6764      1.741     4.18     846.1414     55.31807     281.4746        20     1.486     0.800  42.31   0
       464    740.1086    310.9016 307.6219071  +6.5662078     881.9736     1351.966     1284.008     78.66844     157.4613     313.8012      1.547     4.53     839.7748     55.31807     127.1384         8     0.932     0.625  46.38   0
       465    754.6694    307.0385 307.6159878  +6.5682904     54889.38     81592.25     84866.41     78.54387      156.963      313.926      1.596     4.12     839.5739     55.31807     7492.553        68     1.602     1.059  48.28   0
       466    426.2541    306.2912 307.7524519  +6.5575746     2344.535     3758.846     4257.751     78.54387     156.7757     313.9572      1.723     4.47     840.6082     55.31807     327.9545        22     1.375     0.940  45.42   0
       467    989.3418    304.0172 307.5185921  +6.5773924     1772.112     2405.504     2133.942     78.29413     156.9006     313.5827      1.519     4.39     836.3192     55.31807     297.9835        16     1.304     0.812  47.16   0
       468    930.4056    303.1814 307.5431061  +6.5757665     2304.882     3446.921     3536.372     78.29413     156.5883     313.6452      1.606     4.22     837.5734     55.31807     380.3949        19     1.506     0.730  52.55   0
       469    572.2756    303.5333 307.6918815  +6.5636192     1197.523     1705.477     1467.412     78.79282     157.0254     313.8012      1.646     5.53     839.1605     55.31807      178.914        13     1.295     0.715  42.50   0
       470    463.1927    302.8669 307.7372217  +6.5602299     931.7705     1718.991     2367.522     78.16895     156.7133     313.6764      2.413     6.51     839.3354     55.31807     123.7168        14     1.322     0.900  45.20   0
       471    293.0482    301.7511 307.8079434  +6.5549667     554.8251     696.1579     432.0292     78.66844     156.8382     313.8636      1.408     3.77     843.8843     55.31807     100.5956         5     0.825     0.494  45.57   0
       472    834.1152    296.4554 307.5833372  +6.5753202      1299.11     1883.282      1851.68     78.66844      156.963     313.9572      1.454     5.02     838.4854     55.31807      194.168        13     1.375     0.640  53.46   0
       473    412.9379    302.0545 307.7581269  +6.5588756     1966.157     3071.564     3053.493     78.79282     156.9006     313.8012      1.652     4.88     840.8344     55.31807     271.5018        18     1.477     0.751  44.58   0
       474    966.0505    295.0986 307.5285683  +6.5802951     497.5907     863.4574     706.5373     78.66844      156.963     314.0196      1.552     3.79     836.3835     55.31807     95.43494         5     0.840     0.491  61.43   0
       475    443.6999    293.6483 307.7456309  +6.5633798     1175.287     1710.094     1383.318     78.66844     156.8382     314.0196      1.526     5.29     839.4924     55.31807     136.4102        16     1.422     0.843  35.94   0
       476    189.4692    293.4269 307.8512544  +6.5549133     2402.333     3711.455     3779.508     78.29413     156.8382     313.7388      1.662     4.11     847.5721     55.31807     338.0618        21     1.499     0.832  43.08   0
       477    753.2461    291.6673 307.6170962  +6.5745876     6268.038     9325.774      9648.35     78.66844     156.9006     313.8636      1.617     4.36     839.1397     55.31807     975.4148        29     1.472     0.961  39.89   0
       478    343.7777    291.2231 307.7872244  +6.5610199     755.7581     1224.479       533.54     78.29413     156.7757     313.8012      1.702     6.01     842.6381     55.31807     101.8577        11     1.628     0.624  25.71   0
       479    224.6872    291.1369 307.8367014  +6.5570454     713.0654     1102.733     1115.876     78.66844     157.1501     313.8636      1.704     5.85     846.6693     55.31807     103.2446        11     1.622     0.594  40.31   0
       480    769.6004    289.5680 307.6103722  +6.5760023     2811.929     4157.775     4425.079     78.04359     156.7757     313.5827      1.606     4.06     838.9426     55.31807     465.3774        19     1.361     0.769  41.32   0
       481     85.4763    290.4247 307.8945569  +6.5526456     1078.491     1736.025     1855.179     78.29413     156.9006     313.8012      1.883     4.96     850.2706     55.31807      164.639        10     1.325     0.525  48.18   0
       482     72.6892    284.5681 307.9000673  +6.5546315     1323.647     2127.623     1780.412     78.79282     156.7757     313.8324      1.710     5.00     850.2634     55.31807     158.6226        17     1.406     0.810  47.89   0
       483    359.1841    284.2265 307.7810603  +6.5644264     1668.347     3410.983      3891.25     78.29413     156.7757     313.7388      2.186     6.98     842.1158     55.31807     195.5432        27     1.813     1.093  16.56   0
       484   1007.7811    280.4694 307.5117214  +6.5877290     6068.576     8978.572     9250.957     78.29413     156.8382       313.77      1.600     4.30     834.6393     55.31807     899.8745        28     1.494     0.861  48.50   0
       485    485.9142    280.1759 307.7285476  +6.5703598      2132.04     3325.378     3178.236     78.66844     156.7133     313.6764      1.643     3.83     837.5302     55.31807        288.6        21     1.342     0.930  58.27   0
       486    248.3587    275.7419 307.8273880  +6.5641974     5789.116     9096.698     10120.28     78.66844      156.963     313.8948      1.707     4.27     845.1594     55.31807     757.0775        32     1.541     1.022  46.13   0
       487    813.0063    274.5210 307.5928446  +6.5836675     589.5342     803.8806     816.0717     78.29413     156.4631     313.5827      1.492     3.97     837.9747     55.31807     102.4798         5     1.312     0.343  48.76   0
       488    767.8482    269.4674 307.6117763  +6.5842407     892.5469     1091.625     1134.373     78.66844     156.9006     313.8636      1.570     5.11       838.12     55.31807     127.7141        10     1.259     0.586  48.68   0
       489    382.7882    266.7299 307.7718449  +6.5724426     1726.534     2751.822     2705.805     78.16895     156.7133     313.6764      1.736     4.88       840.73     55.31807     225.7219        20     1.474     0.924  44.64   0
       490    916.0579    274.7532 307.5500219  +6.5870213     575.8646       775.23     603.4198     78.66844      156.963     313.9572      1.381     3.39     836.7028     55.31807     116.9092         5     1.033     0.323  42.50   0
       491    969.4509    265.6211 307.5281450  +6.5925768     1033.003     1631.774     1798.368     78.16896     157.0254     313.7076      1.337     4.65     835.1445     55.31807     160.0008         9     1.235     0.498  36.86   0
       492    304.7319    262.4408 307.8044179  +6.5715861     1066.603      1571.31      1444.47     78.54387     156.9006      313.926      1.539     4.09     842.9386     55.31807      162.527        12     1.179     0.678  46.11   0
       493    152.4282    262.3129 307.8676951  +6.5665074     1589.688     2447.116     2412.064     78.79282     156.7133     313.7076      1.595     4.85     848.0583     55.31807     195.0905        17     1.411     0.779  50.67   0
       494    561.9742    258.1813 307.6976897  +6.5819936      2302.16     3555.293     3178.933     78.29413     156.7757     313.7388      1.680     4.17     836.6851     55.31807     312.6425        21     1.439     0.834  47.91   0
       495    904.9304    257.1575 307.5552361  +6.5939122     1564.141     2884.845      3097.11     78.54387      156.963     313.8948      1.991     7.04     836.1956     55.31807     232.3782        18     1.991     0.697  36.08   0
       496    844.4019    258.7891 307.5803295  +6.5912127     448.0063     591.5233     905.5854     78.29413     156.6508     313.6452      1.276     4.15      836.931     55.31807     90.53857         5     1.119     0.450 -33.58   0
       497    725.4758    255.6967 307.6298441  +6.5885049     5180.832     7439.127     7227.224     78.29413     157.0877     313.8948      1.573     4.41      837.668     55.31807     742.5326        27     1.436     0.874  44.37   0
       498    963.1581    254.8343 307.5311217  +6.5968190      743.942     1302.544     1131.344      78.4191      156.963     313.6764      1.654     6.24     834.9077     55.31807     109.7352        11     1.579     0.692  55.37   0
       499    666.3277    255.4944 307.6544251  +6.5866049      2142.86     3200.029     3770.946     78.54387     157.0254     313.8636      1.670     4.32     837.3801     55.31807     282.7675        16     1.293     0.789  54.76   0
       500    380.7895    249.4055 307.7732603  +6.5795264     593.1594     925.9618     368.0034     78.16896     156.7133     313.7388      1.572     4.73      840.267     55.31807     104.8154         6     1.339     0.475  39.08   0
       501    921.5319    247.8445 307.5486513  +6.5983119     1149.615     1657.575     1907.974     78.66844     156.9006     313.8636      1.812     6.09     835.7507     55.31807     143.5356        14     1.269     0.822  48.50   0
       502    225.0482    240.9076 307.8382500  +6.5777905     2279.013     3573.938     3648.172     78.54387     156.8382     313.9572      1.643     4.65     844.7914     55.31807     280.0228        19     1.434     0.821  44.84   0
       503    867.5923    240.0267 307.5713249  +6.5997339     1670.163     2679.282     2478.183     78.29413     156.7757     313.6452      1.669     4.89     835.8863     55.31807     243.2162        17     1.602     0.675  37.38   0
       504    758.1472    239.4361 307.6168171  +6.5963120     1739.799     2676.811     2810.358     78.54387      156.963     313.8636      1.615     4.18     836.9274     55.31807     273.2871        17     1.385     0.799  39.79   0
       505    578.6877    235.2411 307.6915190  +6.5920240     536.4666     706.0045     1131.509     78.66844     156.9006     313.8636      1.455     3.51     835.7294     55.31807     95.65021         5     1.269     0.281  35.17   0
       506    246.8332    234.4091 307.8294193  +6.5812068      581.473     890.1424     174.2059     78.16895     156.7757     313.6764      1.653     5.03     844.0697     55.31807     98.09808         6     1.398     0.511  46.71   0
       507    458.9856    230.8576 307.7413991  +6.5898120     22396.91     35595.11     37601.29     78.04359     156.8382      313.489      1.667     4.07     836.1371     55.31807     2752.962        51     1.612     1.096  48.97   0
       508    785.0683    230.0101 307.6059490  +6.6011050     13182.26     20190.03      22071.9     78.16895     156.7757     313.6764      1.618     4.32     836.5353     55.31807      1951.94        48     1.602     1.169  33.70   0
       509    319.7367    232.2111 307.7992057  +6.5845692     596.9894     736.1907     200.0038     78.16895     156.7757     313.7076      1.270     3.94     842.1103     55.31807     90.48206         6     0.737     0.653  22.46   0
       510    723.9218    225.5539 307.6315042  +6.6008952     691.8879     895.9194     613.7629     78.66844     157.0254     313.8012      1.366     4.58     836.2938     55.31807     110.0642         7     1.135     0.524  26.75   0
       511    464.6050    225.3214 307.7392513  +6.5922862     1459.029     2266.581     2895.533     78.29413     156.4631      313.614      1.763     5.40     835.5657     55.31807     184.9805        12     1.241     0.662  46.93   0
       512    147.2751    224.1328 307.8711281  +6.5820930     2274.749     3497.219     3571.133     78.79282     157.0877     313.8324      1.621     4.25     847.6248     55.31807     295.9807        18     1.324     0.829  51.87   0
       513    121.8408    222.7960 307.8817398  +6.5817869     1035.255     1752.167     1439.501     77.91801     156.7133      313.614      1.665     6.27     848.3671     55.31807     128.7379        14     1.441     0.767  66.89   0
       514    173.9964    222.7394 307.8600739  +6.5835691      627.101      1011.32     926.2712     78.04359     156.7133     313.5515      1.615     4.43     846.5391     55.31807      128.191         5     1.115     0.749  69.51   0
       515    921.4960    220.5243 307.5495839  +6.6095881     1486.517     2181.917     2381.418     78.29413     157.0877     313.8948      1.565     4.20     834.7677     55.31807     247.8198        14     1.197     0.727  45.90   0
       516    619.5915    219.2889 307.6750621  +6.5999817     539.6201     850.5063     880.2355     78.29413     156.6508     313.5827      1.665     4.51     835.4669     55.31807     92.51917         5     0.804     0.719   8.71   0
       517    583.0541    216.6265 307.6903323  +6.5998543     4740.989     7212.658     7542.309     78.29413     157.0877     313.7076      1.624     4.08     835.0421     55.31807     661.8254        29     1.461     0.949  46.13   0
       518    545.5486    216.5334 307.7059180  +6.5986333     2132.994     3300.612     3597.193     78.54387     156.9006     313.8324      1.721     4.42     834.6085     55.31807     255.2886        20     1.447     0.863  51.87   0
       519    303.6005    217.0217 307.8064229  +6.5902956     1040.158     1597.561     1306.707     78.29413     156.6508     313.5515      1.610     4.04     842.5764     55.31807     201.8593        13     1.359     0.638  40.31   0
       520    387.5753    215.4984 307.7715860  +6.5937505     1569.616     2644.586     2445.886     78.79282     156.7133     313.7076      1.829     4.95     838.8734     55.31807     198.8112        19     1.316     1.140  68.75   0
       521    944.0606    213.7909 307.5404346  +6.6131224      2865.62     4244.347     4061.147     78.04359     156.8382     313.5827      1.576     4.40     833.8817     55.31807     404.4417        20     1.383     0.842  40.18   0
       522    890.0878    213.2071 307.5628796  +6.6115576     11255.76     16883.01     17952.97     78.16895     156.6508     313.5827      1.613     4.41     834.5621     55.31807     1710.896        35     1.551     0.890  48.48   0
       523    976.7318    211.0797 307.5269509  +6.6153341     10072.74     14926.22     15554.46     78.79282     157.2124     313.8324      1.567     4.13     832.8577     55.31807      1449.91        34     1.524     0.894  48.39   0
       524    688.2029    211.1101 307.6468309  +6.6056596     2879.937      4576.33     5135.884     78.04359     156.6508     313.5515      1.685     4.56     835.6404     55.31807     411.2964        23     1.483     0.906  52.48   0
       525    565.2422    212.9238 307.6978575  +6.6007846     717.9047     1124.602      734.312     78.54387      156.963     313.8636      1.568     4.65     834.7375     55.31807     135.8068         8     1.443     0.425  50.13   0
       526    317.8827    213.2975 307.8006150  +6.5923137     836.3348     1421.416     1620.174     78.66844     157.3369     313.8948      1.876     4.60     841.9954     55.31807     109.6649         9     1.013     0.714  52.10   0
       527    209.7817    213.4055 307.8455227  +6.5886280     734.9302     1333.627     1488.587     78.29413     156.5883     313.6764      1.922     5.59     844.7397     55.31807     98.23035        10     1.287     0.685  41.60   0
       528     16.2439    209.7282 307.9260518  +6.5836170     24940.94      39517.4     41688.71     78.54387      156.963     313.8636      1.719     4.24     850.6501     55.31807     3191.281        58     1.652     1.130  46.39   0
       529    262.4493    210.5076 307.8237397  +6.5915986     1222.009     1781.818     2058.903     78.54387     156.8382     313.9884      1.608     4.58     843.5817     55.31807     154.5187        11     1.056     0.801  46.14   0
       530    496.8162    205.9877 307.7265207  +6.6013491     2067.975     3210.476     3099.621     78.29413     156.6508       313.77      1.584     4.45     834.3728     55.31807      273.879        19     1.445     0.826  51.45   0
       531    881.0483    201.7589 307.5670201  +6.6159806     2067.453     3093.062     3536.524     78.66844     156.9006     313.7388      1.598     4.09     834.0742     55.31807     290.3308        16     1.384     0.697  47.79   0
       532    828.4957    202.5665 307.5888283  +6.6138878     2043.314     2888.691     3016.219     78.79282     156.8382     313.9572      1.563     5.43     834.7962     55.31807     311.4949        13     1.292     0.643  44.62   0
       533    508.7534    201.7020 307.7217056  +6.6035193     2457.698      3907.12     3920.054     78.66844     156.7757     314.0196      1.741     4.17     834.2913     55.31807     345.9321        21     1.437     0.870  46.29   0
       534    740.2712    199.2020 307.6255980  +6.6123207     39823.01     60177.48     63180.43     78.16895     156.5257     313.6764      1.621     4.27     835.2404     55.31807     6223.028        62     1.599     1.071  48.63   0
       535    343.3601    198.3999 307.7905334  +6.5993205     5416.023     12154.26     13493.28     77.66626     156.5883      313.489      2.240     6.56     840.7891     55.31807     588.0128        45     1.997     1.263  83.74   0
       536    974.1209    197.9437 307.5284767  +6.6206692      2977.01     4459.571     4599.151     78.79282      156.963     313.8324      1.562     4.30     832.4832     55.31807     447.8919        20     1.449     0.793  47.94   0
       537    908.1884    196.3425 307.5559255  +6.6191247     7761.884     11576.91     12175.84     78.04359     156.9006     313.5515      1.612     4.39     833.4741     55.31807     1309.082        30     1.517     0.876  50.28   0
       538    451.6594    195.2463 307.7456446  +6.6042652     5140.888     7905.954     8452.188     78.54387      156.963      313.926      1.671     4.02     835.1402     55.31807     646.6552        29     1.534     0.932  49.29   0
       539    226.4619    192.4625 307.8393012  +6.5978346     863.7968     1608.491     1943.611     78.66844      156.963     313.8636      2.188     6.06     844.0992     55.31807      105.485        13     1.472     0.702  54.14   0
       540    109.0584    186.5751 307.8882766  +6.5963063     4706.733     7491.125     7742.724     78.29413      156.963     313.6764      1.678     3.92     847.8352     55.31807      597.428        30     1.499     1.027  52.28   0
       541    928.5530    185.8161 307.5478176  +6.6241512     831.6028      1134.56     1593.498     78.16895     156.8382     313.5827      1.690     5.74     832.6588     55.31807     96.30896        12     1.485     0.624  46.31   0
       542    605.6395    185.3996 307.6820008  +6.6135022     622.5256     1105.316     1510.271     77.66626     156.7133     313.5515      1.764     3.37     834.3629     55.31807     91.12207         5     1.057     0.311  68.78   0
       543    279.3889    183.2701 307.8176227  +6.6034119     33687.46     53208.02     56520.42     78.16896     156.7133     313.6452      1.720     4.20     843.3142     55.31807     4376.849        66     1.668     1.172  49.38   0
       544    254.6715    184.3658 307.8278549  +6.6021271     6619.816      10282.6     10843.76     78.54387     156.9006     313.8324      1.690     4.12     843.6636     55.31807     808.2388        32     1.555     0.965  47.66   0
       545   1012.4003    196.7493 307.5126117  +6.6224420     1785.479     2797.278     3144.992     77.91801     156.5257     313.3953      1.670     4.47     831.7255     55.31807     276.2059        16     1.395     0.789  40.47   0
       546    708.6693    182.6373 307.6392859  +6.6180989     974.1366      1257.09     1634.892     78.54387      156.963      313.926      1.485     4.81     834.7977     55.31807     167.7891        10     1.297     0.506  42.90   0
       547    403.4369    178.7788 307.7662358  +6.6094409     49816.96     77373.48     81315.14     78.29413     156.7133     313.5827      1.702     4.11     836.4641     55.31807     6539.984        70     1.650     1.155  48.73   0
       548    159.3401    179.9568 307.8676107  +6.6007340      3970.44     6463.606     6627.601     78.54387      156.963      313.926      1.722     4.62     845.1812     55.31807     506.4608        29     1.604     0.944  52.28   0
       549    420.7695    179.2711 307.7590179  +6.6098206     1379.134     1905.052      1460.57     78.54387      156.963       313.77      1.463     4.12     835.3561     55.31807     195.4859        19     1.409     0.897  42.20   0
       550    742.7523    175.0954 307.6253783  +6.6223546     33528.91     50208.17     52555.86     78.54387     156.8382     313.9884      1.611     4.30     834.1946     55.31807     4574.347        57     1.602     1.035  49.09   0
       551    307.4738    176.4615 307.8061844  +6.6071680     18388.48     28313.91     29984.92     78.79282      156.963     313.8324      1.728     4.37     842.2806     55.31807     2377.567        52     1.626     1.101  48.89   2
       552    314.7149    176.4032 307.8031779  +6.6074358     2205.247     4043.677     5280.562     78.04359     156.5883     313.5515      2.322     6.06     841.8857     55.31807     282.1746        29     1.820     1.269 -85.82   3
       553    690.6323    176.8422 307.6469752  +6.6198861     989.0081     1565.649     1276.926     78.29413      156.963     313.6764      1.577     5.11     834.7829     55.31807     165.9757        10     1.513     0.489  48.76   0
       554    790.8506    175.4035 307.6053831  +6.6238393      1209.76     1750.387     2424.623     78.04359     156.7133     313.4265      1.485     3.90     833.7682     55.31807     209.1938        10     1.226     0.576  44.49   0
       555     59.5550    172.2265 307.9093291  +6.6005583      8929.79     14129.79     14521.54     78.16896     157.0254     313.7388      1.716     4.38     849.4249     55.31807     1141.804        38     1.581     1.065  48.80   0
       556     93.4946    170.2880 307.8952943  +6.6025039     1429.567     2341.505     2167.619     78.66844     157.3991     313.8948      1.783     6.23     848.1837     55.31807     183.0464        19     1.519     0.870  50.40   0
       557   1001.3423    169.6071 307.5181173  +6.6332762      1172.13     1722.678       2111.1     78.04359     156.8382     313.5515      1.623     5.62     831.3776     55.31807     160.4532        13     1.216     0.732  46.80   0
       558    727.3337    163.1856 307.6321856  +6.6267539     640.0164     782.9352     909.7295     78.16895     156.8382       313.77      1.617     4.12     833.8931     55.31807     107.8989         6     1.347     0.360  29.50   0
       559    576.8134    159.7230 307.6948431  +6.6231331     916.7303     1417.024     1364.893     78.29413     156.6508     313.6452      1.497     4.71     833.5275     55.31807     163.2809        10     1.258     0.694  41.04   0
       560   1002.1343    155.6796 307.5182557  +6.6390517     2316.398     3581.928     4073.768       78.917     157.0877     313.8012      1.672     4.53     830.9082     55.31807     321.3979        19     1.534     0.763  44.80   0
       561    585.2166    153.1730 307.6915724  +6.6261189     997.9772     1564.085      1719.53     78.29413     156.7133     313.7388      1.583     4.39     833.3227     55.31807     158.0364        13     1.379     0.628  56.14   0
       562    593.4034    151.2458 307.6882357  +6.6271893     1893.433     2896.691      3131.05     78.04359     156.6508      313.489      1.678     4.82     833.2678     55.31807     248.5003        20     1.475     0.900  56.86   0
       563    337.4339    151.2682 307.7945880  +6.6185755     925.3255     1499.844     1372.708     78.54387     157.0254      313.926      1.656     5.62      840.592     55.31807     129.5026        12     1.480     0.601  47.63   0
       564    278.2971    149.5298 307.8192169  +6.6173020     30665.62     47567.45     51028.91     78.54387     157.1501     313.8324      1.722     4.12     843.2032     55.31807     4046.898        59     1.649     1.120  47.26   0
       565     23.4937    148.1075 307.9251283  +6.6092962     4456.414     7014.594     6979.414     78.66844     157.4613     313.8324      1.740     4.26     850.6718     55.31807     551.7668        30     1.590     1.115  68.35   0
       566    187.5874    147.7660 307.8569643  +6.6149735     859.4221     1484.062      1581.53     78.16896     156.7133     313.7076      1.670     5.64     844.0035     55.31807     107.6085        12     1.485     0.604  53.45   0
       567    709.9561    146.2283 307.6399768  +6.6331709     8102.878     12034.17     13342.27     78.29413     157.0254     313.7388      1.611     4.51     833.1747     55.31807     1138.873        33     1.503     0.931  49.33   0
       568    264.0244    144.6870 307.8253107  +6.6188202     741.5632     1078.064     941.7178     78.66844     156.7757     313.7076      1.512     4.76     843.3623     55.31807     173.6555         9     1.490     0.570  49.52   0
       569    120.7420    143.2074 307.8848910  +6.6146009     4795.894     7461.724     7534.429     78.04359     156.8382     313.5827      1.636     4.07     845.7632     55.31807     623.4626        29     1.522     0.934  39.86   0
       570    416.3927    142.7104 307.7620707  +6.6247646     569.3252     663.8302     216.4146     78.16896     156.6508     313.5827      1.331     3.47     834.2723     55.31807     98.46765         5     0.729     0.476 -78.42   0
       571    648.6284    140.6450 307.6656468  +6.6334185     804.1881     1352.321     1147.961     78.29413     157.0254     313.7388      1.624     5.68     833.1773     55.31807     128.1686        12     1.382     0.793  37.09   0
       572    582.7590    141.0435 307.6930023  +6.6310432     763.1334     1154.073     1141.397      78.4191      156.963     313.7076      1.518     5.62     832.9316     55.31807     111.4072        11     1.237     0.719  52.43   0
       573    459.7397    140.6519 307.7441298  +6.6270718     1371.659     2002.987     1784.183     78.66844     156.9006     313.8324      1.692     4.79     833.3665     55.31807     199.7494        14     1.374     0.785  55.06   0
       574    391.3895    139.3242 307.7725736  +6.6253213     4028.125     6846.911     7339.024     78.29413     156.5257     313.6452      1.828     4.64     836.4136     55.31807     514.9933        30     1.694     0.948  53.11   0
       575    355.9307    138.2173 307.7873437  +6.6245851     3235.557     4723.981     4898.206     78.16895     156.8382     313.7388      1.562     3.94     839.4973     55.31807     419.5355        22     1.411     0.869  43.35   0
       576    110.1425    137.9991 307.8894711  +6.6163931     1718.745     2637.639     2874.827     78.04359     156.5883     313.5203      1.560     4.21     846.0233     55.31807     211.4198        18     1.389     0.838  62.61   0
       577    568.3116    137.5457 307.6991232  +6.6320019     522.2913     960.8936     678.0115     78.66844     156.8382     313.9572      1.937     4.37     832.8517     55.31807     99.96466         5     1.221     0.444  59.56   0
       578    671.5959    135.9565 307.6562616  +6.6361243     710.3492     1180.183     969.2057     78.04359     156.5883     313.5203      1.725     5.22     832.9988     55.31807     113.0717         9     1.343     0.574  56.27   0
       579   1002.6726    132.3052 307.5188166  +6.6487183     1660.505     2472.077     2471.357     78.54387     157.0254     313.8636      1.642     5.13     829.5416     55.31807     225.8596        15     1.307     0.810  57.55   0
       580    728.6617    132.1522 307.6326783  +6.6396083     551.2086     927.6694     1199.098     78.54387     156.9006     313.8948      1.458     3.56     832.1188     55.31807     90.79895         5     1.028     0.355   3.18   0
       581    207.7717    127.1703 307.8492750  +6.6241550     5449.224     8451.174     8764.423     78.16895     156.7133     313.5827      1.638     4.31     843.8252     55.31807     717.3998        28     1.495     0.943  49.82   0
       582    669.4716    125.9897 307.6574799  +6.6401671     6178.151     9507.273     9947.196     78.16895     156.5883     313.6764      1.617     4.46      832.343     55.31807     848.8738        33     1.498     0.974  48.56   0
       583     90.4338    127.0518 307.8980303  +6.6202467     2177.713     3482.729     3503.151     78.54387     156.9006     313.7388      1.698     4.31     846.3673     55.31807     285.1157        19     1.314     0.935  58.62   0
       584    817.4473    125.7689 307.5960013  +6.6452184      1179.93     1566.155     1342.755     78.29413      156.963     313.7388      1.560     4.10     831.2273     55.31807     186.3229        12     1.261     0.667  49.04   0
       585    621.6280    123.2686 307.6774511  +6.6396850     9393.978     14833.92     16113.72      78.4191     156.9006       313.77      1.732     4.46      832.226     55.31807     1300.482        37     1.584     0.998  48.23   0
       586    256.0949    123.3065 307.8293282  +6.6273782     638.7615     1040.034     1177.637     78.66844     157.5235       313.77      1.712     5.89     843.2859     55.31807     109.5424         9     1.264     0.773  28.07   0
       587    559.6124    122.5434 307.7032435  +6.6379023     477.1223     723.9027     1105.008     78.04359     156.9006     313.5203      1.653     5.32     832.4412     55.31807     84.86963         6     1.182     0.676  45.99   0
       588     20.5802    122.0995 307.9272202  +6.6199327     922.0422     1779.478     1785.333     78.66844     156.8382      313.614      2.057     5.35     850.4355     55.31807     117.5662        14     1.220     1.113  63.72   0
       589    348.8231    118.9656 307.7909473  +6.6322923     3604.928     6287.646     7062.194     78.16895     156.7133      313.614      1.879     4.09     839.9315     55.31807     470.5861        35     1.476     1.289  54.00   0
       590    530.5317    118.1692 307.7154742  +6.6387311     1765.452     2679.414     2578.298     78.54387      156.963     313.8012      1.670     4.01     832.3884     55.31807     224.9846        20     1.394     0.899  48.79   0
       591    994.7722    117.5874 307.5225935  +6.6545294     762.6082     1287.117     1177.566     78.16896     156.7757     313.7388      1.602     4.91     828.8021     55.31807     104.0986         9     1.302     0.524  50.35   0
       592    625.1962    114.7298 307.6762562  +6.6433293     53427.89     81916.91     86693.02     78.16895     156.5883     313.6764      1.642     4.34     831.8657     55.31807     7255.614        72     1.646     1.098  48.52   0
       593    304.1360    108.3837 307.8098721  +6.6351558      3501.71     5478.593     6229.619     78.16895     156.9006     313.6764      1.687     4.28     841.8901     55.31807     476.2089        26     1.506     0.941  49.82   0
       594    500.5705    105.5111 307.7283503  +6.6429493     512.8122     733.4316     511.2268     78.79282     156.7133     313.7076      1.708     3.91     832.1276     55.31807     82.69843         5     1.118     0.392  73.21   0
       595      2.6167     91.7604 307.9357119  +6.6318486     690929.4      1254656      1335120     78.29413     142.1664     256.0647      1.950     7.37     850.9582     55.31807     63265.58       270     2.114     1.535  77.55  28
       596    704.2312    102.8929 307.6438145  +6.6508668     949.6708     1587.199     1584.013     78.79282     156.7757     313.8324      1.618     5.20     830.6172     55.31807     146.4441        10     1.420     0.539  53.65   0
       597    675.5710    102.0465 307.6557519  +6.6502549     1454.035     2285.994     2404.164     78.16895     157.0254     313.7076      1.745     5.07      830.736     55.31807     200.5109        16     1.377     0.778  50.14   0
       598    689.6575     98.5887 307.6500151  +6.6521547     3228.379     4789.656     4973.292     78.04359      156.963     313.5515      1.621     4.63     830.4555     55.31807     429.1265        21     1.435     0.795  47.83   0
       599    567.1290     99.4500 307.7008989  +6.6476871     600.5357     783.6732     872.3014     78.66844      156.963     313.8636      1.460     4.25     831.7103     55.31807      87.8822         7     1.101     0.468  47.09   0
       600    431.2892     89.6301 307.7576732  +6.6471755     4138.754     6219.386     5671.106     78.79282     156.7757       313.77      1.609     4.04     833.0253     55.31807     550.6779        24     1.508     0.849  47.17   0
       601    885.8898     86.2144 307.5688914  +6.6638373     2268.182     3385.419     3043.265      78.4191     156.7757     313.6764      1.545     4.26     829.0172     55.31807     318.1901        16     1.428     0.696  42.53   0
       602    903.8299     85.2001 307.5614707  +6.6648565     3994.472      5999.64      6516.91     77.91801     156.7133      313.614      1.602     4.18     828.5496     55.31807     555.2281        22     1.381     0.839  45.05   0
       603    584.0046     85.6320 307.6943526  +6.6539574     702.2645     1335.165     1157.348     78.04359     156.8382      313.614      1.571     4.23     831.0864     55.31807     105.4225         7     1.232     0.414  55.11   0
       604    595.8676     83.5929 307.6894920  +6.6551974     1813.896     2544.148     2648.713     78.16895     156.7133     313.6764      1.560     4.68     830.9263     55.31807      272.104        14     1.355     0.640  46.29   0
       605    616.1545     83.8006 307.6810554  +6.6557927     529.3495     653.6686     866.9742     78.04359     156.7133     313.3953      1.684     4.15     830.7535     55.31807     77.81763         6     1.216     0.405  60.58   0
       606    241.9694     82.7055 307.8365703  +6.6436609     991.7773     1475.937     2351.022     78.79282     156.7133     313.8324      2.019     4.74     843.3199     55.31807     146.3657        11     1.130     0.732  29.02   0
       607    394.7102     81.3567 307.7731514  +6.6493601      2049.96     2969.656     3008.818     78.66844     156.8382     313.8636      1.612     4.27     835.5218     55.31807     273.6646        18     1.408     0.774  45.61   0
       608    142.6669     78.3318 307.8779781  +6.6421185     3217.759     5024.507     5075.371     78.66844     157.0254     313.8636      1.711     4.33     843.4468     55.31807      385.488        25     1.490     0.927  50.47   0
       609     24.5548     76.2268 307.9271236  +6.6390011     12316.71     19418.24     20611.93     78.16896     157.0254     313.7388      1.711     4.37     848.0184     55.31807     1601.164        39     1.601     1.018  50.48   0
       610    291.1741     76.9799 307.8163193  +6.6476817     1406.622      2237.83     2931.323     78.29413     156.7757     313.7388      1.820     4.33     842.3354     55.31807     207.7274        17     1.373     0.804  35.80   0
       611    759.6089     75.6581 307.6217203  +6.6639652     635.8643     1072.454     1891.509     78.04359     156.9006     313.5515      2.999     5.25     829.3936     55.31807     105.8139         9     1.272     0.613  79.14   0
       612    551.6830     76.0839 307.7081048  +6.6568132     790.4441     1179.468     1401.598      78.4191     157.2124      313.926      1.704     4.63        830.9     55.31807     109.1641         8     1.084     0.561  34.58   0
       613    894.2510     72.6948 307.5658713  +6.6696978     552.6721     1092.437     1049.135     78.54387     156.9006     314.0508      1.773     2.64     828.4048     55.31807     112.6208         5     0.693     0.588 -54.45   2
       614    826.2024     70.8813 307.5942091  +6.6681681     6279.838     9374.945     9939.122     78.04359     156.5883     313.5827      1.588     4.35     829.0894     55.31807     885.9857        33     1.534     0.926  44.74   0
       615    771.2903     71.3049 307.6170128  +6.6661536     3363.273     5220.132     5612.615     78.66844     157.4613     313.8636      1.683     4.22     829.2072     55.31807     554.5135        22     1.438     0.855  48.34   0
       616    416.3599     71.5179 307.7644880  +6.6541495     1092.372     1421.769     1634.705     78.66844     157.0254       313.77      1.449     4.09     833.3391     55.31807     168.2094        13     1.199     0.795  42.94   0
       617    917.5338     70.7805 307.5562607  +6.6712671      518.392     666.9705     827.9021     78.29413      156.963     313.7388      1.580     4.67     827.7536     55.31807     112.5984         6     1.263     0.489  47.47   0
       618    564.5164     76.0357 307.7027739  +6.6572641     570.5812      1043.75     1147.778     78.66844      156.963     313.8012      1.640     4.68     830.8226     55.31807     90.41095         7     1.279     0.487  48.53   0
       619    533.7899     69.3310 307.7157675  +6.6589995     1154.604     1842.142     1644.729     78.16896     156.7757     313.6764      1.584     4.37     830.7022     55.31807     184.6544        13     1.279     0.655  39.25   0
       620     64.8210     67.9448 307.9106742  +6.6437791      3287.52     5238.927     5205.005     78.16895      156.963     313.6452      1.624     4.12     845.4769     55.31807     427.9418        23     1.443     0.902  52.91   0
       621     49.0349     68.9294 307.9171998  +6.6428398     863.7548     1497.627     1915.645     78.54387     156.9006     313.8324      1.974     5.13     846.2808     55.31807     147.5569        10     1.340     0.554  38.63   0
       622    425.9875     67.5227 307.7606225  +6.6561224     975.1475     1373.425     1613.291     78.29413     156.5883     313.6452      1.697     4.43     832.8884     55.31807     144.3668        10     1.158     0.638  50.59   0
       623    588.7028     64.8012 307.6931025  +6.6627135      1168.34     1720.729     1937.064     78.16895     156.6508      313.489      1.649     4.66     830.2727     55.31807     171.8729        15     1.371     0.723  59.12   0
       624      7.1102     63.4445 307.9348049  +6.6436879     2580.188     4076.578     4707.998     78.66844     156.8382     307.1463      1.738     4.02     847.6526     55.31807     335.1558        23     1.466     0.889  50.76  16
       625    868.4056     60.7833 307.5770115  +6.6737495     372.0136     422.3382     147.1308     78.29413     156.6508     313.6764      1.178     3.45     828.6586     55.31807     67.41077         5     1.212     0.284  35.64   0
       626    765.9367     58.7607 307.6196595  +6.6711521     1962.665     2955.377      3399.58     78.66844     156.9006     313.8636      1.624     4.26     828.8514     55.31807     275.8396        20     1.464     0.793  52.80   0
       627    406.5132     58.7065 307.7690121  +6.6591064     1053.984     1628.967     1947.194     78.66844     157.3991      313.926      1.662     5.81     834.1564     55.31807     148.7115        11     1.333     0.713  50.34   0
       628     79.5848     59.2071 307.9048360  +6.6478839     986.6415     1603.112     1874.031     78.29413     156.7133     313.6764      1.742     5.78     844.5309     55.31807     129.9476        13     1.287     0.811  51.22   0
       629    103.5014     57.5118 307.8949562  +6.6493908     1006.187     1383.565     1472.538     78.66844     157.3991     313.8636      1.571     4.99     843.7866     55.31807     135.7728        10     1.154     0.679  24.82   0
       630     92.6182     52.3172 307.8996541  +6.6511677     9324.578     14607.35     15225.06     78.29413     156.6508     313.8012      1.696     4.32     843.9511     55.31807      1220.68        36     1.596     0.970  48.97   0
       631    421.6151     51.9934 307.7629636  +6.6623853      2554.51      4244.37     4250.743     78.29413     156.7133     313.6764      1.701     4.28     832.8572     55.31807     337.8614        23     1.555     0.862  55.24   0
       632    242.8488     51.5181 307.8372598  +6.6565635     635.3378     821.4444     908.2875     78.66844      156.963     313.8636      1.478     4.78     843.3007     55.31807     84.92609         7     1.177     0.550  74.32   0
       633    258.8729     46.3331 307.8307770  +6.6592435     1485.113     2541.941     4054.956     78.79282     157.0877     313.8012      2.295     6.24     842.9941     55.31807     217.7538        19     1.584     0.921  32.42   0
       634    635.3143     44.4604 307.6744195  +6.6726743      18722.9     27878.46     29606.21     78.79282     157.0877      313.926      1.656     4.49     829.3062     55.31807     2832.596        47     1.595     0.990  48.31   0
       635    535.0974     40.5404 307.7161952  +6.6709274     5402.098     8345.863     8707.819      78.4191      156.963     313.9572      1.671     4.19      829.532     55.31807     768.8859        30     1.471     0.982  49.02   0
       636    621.7245     35.0348 307.6803842  +6.6761088     3106.533     5491.177      6738.03     78.54387     157.0254     313.8012      2.068     6.64     829.0936     55.31807      502.027        30     2.078     0.890  66.15   0
       637    440.6844     36.1050 307.7555763  +6.6695849     22970.16     34882.09     36463.29     78.54387     157.3369      313.926      1.650     4.07     831.7882     55.31807     2970.971        53     1.624     1.044  46.97   0
       638      2.4254     38.7109 307.9375900  +6.6537385     1214.592     1639.863      1518.34     78.79282     139.8049      253.451      1.565     5.32     845.2347     55.31807     162.3034        11     1.293     0.618  40.99  24
       639    506.5243     37.4002 307.7281742  +6.6712635      609.647     872.1811     1476.049     77.91801     156.3379      313.614      1.850     5.10     829.6588     55.31807      115.574         7     1.433     0.513  29.89   0
       640    261.2762     36.4529 307.8301125  +6.6634027     9444.824     14621.03     16164.33     78.66844      156.963     313.8636      1.718     4.24     842.9558     55.31807     1273.838        39     1.596     1.022  47.83   0
       641    918.5401     36.1128 307.5570074  +6.6856109     1950.796     2771.773     2705.009     78.66844     157.0877      313.926      1.569     4.23     826.5856     55.31807     286.9156        14     1.335     0.663  51.02   0
       642    320.9359     36.5422 307.8053198  +6.6653751     931.0521     1303.824     1720.627     78.79282     156.9006     313.8636      1.535     4.82     841.0757     55.31807     129.5863         9     1.176     0.561  61.13   0
       643     26.7437     35.9134 307.9275806  +6.6557146     2330.913     3684.442     3929.376     78.66844      156.963     313.9572      1.743     4.79     844.5826     55.31807     303.4471        20     1.451     0.868  48.71   0
       644    253.5470     40.8418 307.8331757  +6.6613307       1944.4     3185.158       4607.6     78.66844     157.0254     313.8636      2.024     4.86       843.09     55.31807      251.778        19     1.488     0.792  54.83   1
       645    526.2161     35.8168 307.7200450  +6.6725788     587.1776     742.7386     980.6282      78.4191     156.6508       313.77      1.276     3.07     829.4196     55.31807     116.1012         5     0.913     0.344  42.16   0
       646    249.2453     33.1884 307.8352220  +6.6643448      3075.19     5045.859     5511.258     78.16895     156.7757     313.5515      1.765     4.65     843.1857     55.31807     429.0502        25     1.585     0.921  46.88   0
       647    302.1810     31.0283 307.8132992  +6.6670195     1056.121      1444.69     1660.096     78.29413     156.7757       313.77      1.462     5.85     841.8735     55.31807     146.6971        13     1.437     0.671  52.07   0
       648    939.1818     26.1535 307.5487642  +6.6904125     880.6133     1310.993     805.9177     78.16895     156.9006     313.5827      1.584     4.97     825.8032     55.31807     174.0438        10     1.371     0.510  49.90   0
       649    690.3815     25.7010 307.6521687  +6.6822652     1810.218     2842.368     3074.996     78.66844     156.8382     313.5827      1.751     4.14     828.4549     55.31807     253.0846        18     1.346     0.828  43.15   0
       650     95.4923     26.1408 307.8993466  +6.6620691     552.7831     1082.681     702.6902     78.54387     156.9006     313.9572      1.842     4.26     843.5818     55.31807     70.76971         6     1.087     0.475  31.98   0
       651    256.2295     21.1334 307.8327276  +6.6695559      823.368     1228.086     1210.659      78.4191      156.963     313.8012      1.562     5.21     843.0516     55.31807     130.2775        11     1.279     0.768  25.36   0
       652    201.9035     21.0201 307.8553049  +6.6677718     796.7427     1136.693     769.0298     78.54387     156.7757     313.6452      1.459     4.04      843.217     55.31807     114.5036         7     0.911     0.512  47.19   0
       653    749.2419   1020.6523 307.5942491  +6.2735382     1183.496     2098.123     1825.636     78.66844     156.5883     279.6097      1.818     6.35     862.8088     55.31807     142.7238        16     1.561     0.809  34.70  16
       654    198.4314   1019.7550 307.8229772  +6.2554085     591.1946     851.9841     1037.676     78.29413     157.0254     289.9258      1.395     3.50     864.3669     55.31807     98.60272         5     0.823     0.429 -69.37  16
       655    621.9848   1018.4377 307.6471626  +6.2701869     535.8916     479.2561      267.144      78.4191     156.7757     302.6176      1.202     4.17     866.3459     55.31807     94.33771         6     0.964     0.515  76.56  16
       656    956.6035   1014.8961 307.5083411  +6.2828532     5788.525     10494.35     10544.66      78.4191     156.6508     313.5203      1.882     4.69     859.2534     55.31807     699.4841        40     1.727     1.190  49.35  16
       657    711.1442   1015.1154 307.6102540  +6.2745473     1075.337      1820.53     2339.391     78.66844      156.963     313.9572      1.842     5.32      863.539     55.31807     128.5763        12     1.231     0.793  59.16   2
       658    716.4691   1012.8749 307.6081184  +6.2756506     2836.222     4430.609     4479.249     78.79282     157.0877     313.8324      1.641     4.35     863.3542     55.31807     372.7986        23     1.411     0.976  42.77   2
       659    240.9492   1014.6040 307.8054983  +6.2589662     1401.045     2068.094     2339.839     78.04359     156.7133     313.4578      1.684     5.52     865.3529     55.31807     190.9315        15     1.405     0.818  59.26  16
       660    439.3066   1013.8086 307.7231678  +6.2659655     847.8072     1267.233     1253.685     78.29413     156.5883     313.6452      1.680     5.91     866.1317     55.31807     101.2508        13     1.226     0.803  42.54   0
       661    731.9254   1012.0818 307.6017273  +6.2764958     906.8602      1352.39      1543.67       78.917     157.2746     313.8948      1.577     4.51     862.9033     55.31807     146.6501        13     1.265     0.764  48.70   0
       662    362.8877   1010.3264 307.7550145  +6.2648343     1799.909     2932.014      2892.08     78.66844     157.2746     313.8324      1.701     4.69     866.5708     55.31807     249.2622        17     1.460     0.742  45.99   0
       663    973.8460   1008.6852 307.5013898  +6.2859934     754.1556     991.6522     743.8051     78.66844     156.9006     313.8324      1.552     4.57     857.4442     55.31807     113.4063         7     1.036     0.572  68.63   0
       664    749.8517    999.9327 307.5946922  +6.2821114     7474.479     12419.15      13364.3     78.54387     156.9006     313.8012      1.744     4.31     862.2541     55.31807       969.75        36     1.626     1.022  48.62   0
       665    545.3572   1000.5471 307.6795815  +6.2750009     4245.141     6763.715     7793.716     78.66844      156.963     313.8636      1.792     4.30       865.88     55.31807     503.1459        32     1.483     1.072  46.61   0
       666    515.5748   1001.6237 307.6919113  +6.2735567     1128.179      1557.99      1855.06     78.16896     156.7757       313.77      1.521     5.27     865.8802     55.31807     160.3463        11     1.130     0.712  51.38   0
       667    295.6448    999.2013 307.7833091  +6.2671648     14403.45     23203.98     25668.33     78.04359     156.5883     313.4265      1.772     4.23     866.2661     55.31807     1966.062        60     1.614     1.519  12.15   0
