#   1 NUMBER                 Running object number                                     
#   2 X_IMAGE                Object position along x                                    [pixel]
#   3 Y_IMAGE                Object position along y                                    [pixel]
#   4 ALPHA_J2000            Right ascension of barycenter (J2000)                      [deg]
#   5 DELTA_J2000            Declination of barycenter (J2000)                          [deg]
#   6 FLUX_APER              Flux vector within fixed circular aperture(s)              [count]
#   9 FLUXERR_APER           RMS error vector for aperture flux(es)                     [count]
#  12 FLUX_RADIUS            Fraction-of-light radii                                    [pixel]
#  13 FWHM_IMAGE             FWHM assuming a gaussian core                              [pixel]
#  14 BACKGROUND             Background at centroid position                            [count]
#  15 THRESHOLD              Detection threshold above background                       [count]
#  16 FLUX_MAX               Peak flux above background                                 [count]
#  17 ISOAREA_IMAGE          Isophotal area above Analysis threshold                    [pixel**2]
#  18 A_IMAGE                Profile RMS along major axis                               [pixel]
#  19 B_IMAGE                Profile RMS along minor axis                               [pixel]
#  20 THETA_IMAGE            Position angle (CCW/x)                                     [deg]
#  21 FLAGS                  Extraction flags                                          
         1     97.1611     21.4649 307.8993097  +6.6621506      696.105     954.6161     1025.836     78.12373     155.8142     311.7523      1.452     4.74     835.6696     54.93504     84.50299         8     0.938     0.679  53.90   0
         2    257.7903     15.2857 307.8327717  +6.6700627     898.2327     1277.743     1112.933       77.752     155.5661     311.5044      1.503     4.20     836.0546     54.93504     155.2437        11     1.286     0.625  79.36   0
         3    180.4933     13.5871 307.8649473  +6.6681856     11665.74     16505.48        16790     77.87611     155.6282     311.4734      1.555     3.68     835.8481     54.93504     1624.951        34     1.445     0.922  59.79   0
         4    926.0638     10.8643 307.5552210  +6.6940939     4068.133     6115.388     6690.825     78.12373     155.8762     311.6904      1.594     3.97     818.6453     54.93504     568.6132        24     1.443     0.874  61.03   0
         5    524.7717     11.5267 307.7219571  +6.6805048     3312.973     4404.489     4636.233     78.00002     155.8762     311.5974      1.472     3.75     823.1052     54.93504     481.4229        21     1.311     0.850  63.68   0
         6    726.9624      9.6624 307.6379991  +6.6879907     2089.707     2728.338     2385.046     78.12373     155.9381     311.6594      1.383     4.26     822.4941     54.93504     322.1628        13     1.210     0.636  61.54   0
         7    462.7517      9.8892 307.7477836  +6.6791180     2057.489     3001.114     3599.838     78.12373     155.7522     311.8143      1.518     3.48      825.064     54.93504     317.5646        15     1.205     0.720  62.64   0
         8    990.9402      7.2257 307.5283814  +6.6977439         2035      3365.29     4144.996       77.752     155.8762     305.7469      1.831     4.25     818.4108     54.93504      250.539        19     1.382     0.913  68.81  16
         9    785.8236      6.6999 307.6136375  +6.6911665     673.2499     788.3807     796.1871     78.37057     155.6282     301.6129      1.263     3.91     822.6523     54.93504     105.5958         6     1.193     0.367  60.86  16
        10    710.2654      3.7575 307.6451340  +6.6898750     7977.383     11071.67     11225.45     78.12373       152.05     270.1642      1.492     3.74     822.3289     54.93504     1141.109        26     1.397     0.849  61.54  24
        11    630.4914      3.1304 307.6783052  +6.6874853     4199.704     5808.981     5956.732     78.12373     146.8154     261.7399      1.448     3.61     822.4482     54.93504      624.014        22     1.379     0.791  57.81  24
        12    332.4212      2.9604 307.8021720  +6.6776396     1052.422      1479.26     1413.093       77.752     144.7619     259.2189      1.418     4.46     834.9152     54.93504     170.2186         8     1.066     0.573  56.86  16
        13    386.4777      1.8813 307.7797456  +6.6798858     639.4695     586.0208      769.246     74.32286     131.9173     243.4657      1.100     3.32     831.0978     54.93504     124.2836         6     0.781     0.489  80.36  24
        14    431.4987      1.2013 307.7610603  +6.6816654     1982.093     2300.011     2446.857     66.06837     121.7924     232.2187      0.899     2.31     827.1277     54.93504     647.6399         9     1.118     0.399  -2.30  24
        15     32.2500      1.2256 307.9269588  +6.6683388     2176.091     2376.051     2521.106     66.36007      122.425     232.7172      0.905     2.14     834.9207     54.93504     681.2409         9     0.952     0.416   3.01  24
        16    518.0976    996.9036 307.6919121  +6.2733874     953.2382      1725.67     1344.447     78.12373     156.4328     311.5044      2.114     5.33     855.4407     54.93504     129.3479        11     1.108     0.763  26.49   0
        17    893.7974   1023.7040 307.5350246  +6.2747813     825.8488      1060.57     861.4289     67.08376      122.976     233.6283      1.343     3.84     851.2038     54.93504     160.0314         7     1.080     0.446   5.64  24
        18    752.6951   1022.5978 307.5936496  +6.2705636     697.4244     1117.642     1534.886      77.6277     138.5583     251.0814      1.867     5.64     853.5419     54.93504     96.32916         8     1.270     0.706  83.17  25
        19    719.5859   1020.1313 307.6074790  +6.2704843     6502.395     11157.82     11786.75      77.6277     155.8142     283.6606      1.829     3.98     853.9482     54.93504     808.2957        38     1.582     1.172  60.03  24
        20    586.3585   1022.8498 307.6627063  +6.2649407     60714.99     80285.54     83050.17     76.37354     135.3143     247.3614      1.451     4.42      856.012     54.93504     8153.558        58     1.421     1.071  22.62  24
        21    434.4071   1020.4938 307.7258757  +6.2608641     3814.076     6497.104     7181.362     77.75201     155.5661     279.3726      1.847     4.05      855.776     54.93504     480.0309        32     1.615     1.044  67.62  24
        22    216.2209   1022.7534 307.8163902  +6.2526675     1887.731     2572.491     2726.726     76.87766     136.7342     248.8017      1.503     4.33     854.6266     54.93504     227.0507        16     1.252     0.806  38.19  24
        23    298.0651    994.2623 307.7833595  +6.2671588     14586.31     23328.89     25142.26     78.12373     155.8762     311.6904      1.735     3.72     855.5209     54.93504     1738.521        58     1.560     1.500 -71.88   0
        24    813.7090    994.4080 307.5692509  +6.2842265     952.5185     1995.333     2027.395     77.75201     155.5661     311.4734      2.094     6.72      852.002     54.93504     175.6449        17     1.659     0.998  74.12   0
        25    422.6930    995.1741 307.7315828  +6.2709299     987.1232     1618.116     1446.571     78.24725     155.6282     311.5044      1.668     5.42     855.3795     54.93504     140.6475        10     1.240     0.669  71.01   0
        26    269.2056    991.6360 307.7954296  +6.2672820     957.5195     1696.543       2024.5     77.25359     155.6282     311.4424      1.712     4.80     855.0054     54.93504     156.8691        13     1.354     0.804  57.28   0
        27    913.7415    988.2200 307.5279196  +6.2900944     7368.995     13590.98     14943.76       77.752     155.7522     311.4734      1.977     4.58     850.0307     54.93504     852.3528        43     1.679     1.254  58.31   0
        28    887.2484    984.3596 307.5390484  +6.2908115        10670     19566.45     21258.08     78.00002     155.8142     311.5664      1.980     4.22     850.4751     54.93504     1178.445        53     1.732     1.348  51.30   0
        29    600.0446    985.1086 307.6582786  +6.2809799     1389.059     2517.628     2882.784     78.12373     155.8142     311.7833      1.994     4.69     855.2414     54.93504     185.0038        17     1.435     0.872  68.36   0
        30   1009.0755    983.7358 307.4884820  +6.2951001     3792.239     7518.657     8159.476     78.24725     155.8762     311.6284      2.057     4.84     847.0507     54.93504     401.8212        40     1.715     1.305  49.65   0
        31    531.5546    983.5929 307.6867675  +6.2793310     4089.817      6786.96     7812.625      77.6277     155.6902     311.3184      1.871     4.60     855.2787     54.93504     489.3656        31     1.609     1.090  43.25   0
        32    641.1370    982.6964 307.6412963  +6.2833401     1225.297     1975.138     2126.149     78.00002          156     311.7214      1.598     4.47     854.6429     54.93504     168.1525        15     1.340     0.823  54.74   0
        33     66.1757    982.3640 307.8800366  +6.2643410     814.5882     1376.405     981.2911       77.752     155.6902     311.4424      1.740     4.37     851.6953     54.93504     122.0408         9     0.949     0.867  89.81   0
        34    484.5884    980.0058 307.7063881  +6.2792514     2073.072     3124.502     3375.745       77.752     155.6902     311.5664      1.699     3.84     855.1828     54.93504     252.3553        19     1.291     0.886  60.92   0
        35    919.0726    971.8989 307.5262469  +6.2970105     36861.41     67373.09     73176.46     77.87611          156     311.6594      1.961     4.29     849.6309     54.93504     4025.321        79     1.849     1.359  57.02   0
        36    226.2074    970.4138 307.8139908  +6.2746127     1694.573     2673.282     2469.797     77.75201     155.6282     311.5044      1.659     3.98     853.4732     54.93504     238.1082        17     1.330     0.833  55.94   0
        37    114.2069    969.1071 307.8605373  +6.2714178     656.1436     751.2481     627.9265       77.752     155.5661     311.4734      1.449     4.99     852.0986     54.93504     94.61938         6     1.052     0.669 -81.67   0
        38    624.8975    968.5148 307.6485108  +6.2886572     848.8658     1520.194     1542.385     78.12373     156.2475     311.7214      1.838     5.10     854.6412     54.93504     123.8021        11     1.333     0.833  34.69   0
        39    816.9568    965.6278 307.5688573  +6.2962186     2238.403     3565.712     2848.972       77.752     155.9381     311.5664      1.723     4.13     851.4239     54.93504     257.7251        24     1.422     1.002  62.50   0
        40    765.1921    963.5422 307.5904211  +6.2953644     6087.681     10319.94     11207.32      77.5032     155.7522     311.4424      1.847     3.97     852.4693     54.93504     713.3424        36     1.584     1.118  63.15   0
        41    234.5720    963.1298 307.8107609  +6.2778992     1381.671     2350.688     2188.043     77.87611     155.8762     311.5974      1.706     4.90     853.4633     54.93504     178.2277        14     1.267     0.747  62.55   0
        42    551.8486    963.0630 307.6790240  +6.2884828     893.0558     1333.256       1383.7     78.00002     155.8142     311.7213      1.555     4.63     854.9681     54.93504     120.2275        10     0.951     0.784 -17.17   0
        43    199.1115    962.1569 307.8255168  +6.2771191     784.4634     1325.545     1343.785     78.12373     155.8142     311.6904      1.711     6.45      852.774     54.93504     92.91455        12     1.356     0.862 -38.92   0
        44    953.3753    958.5873 307.5124441  +6.3036426     5738.341     10237.71     10651.03     77.87611     155.6902     311.5974      1.925     4.18     848.6031     54.93504     672.7991        42     1.683     1.283  59.00   0
        45     59.4827    961.0829 307.8835269  +6.2729050     2726.612      4111.74     4333.233     77.87611     156.1238     311.7523      1.607     3.60     850.9356     54.93504     325.9871        23     1.290     1.047  43.51   0
        46    635.7990    952.8481 307.6445050  +6.2954884     716.2779     1143.417     995.8753      77.5032      155.504     311.2253      1.504     4.81     854.2198     54.93504      105.681         8     1.239     0.530  59.66   0
        47    927.1249    950.3913 307.5236161  +6.3061585     1732.493     3060.187     2941.955       77.752      155.504     311.4734      1.910     5.36      849.093     54.93504     202.4529        23     1.412     1.154  56.54   0
        48    260.0698    946.8517 307.8007171  +6.2854704      4372.57     6876.771     7035.077     78.00002     155.7522     311.6594      1.653     3.77     853.4549     54.93504     578.5112        28     1.478     0.993  57.11   0
        49    786.7375    946.8901 307.5820273  +6.3029548     1288.321     2227.179     2420.946     78.12373          156     311.7214      1.840     5.11     851.7357     54.93504     157.5624        16     1.233     0.949  61.94   0
        50    647.8196    946.2334 307.6397334  +6.2986189      4551.19     7225.865     7375.799      77.6277     155.6902     311.4734      1.661     3.70     854.0009     54.93504     567.3407        31     1.466     1.043  58.94   0
        51    997.0232    945.9569 307.4947378  +6.3103021      667.861     1277.718     1474.588      77.6277     155.7522     311.4734      2.032     6.05     847.4846     54.93504     100.2844         8     1.093     0.941  88.00   0
        52    470.2635    944.7961 307.7135084  +6.2933145     1039.087     1669.095     1536.565      77.5032     155.6282     311.4424      1.557     4.87     854.6954     54.93504     156.5662        12     1.227     0.818  54.61   0
        53     28.6943    944.3972 307.8968682  +6.2787671     2071.751     3391.503     3573.355     77.87611     155.5661     311.3804      1.753     4.10     849.8217     54.93504     255.7962        22     1.333     1.088  47.96   0
        54    879.4524    942.6537 307.5436685  +6.3077755     852.9782     1543.441     1140.636     78.37057     155.8142     311.6904      1.871     4.50     849.6754     54.93504     128.3621        11     1.274     0.918  57.93   0
        55    971.2800    940.0377 307.5056238  +6.3118950     536.8763     749.5278     678.7124     78.00002     155.9381     311.6284      1.721     6.33     848.0241     54.93504     85.81104         8     1.341     0.839  34.08   0
        56    295.5757    940.4227 307.7861889  +6.2893078     898.8598     1245.903     1330.964      77.6277     155.7522     311.6594      1.598     5.45     853.7914     54.93504     116.1243        10     1.157     0.774  44.58   0
        57    951.6396    940.4078 307.5137672  +6.3110923     679.3715     1163.522     970.7859      77.5032     155.6282     311.3804      1.859     4.95     848.4136     54.93504     83.79926         8     1.023     0.679   0.90   0
        58    572.5078    938.9882 307.6712466  +6.2991103     1715.475     2555.068      2590.42     77.87611     155.5661     311.4424      1.582     3.71     854.4457     54.93504     247.3282        17     1.268     0.844  62.31   0
        59   1003.8480    938.1830 307.4921613  +6.3137380     602.8047     1484.672     1779.279      77.6277     155.8762     311.4424      2.499     3.73     847.3538     54.93504     107.9045         6     0.899     0.620  64.95   0
        60    611.5004    935.7136 307.6551643  +6.3017573     1339.973     2009.433     2017.521     78.12373      156.371     311.7214      1.650     4.46     854.0773     54.93504     149.4463        16     1.226     0.922  48.33   0
        61     61.3658    936.4218 307.8835696  +6.2831510     684.3098      1079.01     1382.493      77.6277     155.6902     311.4114      1.726     5.50     850.2756     54.93504     107.7109         8     1.073     0.794  77.39   0
        62    291.6432    933.2156 307.7880621  +6.2921528     1483.937     2192.744     2263.791      77.6277     155.6902     311.4424      1.619     5.25     853.5123     54.93504     171.3595        16     1.388     0.827  51.53   0
        63    758.4009    928.3953 307.5944080  +6.3096528     827.5115     1154.403     1160.816      77.5032     155.4419     311.4114      1.631     5.52     852.1096     54.93504     118.1473        11     1.214     0.708  31.25   0
        64    896.0786    925.5466 307.5373317  +6.3153903     6377.449     10928.93     11326.83     78.24725     155.8762     311.6904      1.858     4.13     849.1007     54.93504     776.6302        37     1.644     1.152  53.23   0
        65    133.6995    927.2072 307.8538439  +6.2893696     541.6299     774.6821       1014.4     77.87611      155.504     311.4734      1.362     3.34      851.045     54.93504     107.6994         5     1.181     0.273  33.74   0
        66    333.6187    921.3459 307.7710287  +6.2984519     9863.847     14891.93     15546.62      77.6277     155.8762     311.4734      1.652     3.54     853.7516     54.93504     1225.796        39     1.543     1.062  64.91   0
        67    431.9979    922.8151 307.7301296  +6.3011188     2089.909     3046.253     2983.833       77.752     155.5661     311.4734      1.564     3.79     854.1776     54.93504     267.9893        18     1.334     0.818  58.17   0
        68    253.6485    920.2907 307.8042697  +6.2962243     7137.725     10865.79     11409.35     78.12373     155.6902     311.8143      1.651     3.72     852.6718     54.93504     895.8192        36     1.530     1.020  58.52   0
        69    765.8458    913.9519 307.5917960  +6.3158639     692.6561     1187.224      340.819     78.12373     155.7522     311.6904      1.468     4.75     851.7794     54.93504     100.5967         7     1.487     0.430  39.82   0
        70    581.4301    914.3178 307.6683623  +6.3095940     1100.149     1959.516     2221.431     78.00002     155.6902     311.6284      1.901     4.51     854.0649     54.93504     153.3589        13     1.313     0.806  50.18   0
        71    911.7631    910.8376 307.5313063  +6.3219835     987.0142     1704.839      2064.52     77.87611     155.7522     311.5354      1.765     4.17     848.7559     54.93504     149.7375        14     1.139     0.982  22.41   0
        72    144.3318    910.8253 307.8499764  +6.2964887     629.3961     794.7262     881.9581       77.752     155.7522     311.5664      1.370     4.18     850.8905     54.93504     91.68445         6     0.755     0.660  45.15   0
        73    868.1809    909.0627 307.5494630  +6.3212735     771.7337     1129.761       1208.4       77.752     155.8762     311.5354      1.597     4.15     849.3503     54.93504     124.6451         8     0.982     0.711  70.94   0
        74    747.9987    903.4950 307.5995543  +6.3195904     1497.254     2478.284     2704.247      77.6277      155.504     311.2873      1.749     4.68     852.1542     54.93504     222.3978        17     1.483     0.823  72.57   0
        75    571.8443    904.3401 307.6726746  +6.3133957     687.7759     947.9534     1191.417     78.00002     155.8142     311.7833      1.726     3.15     854.0308     54.93504     117.8003         7     0.852     0.584  33.49   0
        76    612.5046    900.4774 307.6559189  +6.3163410      771.675     1057.709     1034.546     77.87611          156     311.7214      1.518     5.80     853.7601     54.93504     108.1339        10     1.155     0.820  68.61   0
        77    979.0127    899.2543 307.5037639  +6.3289921     1091.124     1996.208     2365.044      77.5032     155.8142     311.3804      2.129     6.19     846.7107     54.93504     130.2404        13     1.209     0.891  52.00   0
        78    533.4482    899.6753 307.6887737  +6.3140465     1150.665     1733.536     1554.521     78.00002     155.9381     311.6904      1.698     5.24     854.0997     54.93504     168.6337        12     1.292     0.687  43.06   0
        79    666.6320    897.0924 307.6335550  +6.3195354     2419.574     3866.196     4032.471     78.24725     155.6902     311.6904      1.734     3.89     853.1044     54.93504     307.4595        21     1.327     0.971  62.68   0
        80   1017.6070    896.7603 307.4878196  +6.3312984     498.0077     956.4908     1246.703      77.5032     155.5661     306.6615      1.853     5.61     845.2706     54.93504     90.19623         6     1.313     0.676 -54.84  16
        81    956.9910    894.3600 307.5130710  +6.3302846     545.4384      827.075     840.4777      77.5032     155.6902     311.4114      1.647     6.06     847.3332     54.93504     80.68585         7     1.470     0.702 -50.57   0
        82     63.2777    893.6407 307.8842061  +6.3008800     2906.373     4509.477     4848.029     78.00002     155.8762     311.6904      1.692     3.49      849.238     54.93504     354.8537        25     1.429     0.973  59.59   0
        83    827.8787    893.5201 307.5667145  +6.3263568     760.2095     998.3644     1131.423     78.37057     156.1238     311.7833      1.369     3.69     850.0323     54.93504     129.1599         7     0.931     0.570  51.96   0
        84    206.8226    892.4854 307.8246412  +6.3061454     2233.983     3488.822     3291.914     78.12373     155.6282     311.5664      1.688     3.91     851.4857     54.93504     267.2121        23     1.400     1.016  35.87   0
        85     80.7806    892.8584 307.8769647  +6.3017873      2116.26     3130.557     3273.039       77.752     155.7522     311.4734      1.610     3.62     849.3811     54.93504     277.9987        19     1.272     0.906  54.31   0
        86    944.2677    891.9470 307.5184345  +6.3308601     675.1362     942.3973     1159.231     78.00002     155.8142     311.5664      1.613     4.78     847.7747     54.93504     103.7252         5     0.930     0.695 -73.92   0
        87    345.4853    888.8265 307.7671856  +6.3122752     974.5753     1573.784     1987.071     78.24725     155.6282     311.5354      1.723     5.06     852.7851     54.93504     116.2972        13     1.023     1.009  35.63   0
        88    240.5057    888.8751 307.8107754  +6.3087588     869.7759     1563.501     1504.248     77.87611     156.0619     311.6594      1.739     5.22     851.8993     54.93504     139.6827        11     1.416     0.545  53.19   0
        89    798.6276    886.6163 307.5790905  +6.3282385     701.7899     1318.943     1167.911     77.75201     155.6282     311.5664      1.974     4.85      850.527     54.93504     95.89337         8     1.603     0.415  54.64   0
        90    661.2869    886.2207 307.6361358  +6.3238474     7066.365     10758.25     11076.26     78.12373     155.6282     311.5354      1.646     3.72     852.9943     54.93504     909.1492        32     1.435     1.047  56.23   0
        91     21.4497    884.8772 307.9018670  +6.3031021     1344.453     2180.211     2076.832     78.12373     155.9381     311.6284      1.635     3.62     848.7187     54.93504     172.2976        15     1.194     0.817  64.95   0
        92     34.3191    883.3970 307.8965729  +6.3041431     1061.513     1730.626     1727.855      77.5032     155.4419     311.4114      1.774     5.68     848.7762     54.93504     129.0496        15     1.258     0.878  78.71   0
        93    899.0761    882.2106 307.5375238  +6.3333849     2633.087     4461.663     4285.114       77.752      155.504     311.4734      1.769     4.03     848.6938     54.93504     306.1678        27     1.429     1.085  56.30   0
        94    344.2849    879.5499 307.7679933  +6.3160659     17327.29     25553.14     27091.35     78.12373     155.8142     311.7214      1.629     3.66     852.4794     54.93504     2302.722        43     1.496     1.062  59.99   0
        95     78.6267    880.3658 307.8782767  +6.3068739     1279.303     1958.286     2041.123      77.6277     155.6282     311.4424      1.583     4.56      848.974     54.93504     173.1686        13     1.291     0.665  50.99   0
        96    215.0920    879.4614 307.8216423  +6.3117990     1240.232     1877.179     1982.493     78.00002     155.9381     311.7523      1.669     3.58     851.3357     54.93504     162.6232        11     1.042     0.697  54.11   0
        97    394.6607    878.6887 307.7471037  +6.3180980     745.2903     900.1483     1185.405     78.12373          156     311.6904      1.393     4.48     852.8046     54.93504      100.652         8     0.853     0.779  29.98   0
        98    107.5165    870.4057 307.8666138  +6.3119507     1692.682     2526.782     2878.871      77.6277      155.504     311.4114      1.657     3.62     849.0845     54.93504     227.0872        16     1.187     0.870  66.53   0
        99    421.8311    870.2591 307.7361022  +6.3224828     1102.164     1630.274     1648.991     77.87611     155.8762     311.6284      1.554     4.30     852.8311     54.93504     162.5105        14     1.228     0.770  64.86   0
       100    453.8716    869.4730 307.7228235  +6.3238730     496.7341     735.8337     1058.451     78.37057          156     311.6904      1.691     4.27     853.1232     54.93504     76.74384         6     1.059     0.491  -5.45   0
       101    502.7393    866.9089 307.7026163  +6.3265564     717.7546     1018.711     1048.933     78.00002     155.9381     311.7214      1.532     5.21      853.464     54.93504     94.40662         8     1.191     0.644  43.29   0
       102    675.7736    866.0607 307.6307901  +6.3326530     920.4053     1477.677     2842.541       77.752     155.8762     311.5354      2.865     5.65     852.4269     54.93504     149.6436        11     1.298     0.692  80.61   0
       103    889.5252    864.0821 307.5420912  +6.3405547     1964.458     3321.514     3861.475     78.37057     156.1856     311.7213      1.899     4.83     848.6807     54.93504     232.6639        24     1.503     1.042  67.83   0
       104    823.5262    863.1242 307.5695306  +6.3387644     2960.616     4679.506     5156.621     78.37057     156.1238     311.6904      1.752     4.52     849.7228     54.93504     351.6895        27     1.621     0.959  63.99   0
       105    860.3915    863.8612 307.5541969  +6.3396812     1976.627      3062.94     2910.436      77.5032     155.6902     311.4424      1.641     3.82     849.1542     54.93504     267.0838        19     1.291     0.896  54.42   0
       106     90.9974    863.6285 307.8736996  +6.3141979     2431.069     3663.106     3934.865      77.6277     155.6282     311.4734      1.599     3.82     848.5291     54.93504     346.8343        19     1.353     0.891  64.02   0
       107    338.8560    861.7832 307.7708401  +6.3232216     663.9519     955.2094     796.2234      77.6277     155.8142     311.4114      1.606     4.83     851.9585     54.93504     100.7621         8     1.285     0.515  59.98   0
       108    454.0823    861.4902 307.7230019  +6.3271764     789.0952     1127.477     1560.332     77.87611     156.1238     311.7523      1.742     5.15     852.9037     54.93504     114.2477         8     1.074     0.749  37.90   0
       109    559.3637    854.6520 307.6795104  +6.3334993     349676.4     515015.3     536932.2     78.00002     155.8762     311.6284      1.617     3.72     853.2249     54.93504     47688.95       169     1.681     1.219  60.88   0
       110    646.9684    857.6060 307.6430330  +6.3351883     1181.101     1927.246     1811.792      77.5032     155.6902     311.4424      1.599     4.81     852.7012     54.93504     159.4067        15     1.318     0.803  68.74   0
       111    403.6302    857.3193 307.7440913  +6.3272206     8090.625     11792.64     12253.44     78.00002     155.7522     311.6284      1.598     3.55     852.2978     54.93504     1035.777        32     1.441     0.993  49.94   0
       112    346.7958    855.7853 307.7677431  +6.3259626     13187.52      19486.5     19923.41       77.752      155.504     311.5044      1.570     3.56     851.7965     54.93504     1742.795        40     1.469     1.030  56.16   0
       113    897.7723    850.5276 307.5391158  +6.3464250     4813.391     7759.405     8332.604     77.87611     155.8142     311.5974      1.739     3.91     848.3907     54.93504     584.3368        34     1.574     1.077  70.24   0
       114    665.2211    851.8651 307.6356440  +6.3381647     3511.027     5086.392     5357.265       77.752     155.8762     311.5354      1.574     3.69     852.2401     54.93504     474.5538        22     1.453     0.834  54.10   0
       115    828.5292    845.0772 307.5680518  +6.3463825     1600.992     2658.519     2924.954     78.37057     156.1238     311.6594      1.840     4.59     849.4241     54.93504     196.9831        16     1.392     0.776  54.12   0
       116    640.1373    845.7699 307.6462632  +6.3398492     3511.694     5292.988     5802.276     77.87611     155.8762     311.5974      1.663     3.63     852.4244     54.93504     440.4514        24     1.330     1.000  61.63   0
       117    630.3738    844.8053 307.6503497  +6.3399234     1184.057     1356.559     1506.849      77.6277     155.6902     311.5044      1.461     5.19     852.5233     54.93504      155.725        13     1.342     0.768  67.38   3
       118    632.9983    840.5777 307.6494004  +6.3417563     2200.752     3359.783     3717.204       77.752     155.5661     311.3804      1.758     4.13     852.3429     54.93504     298.5973        23     1.365     0.993  61.72   3
       119    182.4781    846.0360 307.8363011  +6.3245139     668.5813     935.7994     1051.756     78.00002     155.9381     311.6594      1.611     5.32     850.2953     54.93504     106.2773        10     1.165     0.820  34.12   0
       120    955.3956    843.7678 307.5154100  +6.3511237     783.6099      1008.76      972.843      77.5032     155.7522     311.4424      1.441     4.69     846.3334     54.93504     107.1701         8     0.932     0.669   4.50   0
       121    916.6827    838.5184 307.5316609  +6.3520102      3003.26     5128.427     5011.669     78.00002     156.1238     311.7523      1.823     4.45     847.8463     54.93504     354.9869        28     1.547     1.055  54.21   0
       122    326.7096    839.1422 307.7766390  +6.3321663     1021.564     1695.008     1405.987     78.00002     155.8762     311.7833      1.732     5.52     851.6295     54.93504     146.7505        12     1.277     0.672  45.67   0
       123    459.5922    835.8094 307.7215691  +6.3379641     361.5563     496.2204     804.9464      77.6277     155.6902     311.5354      1.001     3.40      852.106     54.93504      71.4021         5     0.747     0.449  70.40   0
       124    374.5956    834.6760 307.7569028  +6.3356046     2909.887     4082.864     4360.062     77.75201     155.3797     311.5044      1.553     3.86     851.5504     54.93504     398.3501        19     1.309     0.831  62.66   0
       125    510.8960    824.3483 307.7006460  +6.3444024     3267.725     4667.589     4428.302     78.00002     155.8142     311.9072      1.527     3.52     851.8442     54.93504      464.406        23     1.365     0.861  56.97   0
       126    855.4755    822.9682 307.5575951  +6.3564049     916.6167     1487.772     1545.434     78.00002     155.9381     311.6284      1.719     5.84     848.9166     54.93504     136.7924        12     1.370     0.700  52.00   0
       127    576.3101    822.3636 307.6735473  +6.3473953     765.9132      1133.57      1836.65     78.24725     155.8142     311.6904      1.683     4.75     851.8232     54.93504      102.134         9     1.241     0.515  50.14   0
       128    557.7927    820.3901 307.6813028  +6.3475951     6322.928      9154.19     10140.04      77.6277     155.6902     311.5354      1.577     3.60     851.7383     54.93504     842.1337        27     1.400     0.904  60.07   0
       129    564.9796    820.1085 307.6783276  +6.3479501     1250.624     1801.782     2592.538     78.00002     155.6902     311.5044      1.718     3.56     851.7383     54.93504     187.7638        12     1.145     0.726  44.51   0
       130    269.5498    821.1711 307.8009745  +6.3376834     876.3629     1245.517     1093.943     77.75201          156     311.5664      1.511     4.47     851.0248     54.93504     118.3265         8     0.997     0.571  18.74   0
       131    893.4302    818.4707 307.5419821  +6.3595190     1252.605     2059.862     1788.714     78.00002     155.8762     311.6284      1.814     4.43      848.098     54.93504      176.103        17     1.323     0.917  84.74   0
       132    475.4944    819.3094 307.7155150  +6.3453063     1711.944      2475.88     2168.582     78.12373      156.371     311.6594      1.571     3.66     851.5794     54.93504     246.9145        16     1.216     0.827  63.24   0
       133    117.2959    818.8313 307.8642767  +6.3335734     1400.014     2134.563      2073.03     78.24725     155.6902     311.7523      1.658     4.50     848.4416     54.93504     175.6868        16     1.255     0.878  62.98   0
       134    693.8090    818.0139 307.6248971  +6.3530918     641.2703     994.1832     1326.997     77.87611     155.6282     311.5664      1.786     4.75     851.1207     54.93504     93.41339         5     1.443     0.444  64.29   0
       135    528.4200    814.3359 307.6937020  +6.3491192     20851.71     30178.54     30497.35     77.75201     155.8762     311.5044      1.585     3.70     851.4653     54.93504     2897.225        41     1.459     1.010  59.20   0
       136    369.7153    815.8550 307.7595569  +6.3432140     703.5701     954.0396     723.9207     78.12373     155.8762     311.8143      1.396     3.79     851.1505     54.93504     157.8355         6     0.972     0.425  56.09   0
       137    942.1382    812.3815 307.5219560  +6.3636458     3601.743     6073.217     6423.581       77.752     155.8142     311.5354      1.783     4.08     846.4183     54.93504     454.3074        28     1.513     1.043  52.26   0
       138    174.8162    814.3702 307.8405403  +6.3373341     623.1339     732.8086     534.6414       77.752     155.6282     311.5974      1.228     3.47     849.1749     54.93504     91.52734         5     0.811     0.429 -18.74   0
       139     62.7619    810.9563 307.8871851  +6.3350051      445.347     654.5922     977.1419     77.87611     155.8762     311.5044      1.329     4.79     848.0247     54.93504     82.15503         5     0.966     0.674  62.10   0
       140    414.1034    809.2625 307.7413436  +6.3474133     564.2911     901.2087     654.3254     77.87611          156     311.7214      1.733     5.90     851.0799     54.93504      71.4209         8     1.053     0.930 -16.74   0
       141     38.7289    805.1750 307.8973581  +6.3365899     1636.716     2449.582     2055.999       77.752     155.7522     311.5974      1.553     4.50     847.9694     54.93504     225.6327        15     1.323     0.779  54.97   0
       142    321.0290    803.2668 307.7801944  +6.3467912     3520.805     5031.494     4855.218     77.87611     155.8762     311.6284      1.529     3.58     850.9879     54.93504     514.4161        24     1.341     0.915  53.36   0
       143    582.8445    803.6437 307.6714565  +6.3553425     529.0924     781.7766     1167.777     78.12373     155.8762     311.5974      1.956     5.28     851.0587     54.93504     66.75031         6     1.078     0.731   8.62   0
       144    786.6232    798.7654 307.5869919  +6.3641180     55397.58     83922.36     87845.26      77.6277     155.6282     311.4424      1.628     3.67     849.2141     54.93504     7088.049        67     1.607     1.107  60.13   0
       145     20.8397    801.4521 307.9049111  +6.3375298      2220.46     3445.332     2947.689     78.00002     155.8762     311.6594      1.659     3.99     847.9351     54.93504     288.0504        21     1.366     0.946  58.37   0
       146    725.1057    800.2390 307.6124906  +6.3614699      772.092     1042.813     1640.836     78.24725     155.7522     311.7523      1.413     4.38     850.2444     54.93504     128.6532         8     1.080     0.505  57.30   0
       147    243.7946    796.7296 307.8124854  +6.3469179     5467.833     8517.723     10516.08      77.6277      155.504     311.5354      1.768     3.70     849.7401     54.93504     709.4785        34     1.533     1.036  63.29   0
       148    429.9944    797.6367 307.7351319  +6.3527426     841.9988     1190.855     1126.031     77.25359     155.6282     311.4734      1.441     4.76     850.7301     54.93504     134.9257         9     1.074     0.598  52.92   0
       149    911.8989    793.9512 307.5351252  +6.3702556     8199.556     13158.63     13497.01     78.12373     155.8142     311.8452      1.703     3.98      847.157     54.93504     983.5917        37     1.577     1.046  57.76   0
       150    714.8259    793.4115 307.6169866  +6.3639483     22340.86     33584.11     36114.69       77.752     155.6902     311.5974      1.631     3.58     850.1232     54.93504     2865.807        50     1.660     1.059  64.43   3
       151    708.5468    789.9191 307.6197103  +6.3651822     92242.91     135011.7     140695.9     78.12373     155.8762     311.7213      1.580     3.54     850.0809     54.93504     11761.31        77     1.580     1.112  61.72   3
       152    531.3087    793.9777 307.6931800  +6.3576219     447.7817     675.4175     303.0029     78.12373     155.6902     311.5044      1.343     3.44     850.6858     54.93504     110.6805         5     1.042     0.328  48.15   0
       153    353.4022    790.9753 307.7671607  +6.3529446     21759.04     31611.71     32733.42       77.752     155.5661     311.4734      1.558     3.56      850.302     54.93504     2886.015        41     1.483     0.989  59.01   0
       154    402.6246    791.1766 307.7467132  +6.3544996     1535.614     2052.724     2048.115      77.6277     155.7522     311.6284      1.523     4.26     850.3405     54.93504     202.6519        13     1.240     0.668  49.82   0
       155    642.0551    790.1487 307.6473160  +6.3628810     837.1661     1134.569     1164.888     78.12373     155.8762     311.6904      1.439     5.13     850.5054     54.93504     128.5225        10     1.228     0.606  66.84   0
       156    415.2820    788.7784 307.7415368  +6.3559111      23710.9      34071.7     34984.07     77.87611     155.5661     311.5974      1.534     3.51     850.2477     54.93504     3194.323        43     1.492     0.990  58.71   0
       157    243.3305    775.3293 307.8133925  +6.3557392     759238.7      1668876      1828915     78.12373          156     311.6284      2.231     7.26     848.7325     54.93504     63211.14       578     2.484     1.961  65.62   4
       158    908.8104    785.4072 307.5366912  +6.3736816     6667.179     10396.35     10678.66      77.6277     155.6902     311.5664      1.650     3.66     846.9772     54.93504     809.8732        34     1.521     1.035  54.74   0
       159    881.5900    786.2914 307.5479665  +6.3724152     851.0353     950.1986     870.4953     77.87611      155.504     311.4114      1.278     3.90     847.7801     54.93504      132.741         9     0.972     0.703  52.03   0
       160    649.3374    784.5527 307.6444778  +6.3654336     6851.378     9797.829     10122.07     78.00002     155.7522     311.6904      1.564     3.57     850.2944     54.93504     957.8557        28     1.423     0.920  59.74   0
       161    437.8780    782.7223 307.7323549  +6.3591635     1953.735     2583.551     2668.248     78.37057     156.1238     311.7523      1.416     3.80     850.0497     54.93504     271.4041        13     1.151     0.715  57.09   0
       162    163.0420    782.2051 307.8465042  +6.3502233     855.1732     1270.167     862.0939      77.5032     155.5661     311.3804      1.659     5.08     847.6486     54.93504     122.1494        10     1.338     0.616  66.23   0
       163    877.2079    776.4597 307.5501125  +6.3763301     878.0669     951.9517     676.3981      77.5032     155.6902     311.3804      1.397     4.08     847.6377     54.93504     146.2404         9     1.145     0.710  43.98   0
       164    602.4279    776.3513 307.6642317  +6.3672629     1079.633      1619.54     1601.198     77.75201     155.9381     311.5974      1.375     3.34     850.0683     54.93504     196.8285        10     1.036     0.737  69.42   0
       165    153.6348    775.9601 307.8506193  +6.3524882     940.3585     1493.293     978.0227     77.87611     155.7522     311.4734      1.569     5.41     847.2803     54.93504     114.4738        11     1.215     0.681  60.18   0
       166    128.7977    775.7874 307.8609390  +6.3517310     941.9957     1507.206     1809.776       77.752     155.5661     311.5044      1.812     6.02     847.1352     54.93504     147.3175        11     1.298     0.787  70.68   0
       167    684.3515    774.5275 307.6302699  +6.3707353     2464.878     3489.841     3564.843     78.12373     155.9381     311.6904      1.503     3.54     849.7234     54.93504      382.666        19     1.385     0.735  56.16   0
       168    418.2046    771.4315 307.7409012  +6.3631715     56886.32        82706     85636.77      77.5032     155.7522     311.4424      1.575     3.65      849.342     54.93504     8081.794        64     1.517     1.082  57.92   0
       169    535.9543    770.3868 307.6920360  +6.3675178     7494.385     10758.81     10641.28      77.5032     155.6902     311.4424      1.515     3.52     849.8503     54.93504     1020.661        29     1.435     0.894  54.61   0
       170    452.7188    769.0347 307.7266478  +6.3653092     4885.463     7261.807     7577.755     78.00002     155.8762     311.6594      1.544     3.50     849.5219     54.93504     644.6501        29     1.441     0.947  54.31   2
       171    449.3737    762.5415 307.7282533  +6.3678792     2384.788      3398.07      3835.59     77.75201     155.8762     311.4734      1.563     3.80     849.2263     54.93504      324.742        19     1.389     0.773  61.50   3
       172    781.2210    766.9144 307.5902929  +6.3770916     11749.57     17471.56     18043.13     77.87611     155.6282     311.5664      1.580     3.62     848.2645     54.93504     1518.963        38     1.502     1.018  55.62   0
       173    675.9321    765.9376 307.6340520  +6.3740031     532.3774     928.3039     1115.748     78.12373     155.8142     311.6904      1.731     3.71     849.3964     54.93504     82.71796         5     1.027     0.384  57.39   0
       174     10.5353    763.4514 307.9104615  +6.3528769     1109.136     1541.445     1209.329     78.12373     155.8142     311.6594      1.619     5.02     846.9901     54.93504      146.415        13     1.344     0.717  61.80   0
       175    802.6329    761.1368 307.5815923  +6.3801871      1284.64     1935.662     1922.974     77.87611     155.9381     311.6284      1.638     3.83     847.6898     54.93504     208.1619        16     1.285     0.862  52.98   0
       176    138.8901    759.2188 307.8573017  +6.3589093     12036.45      18132.9     19378.98     77.87611     155.6282     311.5664      1.603     3.67     846.4167     54.93504      1609.95        40     1.515     1.038  55.02   2
       177    131.0340    756.6296 307.8606507  +6.3597164     3087.488     4955.269      5581.45      77.6277     155.6282     311.4424      1.723     3.95     846.3015     54.93504     391.9257        26     1.480     0.960  57.71   3
       178    147.0119    759.4503 307.8539212  +6.3590846     3144.619     4769.271      5019.03      77.5032     155.7522     311.3804      1.626     3.77     846.4429     54.93504     425.1125        21     1.412     0.818  59.54   0
       179    926.6928    755.3254 307.5302619  +6.3866956      6282.33     9888.752     11085.83     78.12373          156     311.6284      1.707     3.84     845.5623     54.93504     754.2344        33     1.545     1.023  59.30   0
       180    975.6920    755.1445 307.5099179  +6.3883918     1337.579      2200.24     2701.936     78.00002     155.7522     311.7833      1.740     4.06     843.7893     54.93504     167.2081        15     1.218     0.832  67.57   0
       181    682.0129    753.2060 307.6319497  +6.3794623     1815.421       2494.6     2407.687       77.752     155.6902     311.5354      1.472     4.02     848.8173     54.93504      277.626        16     1.255     0.854  59.15   0
       182    569.0914    752.5563 307.6788678  +6.3759816     2394.734     3429.268     3352.754     78.12373     155.8142     311.7833      1.553     3.73     849.2744     54.93504     361.7953        16     1.230     0.779  46.25   0
       183    416.8026    751.5682 307.7421453  +6.3713270     1249.452     1954.379     2224.941      77.5032     155.6902     311.4424      1.642     5.97     848.3685     54.93504     176.5897        15     1.579     0.642  73.99   0
       184    700.2946    751.0853 307.6244278  +6.3809445     537.0786     704.8043      394.142     78.12373     156.2475     311.7213      1.698     5.28     848.6832     54.93504     76.28687         8     1.308     0.602 -61.70   0
       185    952.4839    787.2979 307.5184908  +6.3743463     2047.784     3348.312     3273.371     78.12373     156.2475     311.7214      1.771     4.72     845.3839     54.93504     240.4946        23     1.551     0.962  76.62   0
       186    131.1933    750.1750 307.8608002  +6.3623869     2000.798     3001.111     3431.706      77.6277     155.7522     311.5044      1.616     3.98     845.9901     54.93504     255.1952        19     1.322     0.923  44.50   0
       187    950.2847    746.7969 307.5207466  +6.3909983     2920.925     4743.963     4471.986      77.5032      155.504     311.3804      1.721     3.95     844.5524     54.93504     394.7107        26     1.482     1.001  57.95   0
       188    920.9177    747.4714 307.5329208  +6.3897478     3025.629     4693.243     5038.564     78.37057     156.1856     311.6904      1.687     3.94      845.501     54.93504     386.8601        25     1.470     0.954  61.20   0
       189    981.1627    746.4835 307.5079329  +6.3921493     1672.622     2883.867     3000.412     78.12373     155.8142     311.5974      1.821     4.49     843.4901     54.93504     223.8631        23     1.506     0.980  55.01   0
       190    673.4201    746.5455 307.6357398  +6.3819275     1465.982     2222.159     2321.368      77.6277     155.8762     311.4734      1.636     4.32      848.584     54.93504     230.3378        15     1.217     1.002  68.47   0
       191    820.5770    744.9475 307.5746774  +6.3874670     949.9107     1282.434     1058.424      77.6277     155.8762     311.4734      1.510     4.67     847.1401     54.93504     137.8705        11     1.166     0.699  58.56   0
       192    245.7703    742.0776 307.8134893  +6.3695511     2000.304     3027.396     3546.427     78.00002     155.9381     311.6594      1.631     4.02     847.2781     54.93504     250.6392        20     1.330     0.993  70.17   0
       193    895.9792    742.5217 307.5434423  +6.3909661     713.8733     1191.162     1313.309       77.752     155.6282     311.6284      1.788     4.63     846.1281     54.93504     91.07135         8     1.241     0.491  63.56   0
       194    938.6784    737.0605 307.5258897  +6.3946348     1039.319     1801.069     1804.043     78.24725     155.9381     311.6284      1.792     6.31     844.6572     54.93504     143.4876        14     1.417     0.860  64.03   0
       195    266.0725    737.8210 307.8052003  +6.3719852     689.8618     889.2484     777.3638       77.752     155.7522     311.6284      1.360     3.84     847.2137     54.93504     103.8862         6     0.915     0.461  39.92   0
       196    161.2705    737.0328 307.8487491  +6.3688170     902.6725     1417.519     1145.629     78.00002     155.8762     311.6904      1.627     5.30     845.4117     54.93504     143.7813        10     1.230     0.644  54.44   0
       197    965.1334    734.7374 307.5149794  +6.3964695     2337.308     3658.266     4018.017     78.12373     155.8762     311.6594      1.660     4.09     843.8417     54.93504     287.5244        22     1.446     0.898  59.64   0
       198    912.3488    735.5639 307.5368745  +6.3943813     1014.192     1814.088     1796.406     78.00002     155.8762     311.5974      1.826     4.23     845.4479     54.93504     170.7053        13     1.270     0.839  49.21   0
       199    684.5557    733.4389 307.6315507  +6.3877092     1002.555     1577.667     1345.656     77.87611     155.8762     311.5664      1.677     5.24     848.0089     54.93504     164.6775        11     1.366     0.700  59.51   0
       200    972.9217    734.4979 307.5117527  +6.3968261     558.7623      585.186     849.0606     77.87611     156.1238     311.6904      1.249     3.73     843.5957     54.93504     79.66174         6     0.801     0.500   0.32   0
       201    405.8845    729.7551 307.7474065  +6.3799712     615.6151     738.5936     490.9379     78.12373     155.8142     311.6594      1.651     4.36     847.3774     54.93504     111.1093         7     1.302     0.416  62.53   0
       202    475.9981    729.5423 307.7182955  +6.3823911     742.4286     925.2488     600.9162      77.5032     155.5661     311.4114      1.544     5.10     848.2547     54.93504     94.19922        10     1.081     0.794  51.80   0
       203   1007.0071    727.7571 307.4978196  +6.4007371     1611.942     2597.448     2510.733      77.6277     155.6282     311.3804      1.678     4.79     842.6251     54.93504     188.7403        19     1.376     0.954  63.79   0
       204    632.6208    727.6381 307.6533126  +6.3883810     820.3408     1123.992     1465.214     77.75201     155.6282     311.4114      1.615     5.14      848.234     54.93504     142.3145        10     1.126     0.911  54.76   0
       205    808.3246    726.6457 307.5803734  +6.3946186      1263.86     1724.224     1769.831     78.00002     155.9381     311.6904      1.503     4.28     846.7105     54.93504     183.6922        12     1.191     0.671  49.25   0
       206    894.5620    723.6954 307.5446553  +6.3986934     1534.771     2298.847     2862.354     78.24725     155.7522     311.7833      1.612     4.23     845.6321     54.93504     202.2247        16     1.321     0.844  72.42   0
       207    869.1548    718.9241 307.5553657  +6.3998224     980.3207     1514.712     1555.954     78.00002     155.9381     311.6904      1.656     5.75     846.2308     54.93504     154.7559        14     1.248     0.992  40.36   0
       208    655.0527    719.2629 307.6442749  +6.3925840     535.9933     1001.582     762.1653     78.12373     155.8142     311.6284      1.442     3.15     847.7214     54.93504      109.381         5     0.803     0.476  54.68   0
       209    851.6421    715.4429 307.5627547  +6.4006799     1771.404     2478.381     2016.427     77.87611     155.8762     311.5354      1.463     3.67     846.2872     54.93504     271.5385        14     1.237     0.718  40.97   0
       210     50.4917    714.6570 307.8955012  +6.3743595     2655.311     3738.007     4202.101     78.00002     155.8142     311.7523      1.570     3.40     845.6718     54.93504     362.2155        20     1.304     0.845  55.37   0
       211    114.3272    713.2245 307.8690394  +6.3770819     1029.899     2013.895      1779.76     77.75201     155.7522     311.5974      1.973     7.95     844.9402     54.93504     131.5216        20     1.793     0.985  59.26   0
       212    568.1984    709.6216 307.6806673  +6.3936813     560.5499      465.132     56.74332     77.75201     155.5661     311.3804      1.176     4.38     847.9677     54.93504     100.4072         7     1.269     0.429  65.93   0
       213    663.2192    702.8097 307.6414303  +6.3996492     6811.169     9786.196     10658.04       77.752     155.5661     311.5354      1.518     3.55     847.0982     54.93504     968.5873        29     1.445     0.892  63.26   0
       214    531.9809    703.2474 307.6959211  +6.3951101      662.635     838.3295     481.4401      77.6277     155.8762     311.4734      1.340     4.10     847.6916     54.93504     107.1904         7     1.133     0.423  54.79   0
       215    609.8513    702.0410 307.6636205  +6.3981950     1538.537     2186.779     2572.789     78.12373     155.8762     311.6594      1.556     3.91     847.7399     54.93504     236.9635        15     1.225     0.776  57.82   0
       216    520.7852    702.4017 307.7005989  +6.3950872     911.2634     986.5229      1347.96     77.75201     155.5661     311.4734      1.428     5.13     847.5969     54.93504     143.8249        11     1.078     0.779  54.59   0
       217    126.1025    698.9608 307.8646261  +6.3833647     3945.342     6003.717     6157.015     78.12373     155.7522     311.8762      1.595     3.63     844.6011     54.93504     586.8953        24     1.393     0.902  62.52   0
       218   1000.0839    697.8086 307.5016873  +6.4128753     2451.907      3952.61     4450.568       77.752     155.5661     311.5044      1.795     3.54     842.8933     54.93504     300.7474        22     1.254     1.040  76.45   0
       219    637.1017    698.4960 307.6524208  +6.4005636     2315.069     3541.668     4221.426     78.12373     156.4328     311.5044      1.708     3.67     847.2731     54.93504     330.9696        20     1.406     0.771  60.09   0
       220    312.3381    698.9487 307.7872836  +6.3895780     751.8081     1163.779     1264.454     78.12373     155.8142     311.6594      1.797     4.95     845.4193     54.93504     111.1735         9     1.141     0.608  48.13   0
       221    248.5487    698.5544 307.8137885  +6.3876157     675.0336     1089.545       1521.9     78.24725     155.8142     311.6904      1.641     3.60     845.1537     54.93504     129.7511         6     0.954     0.392  69.34   0
       222    780.1516    694.8636 307.5931296  +6.4068090     21058.44     30980.69     32484.73     78.00002     155.7522     311.7213      1.547     3.64     846.3765     54.93504     2869.059        46     1.554     1.013  62.52   0
       223    910.1836    694.5991 307.5391322  +6.4112258     3706.698     5790.212     6075.353       77.752     155.4419     311.3804      1.621     3.66     844.4608     54.93504      496.223        25     1.438     0.936  50.61   0
       224    507.7761    695.2297 307.7062406  +6.3976164     1040.403     1506.685     1165.598      77.6277     155.7522     311.4734      1.638     4.72     847.2978     54.93504     160.6176        12     1.226     0.682  59.25   0
       225    479.0380    695.1252 307.7181794  +6.3967042     1504.796     2066.552     1720.948     78.00002     155.9381     311.7213      1.457     3.79     847.1072     54.93504     209.7461        15     1.242     0.769  57.87   0
       226    325.3173    695.0480 307.7820235  +6.3916210     684.1472       793.54     648.6617     78.12373     155.8762     311.6904      1.523     5.02     845.2615     54.93504      113.217         6     0.958     0.745  41.79   0
       227    281.5409    694.4494 307.8002239  +6.3904101     660.3539     925.1467     431.5557     78.12373     155.8762     311.7214      1.263     4.43     845.0671     54.93504     106.9683         9     1.095     0.637  59.83   0
       228    253.6125    688.7422 307.8120131  +6.3918362     6640.601     9538.009     10315.42      77.5032     155.8142     311.3804      1.543     3.56      844.675     54.93504     938.4806        29     1.434     0.928  64.18   0
       229    660.6436    687.7709 307.6430000  +6.4057739     7508.913     10993.89     11652.39     77.75201     155.9381     311.5664      1.572     3.58     846.6243     54.93504      1074.19        31     1.481     0.901  56.64   0
       230    643.2332    688.9832 307.6501906  +6.4046954     994.9057     1734.042     2048.818       77.752     155.6282     311.5354      1.753     4.69      846.912     54.93504     137.7268        14     1.246     0.865  64.27   0
       231    355.4157    687.1772 307.7697859  +6.3958732     756.7975     1132.037     1412.355     77.87611     155.6902     311.5664      1.632     5.11     845.0256     54.93504     120.0435        10     1.367     0.546  60.16   0
       232    920.6623    679.9567 307.5352656  +6.4176192     1219.885     1889.387     2007.819     78.12373     155.8142     311.7523      1.760     5.13     843.8101     54.93504     173.3772        16     1.487     0.933  62.02   0
       233    732.3564    676.1313 307.6136025  +6.4129596     3807.848     5642.466     7162.603     78.12373     155.8142     311.7214      1.615     3.75     846.0385     54.93504     534.6707        23     1.444     0.859  63.43   0
       234    687.5836    676.4397 307.6321878  +6.4113470     1016.689     1337.645     1767.962     77.75201     155.7522     311.4424      1.478     4.40     846.0385     54.93504     158.3799         9     1.123     0.596  62.09   0
       235    998.7208    672.5937 307.5030889  +6.4232426     8495.904     13505.41     13995.47     77.75201     155.3797     311.4114      1.717     3.93     842.9649     54.93504     1016.701        35     1.557     1.047  58.02   0
       236    937.1351    673.0468 307.5286530  +6.4210179     2361.585     3736.513     4022.214     78.00002     155.8142     311.6904      1.640     4.23     843.3945     54.93504      284.547        19     1.308     0.914  56.55   0
       237     17.8733    672.9364 307.9104430  +6.3904975     1973.626     3078.363      3467.94     78.24725     155.8762     311.6594      1.649     3.87     845.8011     54.93504     267.2334        20     1.381     0.898  44.18   0
       238    551.3633    670.9202 307.6889473  +6.4091033     608.5538     870.6185     1211.932     78.00002     155.9381     311.6594      1.707     5.14     846.8644     54.93504     94.15131         7     1.292     0.578  56.21   0
       239    434.1857    670.8456 307.7376161  +6.4052384     662.0817     879.6083      571.422      77.5032     155.6902     311.4424      1.287     3.94     846.2432     54.93504     107.2348         6     1.164     0.382  60.75   0
       240     75.9587    667.8698 307.8864900  +6.3945294     27135.81     39883.02     41578.89     78.00002     155.8762     311.7213      1.546     3.56     844.6191     54.93504     3728.959        51     1.511     1.065  57.36   0
       241    537.3051    668.6730 307.6948608  +6.4095641     2218.076     3098.871     3064.134     78.00002          156     311.6594      1.460     3.97      846.744     54.93504     346.3672        15     1.268     0.726  58.19   0
       242    274.1179    668.9390 307.8041581  +6.4006967     520.1856     672.4691     1060.295     78.24725     155.8762     311.6594      1.321     4.32     843.8665     54.93504      86.6825         6     1.247     0.427  36.51   0
       243    506.0347    665.8198 307.7079432  +6.4097030     1489.551     1859.744     2287.483      77.6277     155.6902     311.4424      1.376     4.18     846.4182     54.93504     194.9445        14     1.312     0.709  58.49   0
       244    927.1890    664.6820 307.5330614  +6.4241429      1029.89     1524.295      1674.52       77.752     155.6282     311.5044      1.477     5.97     843.3415     54.93504     130.1523        14     1.473     0.681  44.76   0
       245    546.2045    662.3817 307.6913741  +6.4124577     1154.061     1713.739     1784.139     77.75201      155.504     311.4734      1.588     3.70     846.6036     54.93504     198.3881        12     1.173     0.705  63.92   0
       246    722.0334    659.8694 307.6184303  +6.4193324     3736.044     5437.715     5539.507     78.00002     155.8762     311.6904      1.518     3.55     845.4851     54.93504     508.6123        23     1.405     0.840  55.55   0
       247    744.0970    658.1579 307.6093234  +6.4207709     4145.991      6039.85     6298.054     78.12373     155.8142     311.8762      1.508     3.94     845.4447     54.93504     576.5373        22     1.377     0.810  55.73   0
       248    411.7204    656.7208 307.7474172  +6.4103237     1476.654     2127.128     1799.393     78.37057     156.1238     311.8143      1.541     4.14     845.5001     54.93504     232.0928        13     1.234     0.800  74.96   0
       249    575.4894    656.0664 307.6794214  +6.4160385      3577.56     4904.105       5036.2     78.24725     156.0619     311.5974      1.473     3.64     846.2153     54.93504     517.6997        18     1.291     0.778  56.75   0
       250    319.5944    655.2456 307.7857281  +6.4078661     1575.366     2249.948     2236.442      77.5032     155.6282     311.3184      1.512     4.23     843.6385     54.93504     225.7179        15     1.340     0.708  60.83   0
       251    235.8847    655.7428 307.8204773  +6.4048717     1993.939     2878.151     2565.769     78.12373     155.8762     311.7523      1.467     3.73     843.5298     54.93504     311.6446        15     1.209     0.762  66.40   0
       252   1016.9650    654.0905 307.4961243  +6.4314869     4838.212     7584.189     7968.157     78.24725     155.8142     310.4175      1.638     3.83     842.6523     54.93504     645.4562        27     1.437     1.007  56.20  16
       253    982.3207    652.9401 307.5105519  +6.4308160     7818.741     12143.57     12153.33     78.24725     155.8762     311.5974      1.664     3.85     842.8091     54.93504     969.7159        35     1.545     1.038  60.92   0
       254    536.3795    654.0839 307.6957309  +6.4155577     620.0325     777.6011     872.1208     77.87611     155.5661     311.5974      1.498     4.23      846.322     54.93504     90.51617         6     1.055     0.484  31.48   0
       255    702.3160    651.9821 307.6268818  +6.4219354      1044.92      1603.51     1635.739       77.752     155.5661     311.5974      1.512     5.19      845.145     54.93504     160.7318        11     1.195     0.645  58.73   0
       256     93.6009    650.1932 307.8797543  +6.4024173     988.4285     1531.783     2362.791      77.5032     155.5661     311.4734      2.114     5.22     843.9897     54.93504     127.8723        13     1.288     0.731  68.33   0
       257    140.7370    646.7621 307.8602931  +6.4054071     25873.11      37313.2     38352.43     78.12373     155.8762     311.6594      1.546     3.51     843.5606     54.93504     3619.026        46     1.485     1.019  57.50   0
       258    427.6725    647.3486 307.7411043  +6.4147245     2990.236     4401.701     4968.749     78.12373     155.8762     311.6904      1.742     3.95     845.3394     54.93504       424.21        25     1.538     1.061  85.10   0
       259    808.9240    646.8030 307.5827752  +6.4276089     1215.358     1703.926     2021.911      77.6277     155.3797     311.5354      1.497     4.22     844.9786     54.93504     174.9383        14     1.168     0.838  56.79   0
       260    645.3583    646.7858 307.6507112  +6.4221909     454.4018     541.9089     372.5534      77.6277     155.6902     311.4114      1.118     3.53     845.1067     54.93504     85.83801         5     0.786     0.457 -76.76   0
       261    602.6555    641.6886 307.6686168  +6.4228779      611.961     772.1962     419.2039     78.12373     155.7522     311.8143      1.350     4.03     845.2384     54.93504     107.6706         5     0.807     0.713 -29.67   0
       262    360.5586    641.6222 307.7691692  +6.4148556     792.1469     1492.076     1473.246     77.75201     155.6902     311.4424      1.934     6.22     843.5416     54.93504     91.99725        12     1.326     0.819  42.29   0
       263    977.2404    635.9534 307.5132250  +6.4376625      6817.39     11195.77     11862.81     78.00002     155.8762     311.4734      1.750     3.91     842.5911     54.93504      865.269        38     1.661     1.047  51.62   0
       264     21.5637    635.7746 307.9101539  +6.4059657     1170.838     1880.493     1679.189     77.75201     155.6902     311.4424      1.698     4.41     845.0083     54.93504     163.5143        11     1.261     0.686  50.69   0
       265    570.7548    631.3622 307.6822100  +6.4260825     51158.44     73139.02     75816.41     77.87611     155.8142     311.5664      1.541     3.80     845.2294     54.93504      7087.63        60     1.545     1.003  60.54   0
       266    934.8669    632.4876 307.5309399  +6.4376915     662.3987     859.3816      1093.83     78.24725     156.0619     311.6904      1.521     4.38     842.6388     54.93504     97.07782         7     1.261     0.433  67.78   0
       267    214.0158    632.8713 307.8303236  +6.4135870     669.8814     1031.451     1104.716      77.6277     155.8142     311.5354      1.474     4.65     843.2397     54.93504     101.9731         7     0.965     0.637  24.11   0
       268    530.0392    631.5803 307.6991134  +6.4246396     765.1486     955.1801     1002.544       77.752     155.6902     311.4114      1.409     3.63     845.6961     54.93504     129.5428         6     1.098     0.346  48.74   0
       269    501.0088    628.3987 307.7112768  +6.4249884     706.0519     950.3083     774.5239      77.5032     155.5661     311.4424      1.462     4.30     845.5134     54.93504       106.59         7     1.219     0.431  54.13   0
       270    178.1734    628.1768 307.8453664  +6.4143303     2825.995     3869.601     4297.526      77.6277     155.7522     311.5664      1.522     3.70     843.1782     54.93504     412.6388        20     1.286     0.879  54.00   0
       271    981.9078    627.6923 307.5115602  +6.4412283     620.0508     1017.264     1095.565     78.12373      156.371     311.6904      1.977     5.01     842.4671     54.93504     110.6956         7     1.095     0.648  61.95   0
       272     70.8655    622.4527 307.8901242  +6.4131131     1274.716     2121.172      2159.04     78.12373     155.8142     311.6284      1.802     4.78     843.9183     54.93504     168.0094        17     1.412     0.799  54.72   0
       273    467.9776    615.2092 307.7254352  +6.4293366     67828.19     96419.91     99782.39       77.752     155.6282     311.5044      1.511     3.64     844.9426     54.93504       9881.9        65     1.524     1.015  59.56   0
       274     11.5898    616.9725 307.9149253  +6.4133963      1769.79      2501.57     2620.379       77.752     155.6902     311.5354      1.474     4.26     844.8049     54.93504     230.2166        19     1.333     0.955  77.53   0
       275    654.0798    612.4060 307.6482321  +6.4366772     905.0432     1188.653     1638.459       77.752     155.4419     311.4114      1.330     3.48     843.3876     54.93504     184.3361         8     1.063     0.508  53.69   0
       276    142.2113    610.2194 307.8609022  +6.4205457     1716.219     2291.386     1882.131       77.752     155.5661     311.5664      1.476     3.96     843.0558     54.93504     228.7275        14     1.235     0.712  64.30   0
       277    421.4732    608.1045 307.7449870  +6.4307235     1058.639     1264.742     1134.048     78.00002          156     311.6594      1.309     4.84     843.7351     54.93504     157.5449        11     1.112     0.869  15.25   0
       278    614.2537    606.8784 307.6649577  +6.4376376     947.1902     1315.057     1194.107     78.24725     155.8762     311.6904      1.524     4.94     843.2222     54.93504     126.0062        12     1.316     0.673  52.11   0
       279    313.4623    604.7136 307.7899609  +6.4285281     2302.466     3509.608     4220.506     78.24725     156.0619     311.6594      1.712     3.96     842.1946     54.93504     345.4423        19     1.375     0.808  57.69   0
       280     20.6893    604.1780 307.9115744  +6.4189834     582.5488     895.5614     2064.977     78.12373     155.6902     311.5354      2.000     5.01     844.4718     54.93504     100.9901         8     1.124     0.632  71.87   0
       281    465.4639    603.0923 307.7268830  +6.4342565     940.9232      1419.32     1443.115     78.12373     156.0619     311.7214      1.805     4.95      844.381     54.93504     137.7386        10     1.230     0.585  64.99   0
       282    740.0065    598.5516 307.6130027  +6.4452492      5627.82     7791.019     7711.541      77.6277     155.6902     311.2873      1.488     3.81     843.7388     54.93504     781.1276        25     1.415     0.859  62.56   0
       283    793.5753    593.8242 307.5909094  +6.4489775      14628.5     20970.71     21857.13      77.6277     155.6902     311.5664      1.539     3.56     843.6754     54.93504     2111.423        39     1.478     0.959  59.67   0
       284   1010.6432    594.3777 307.5007286  +6.4559360     1021.359      1666.93     1600.395      77.6277     155.7522     311.4734      1.672     5.14     841.0917     54.93504     136.3268        10     1.206     0.619  77.76   0
       285    535.9183    594.0433 307.6979214  +6.4403353     1295.338     2018.579     2324.357     78.12373     155.8762     311.6284      1.642     3.56     844.4761     54.93504     208.7325        13     1.298     0.650  57.36   0
       286     39.0173    593.6520 307.9043147  +6.4239420      691.674     1071.618      1265.78      77.6277     155.9381     311.4114      1.407     4.26     844.1237     54.93504     116.5452         7     1.391     0.372  57.29   0
       287    617.4244    592.0068 307.6641355  +6.4438839      3153.68     4432.775     4398.492      77.6277     155.6902     311.5044      1.454     3.75     843.0366     54.93504     448.7509        20     1.349     0.779  59.62   0
       288    934.4629    587.8568 307.5325877  +6.4561082     1117.694     1955.832     2324.356     78.24725     155.8142     311.6904      2.019     4.94      841.588     54.93504     158.6951        13     1.520     0.674  54.86   0
       289    376.1158    586.0197 307.7645622  +6.4383336     1093.587      1581.52     1002.408       77.752     155.5661     311.6284      1.451     4.70     842.1553     54.93504     182.0897        13     1.358     0.678  63.30   0
       290    229.6778    585.7128 307.8253938  +6.4335822     1467.017     2206.578     2616.729     78.12373     156.1856     311.7833      1.735     3.96     842.3193     54.93504     216.8463        13     1.203     0.720  55.86   0
       291    193.4092    586.7574 307.8404224  +6.4319416     581.7312     1120.428     1921.069      77.6277     155.6902     311.4114      2.463     4.81     842.4387     54.93504     86.23517         6     1.349     0.485  51.08   0
       292    869.6297    577.0496 307.5598759  +6.4584244     2846.538     4406.516     5134.358       77.752     155.9381     311.5664      1.601     4.00     842.2985     54.93504     399.7557        20     1.390     0.863  48.73   0
       293    164.6801    577.0982 307.8526773  +6.4349719     686.4174     1145.872     1287.262     78.00002     156.2475     311.7214      1.653     4.22     842.2849     54.93504     121.6976         8     1.217     0.464  47.81   0
       294    828.4683    574.5998 307.5770544  +6.4580724     2582.467     3756.731     4088.571      77.6277     155.3797     311.4424      1.610     3.90     842.9557     54.93504     368.7235        20     1.397     0.818  57.52   0
       295    799.2758    570.5322 307.5893151  +6.4587846     2726.302     3883.251     4863.673     78.24725          156     311.6594      1.535     3.79     843.3837     54.93504     419.9209        19     1.326     0.791  54.26   0
       296    741.9283    570.3417 307.6131418  +6.4569620     694.3547     1167.411     1745.377     78.24725     155.8762     311.6594      2.092     5.98      843.371     54.93504     97.25159        11     1.215     1.033  61.43   0
       297    256.3294    569.7354 307.8148579  +6.4410681     8504.654     11865.38     11585.68     78.12373     155.9381     311.6594      1.491     3.48     841.8136     54.93504     1299.688        28     1.407     0.876  58.50   0
       298    808.9567    565.6791 307.5854551  +6.4611095     166837.9     240591.1     250123.1     78.12373     155.8762     311.6594      1.552     3.71     843.1485     54.93504     22987.17       109     1.623     1.097  61.93   0
       299    190.5144    564.3107 307.8423747  +6.4411139     61968.14     90379.72     95262.86     77.87611     156.1856     311.7833      1.600     3.71     841.9176     54.93504      8533.09        75     1.586     1.106  60.80   0
       300    114.4900    560.5891 307.8740748  +6.4401143     6642.351     9682.292     10076.39     77.87611     155.5661     311.4424      1.583     3.58     842.7319     54.93504     909.6736        30     1.473     0.915  59.22   0
       301    979.7992    557.3685 307.5147670  +6.4701985     1436.602     2090.824     1738.339      77.5032     155.6902     311.4424      1.627     4.35     839.2798     54.93504     181.1197        16     1.310     0.809  53.76   0
       302   1001.1714    556.1181 307.5059308  +6.4714218     713.1432     1081.153     1254.963     78.00002     155.6902     311.5974      1.669     5.40     838.5747     54.93504      112.412         9     1.121     0.843 -66.33   0
       303    229.0350    556.2007 307.8266464  +6.4457471     756.0914     986.7316     1878.995     77.25359     155.6902     311.4734      1.412     4.50     841.5748     54.93504     119.9558         7     1.070     0.537  70.69   0
       304    845.4766    553.0056 307.5707064  +6.4675531     4576.995     6601.341     6654.756       77.752     155.3797     311.5044      1.511     3.50     841.9727     54.93504      614.005        25     1.387     0.911  54.39   0
       305    363.9364    551.3551 307.7707770  +6.4522422     18482.76     25782.73     25876.79     78.12373     155.8142     311.6904      1.500     3.73     841.0793     54.93504     2676.716        37     1.431     0.924  60.36   0
       306    454.4765    551.4066 307.7331688  +6.4552339     721.6412     1108.339      889.861     77.75201     155.3797     311.5354      1.456     3.49     841.4155     54.93504     130.8572         7     1.090     0.612  37.33   0
       307    165.6885    550.2870 307.8531545  +6.4460766     1994.683     2852.981     2657.735     77.87611     156.3092     311.7523      1.529     3.62     841.7233     54.93504     292.9512        15     1.238     0.749  63.08   0
       308    240.7866    547.9252 307.8220418  +6.4495560     786.5527     1195.019     1277.615      77.6277     155.6282     311.4734      1.551     5.19     841.3685     54.93504     137.6693        10     1.596     0.514  64.68   0
       309    799.5380    546.2520 307.5900125  +6.4688197     5962.453       8713.2     9015.527     78.12373     155.8142     311.6284      1.598     3.70     843.0666     54.93504     880.5408        29     1.453     0.985  56.00   0
       310    530.3190    546.2064 307.7018399  +6.4599029     7036.997     9822.652     9959.075     77.75201     155.4419     311.4424      1.479     3.70     842.3633     54.93504     1044.133        26     1.334     0.899  57.01   0
       311    171.0030    547.6440 307.8510355  +6.4473452     805.6515     997.2201     1431.803      77.5032     155.4419     311.3184      1.332     3.83      841.656     54.93504     124.0956         9     0.979     0.628  46.79   0
       312    102.9087    547.4139 307.8793255  +6.4451680       944.43     1389.078     1288.473     77.87611     155.6282     311.4734      1.484     4.57     842.8127     54.93504     125.5379        11     1.164     0.637  51.18   0
       313    388.5869    542.9536 307.7608184  +6.4565321       1480.9     2247.408     2831.823      77.5032     155.6902     311.4424      1.716     4.13     841.0903     54.93504     189.4232        16     1.304     0.819  62.85   0
       314    575.0023    539.2119 307.6835128  +6.4642759     2277.569     3768.245     3412.599       77.752     155.5661     311.4734      1.702     3.67     842.1832     54.93504     311.3418        23     1.310     1.071  80.44   0
       315    272.5138    535.9170 307.8092648  +6.4555720     92785.91     133787.5       139092     77.87611     156.0619     311.7213      1.542     3.61     840.8815     54.93504     12763.81        79     1.576     1.050  59.95   0
       316    177.2752    539.5094 307.8487022  +6.4509134     7128.634     10121.61     10042.54     78.12373     156.1238     311.6904      1.548     4.01     841.4639     54.93504     1018.708        28     1.430     0.903  55.22   0
       317     48.8791    538.2544 307.9020725  +6.4471462     5416.253     8040.507     8085.261     78.24725     155.8762     311.6904      1.576     3.67     843.5924     54.93504     753.2528        30     1.478     0.938  62.11   0
       318    815.9761    538.4067 307.5834450  +6.4726041     1537.755     2186.465     2375.682      77.6277     155.6902     311.5044      1.501     4.24     842.2996     54.93504     207.8726        13     1.217     0.709  57.13   0
       319    562.0356    533.3191 307.6890949  +6.4662785     1140.181     1609.366     1704.152     78.00002     155.9381     311.6594      1.395     4.17     841.8249     54.93504     179.1255        11     1.214     0.639  50.20   0
       320    256.2055    530.9694 307.8162038  +6.4570715     1599.827     1969.186     2221.783      77.6277     155.6902     311.4424      1.368     3.77     840.7125     54.93504     241.8104        13     1.224     0.652  61.34   0
       321    972.0507    529.4954 307.5189096  +6.4814522     1646.881     2531.266     2493.525     78.00002     155.8142     311.8452      1.588     4.27      838.599     54.93504     213.9767        17     1.380     0.826  56.35   0
       322    499.2717    526.6255 307.7153881  +6.4669565     43452.94     66788.54     70925.59     77.75201     155.7522     311.5974      1.649     3.82     840.5859     54.93504     6534.892        68     1.636     1.210  47.24   0
       323    795.6552    528.0956 307.5922283  +6.4761885     17041.78     24257.53     24807.87     78.00002     155.8142     311.8762      1.517     3.56     842.2281     54.93504     2313.821        37     1.443     0.944  58.70   0
       324    649.6457    524.6584 307.6529921  +6.4727645     974.1614     1365.457      973.093     78.12373     155.8762     311.7523      1.357     3.77     841.3163     54.93504     156.1256         9     1.070     0.596  72.63   0
       325    211.5632    523.1403 307.8350076  +6.4588162     2098.974     3020.739     3071.597     78.12373     155.9381     311.6284      1.589     3.75     840.7148     54.93504       260.89        17     1.216     0.905  71.47   0
       326     47.4292    523.5531 307.9031666  +6.4531683     1256.265     1684.301     1953.515     77.75201          156     311.5664      1.569     4.53     843.4524     54.93504     189.0802        15     1.389     0.717  50.45   0
       327    659.2786    521.5237 307.6490951  +6.4743786     3366.496     4754.502     5118.764     78.37057     156.1238     311.7523      1.573     4.02     841.1713     54.93504     453.2321        23     1.414     0.924  67.25   0
       328    669.3267    521.5180 307.6449215  +6.4747145     1620.152     2122.511     2157.553     78.37057     156.1856     311.6904      1.523     4.08     841.2311     54.93504     238.2473        13     1.181     0.724  62.26   0
       329    721.6461    520.6131 307.6232190  +6.4768242      1313.05     2306.334     2504.169      77.5032     155.6902     311.4424      1.912     4.75     841.5578     54.93504     194.1821        15     1.532     0.759  61.95   0
       330     78.4739    519.2263 307.8904171  +6.4559916      731.973     1360.268     2218.664     77.75201     155.8142     311.6284      1.924     4.81     842.7773     54.93504     108.2712         8     1.338     0.490  85.49   2
       331    396.9806    517.3583 307.7581855  +6.4673806     1952.845     2750.401     2821.848      77.6277     155.6902     311.4424      1.476     3.94     840.0518     54.93504     282.8626        15     1.274     0.694  56.04   0
       332    143.5926    514.3528 307.8635331  +6.4601775     27313.75     39138.83     40233.94      77.6277     155.6902     311.2873      1.560     3.73     841.4929     54.93504     3812.604        46     1.489     0.993  59.66   0
       333    328.4185    515.6316 307.7867214  +6.4658109     4205.145     5627.811     5432.589     77.75201     155.6902     311.5354      1.445     3.56     839.6713     54.93504     625.1222        21     1.348     0.812  62.18   0
       334    871.6311    514.1979 307.5611303  +6.4844449     1538.386     2304.896     2300.049      77.5032     155.6902     311.4424      1.601     4.22     840.1698     54.93504     244.4892        15     1.344     0.820  52.37   0
       335    508.4915    514.9622 307.7119469  +6.4720792     2394.287     3321.831     3443.923     78.24725     155.8142     311.6904      1.477     3.60     840.1609     54.93504     329.3624        17     1.261     0.777  55.81   0
       336    108.7185    512.7469 307.8780717  +6.4596768     2923.283     3986.372     3903.897     78.12373     155.8762     311.7214      1.477     3.38     842.0768     54.93504     405.2618        19     1.221     0.845  52.65   0
       337    345.4804    510.6678 307.7798001  +6.4684288       1050.8      1684.08      1961.34     78.24725     156.1238     311.6594      1.727     5.06     839.3813     54.93504     150.6426        11     1.356     0.552  56.08   0
       338    969.1791    508.5003 307.5207985  +6.4900270     5131.367     7653.918     7883.279     78.12373     155.6902     311.4424      1.614     3.72     838.2853     54.93504      690.399        28     1.503     0.904  58.74   0
       339    133.4186    504.5567 307.8680864  +6.4638831     551.2883     755.8869     562.1348      77.6277     155.7522     311.4424      1.358     5.14     841.5312     54.93504     97.79767         5     1.113     0.670  62.53   0
       340    542.3361    501.1143 307.6983498  +6.4789224     1464.903     2126.987     2100.196     78.24725          156     311.6594      1.520     4.65     839.5754     54.93504     228.3387        14     1.394     0.670  66.02   0
       341      7.8202    498.7402 307.9204484  +6.4620908     26181.05     38487.48     40621.53       77.752     155.7522     309.3267      1.574     3.60     844.0289     54.93504     3544.062        53     1.542     1.043  56.80  16
       342    440.5959    495.3002 307.7408043  +6.4779403     46150.75     64831.33      67346.6     77.87611     155.6282     311.3184      1.519     3.69     839.2587     54.93504     6590.768        59     1.533     0.989  61.10   0
       343    648.6702    494.9445 307.6543857  +6.4850021     12889.07     18054.32     19064.15     78.12373     155.8142     311.6284      1.476     3.59     839.3218     54.93504     1919.463        35     1.427     0.902  55.44   0
       344    288.5413    495.8545 307.8039451  +6.4726490     1162.172     1578.283     1767.101     78.24725     155.8142     311.6594      1.536     4.49     838.8163     54.93504     194.3445        11     1.209     0.725  76.08   0
       345    205.7493    493.0556 307.8384275  +6.4710451     20353.73     30708.47     31744.21     78.12373     155.8762     311.6904      1.608     3.83     839.9482     54.93504     2749.263        50     1.639     0.997  53.30   0
       346    171.4615    494.2367 307.8526299  +6.4694138     1862.195      2596.01     2187.212     78.12373     155.9381     311.6594      1.497     3.91      840.704     54.93504     262.5421        15     1.215     0.761  54.86   0
       347    982.4102    493.2088 307.5158093  +6.4967793     1017.859     1473.852     2021.256      77.6277     155.6902     311.5664      1.557     3.47     837.7644     54.93504     161.6489        10     1.073     0.625  51.14   0
       348    822.5969    492.7862 307.5822095  +6.4916622     923.4344     1263.069     953.4755     77.75201     155.5661     311.5354      1.344     4.78     840.2675     54.93504     186.3785         8     1.186     0.547  43.78   0
       349    911.0218    492.6978 307.5454810  +6.4946276     660.9609     884.0719     987.9709     78.00002     155.6282     311.4424      1.423     4.11      838.884     54.93504     109.1688         7     1.113     0.434  51.93   0
       350    570.4745    491.6903 307.6869753  +6.4837489     3066.133     4085.908     3744.378     78.12373     156.1238     311.6904      1.429     3.43     838.9085     54.93504     516.0055        20     1.347     0.781  60.00   0
       351    944.2979    488.6580 307.5317921  +6.4973974      4791.73     6934.994     7495.744     77.87611     155.8142     311.8143      1.588     3.59     838.2161     54.93504     635.4692        26     1.437     0.920  58.79   0
       352    104.9410    488.2357 307.8804605  +6.4696720     1194.466     1769.364     1872.975     78.12373     155.8762     311.6594      1.497     3.62      841.666     54.93504     205.3195        13     1.204     0.698  73.79   0
       353    617.4062    487.2697 307.6676277  +6.4871333     6990.887     9929.964     10198.54      77.6277      155.504     311.5044      1.508     3.69     838.5875     54.93504     1133.532        27     1.418     0.838  59.69   0
       354    216.8056    487.1021 307.8340340  +6.4738721     560.8607     715.2714     639.6564     77.87611     155.5661     311.3804      1.693     4.52     839.5284     54.93504     75.62653         6     1.423     0.407  66.49   0
       355    966.9590    480.9268 307.5226349  +6.5013399      3407.73     5106.558     5405.252     78.00002     155.9381     311.6904      1.567     3.68     837.7382     54.93504      433.788        25     1.383     1.004  50.21   0
       356    405.5230    480.3391 307.7558716  +6.4829513     748.7122     963.7004     1366.336     78.37057     155.9381     311.6284      1.321     4.06     838.5505     54.93504     115.5208         8     1.169     0.673  62.56   0
       357    529.6270    478.5332 307.7043810  +6.4878246     8001.135     11345.58     12096.45     77.75201     155.7522     311.5664      1.513     3.59     838.1786     54.93504      1289.13        30     1.392     0.912  58.64   0
       358    375.5928    478.8381 307.7683540  +6.4825748     2871.978     3871.815     4003.461     77.37849     155.6282     311.4114      1.481     3.49      838.212     54.93504     441.4304        17     1.242     0.752  62.79   0
       359    745.2070    478.8449 307.6148202  +6.4948535     610.9952     878.3401     1076.452      77.6277     155.6902     311.3184      1.534     4.54     839.3542     54.93504     79.55298         6     0.951     0.616  66.44   0
       360    886.0711    474.1703 307.5564603  +6.5014522     3290.508     4565.352     5335.208     78.00002     155.8762     311.6594      1.461     3.59     838.7172     54.93504     486.0327        20     1.329     0.778  54.80   0
       361    538.7885    474.9974 307.7006931  +6.4895891     750.4074     1182.015     1768.519       77.752     155.5661     311.5044      2.136     6.05     837.9203     54.93504     122.9578        10     1.307     0.826  65.51   0
       362    880.9774    474.0065 307.5585817  +6.5013512     1774.006     2109.724     2515.483      77.6277     155.6902     311.5044      0.426     0.00     838.8098     54.93504      1350.25         5     0.316     0.278   0.38   0
       363    234.0041    473.6547 307.8273395  +6.4799983     677.9816     928.5319     400.0726      77.5032     155.6902     311.3494      1.564     3.75     838.7814     54.93504     143.9014         6     1.071     0.442  67.91   0
       364    893.4629    468.7509 307.5535695  +6.5039350     2272.611      3258.35     3672.526     78.00002     155.8142     311.7214      1.571     3.84     838.4213     54.93504     358.6241        15     1.293     0.692  55.41   0
       365    932.7308    467.9201 307.5372849  +6.5055781      1277.52     1835.638     1915.655     78.37057     156.1238     311.6284      1.544     3.65     837.7038     54.93504     185.7373        13     1.117     0.796  84.23   0
       366    112.5936    468.3400 307.8779473  +6.4781428     729.4646     1199.503     1263.961      77.5032     155.7522     311.4424      1.547     5.10     841.1419     54.93504     126.7108        12     1.325     0.697  41.08   0
       367    271.3150    466.5359 307.8120793  +6.4841815     690.6518      1032.25     456.6805     78.24725          156     311.6904      1.518     4.19     838.0239     54.93504     109.9969         7     0.987     0.508  60.70   0
       368    717.4870    464.5781 307.6268092  +6.4998254     3149.239     4375.597     4135.383     78.12373     155.6902     311.5044      1.493     3.45     838.4664     54.93504     497.6713        18     1.248     0.795  61.34   0
       369     79.2502    464.0966 307.8919389  +6.4787818     1963.236      2963.44     3405.402     78.00002     155.8142     311.8143      1.608     3.93     841.8223     54.93504     279.1712        22     1.264     1.141  89.38   0
       370    428.5662    463.3307 307.7468669  +6.4907414     1152.291     1401.928     1909.286     78.00002     155.8762     311.7214      1.274     2.76     837.8218     54.93504     194.8645        10     0.944     0.684  65.54   0
       371    388.2494    463.0688 307.7636226  +6.4895078      3986.07     5686.942     5615.163     78.00002     155.8142     311.6594      1.527     3.80      837.654     54.93504     541.3476        20     1.303     0.825  55.48   0
       372    616.0863    459.4683 307.6691010  +6.4985697     11140.23     15118.07     15960.96     78.24725     156.1238     311.6904      1.471     3.90     837.2325     54.93504      1653.47        29     1.398     0.845  58.25   0
       373    778.7878    455.9958 307.6016298  +6.5054023     17035.82     24230.24     25296.55       77.752     155.5661     311.5354      1.465     3.60     838.4828     54.93504     2440.938        36     1.441     0.910  59.16   0
       374    298.4657    456.5976 307.8011332  +6.4891900     2870.243     3951.176     3916.789      77.5032     155.5661     311.4424      1.445     3.62     837.5004     54.93504     462.1125        15     1.272     0.695  56.80   0
       375    422.3175    455.9997 307.7497069  +6.4935607     630.5435     853.3637     1139.065     77.37849     155.3797     311.3184      1.654     5.46     837.4827     54.93504     90.59082         9     1.509     0.558  57.51   0
       376    807.9089    453.2607 307.5896236  +6.5074971     1186.669     1802.925     1718.432     78.00002     155.9381     311.7214      1.463     4.16     838.4073     54.93504     188.3246        10     1.196     0.557  65.01   0
       377    397.1351    453.0748 307.7602649  +6.4939304     613.0911     1016.918     1200.412     78.24725     155.8762     311.6284      1.641     4.37     837.2657     54.93504     85.76086         6     1.166     0.467  63.33   0
       378    381.3701    452.9411 307.7668180  +6.4934609     1899.274     2702.945     3445.489     77.87611     155.8762     311.5974      1.526     3.77     837.2061     54.93504     289.2903        16     1.385     0.699  51.14   0
       379    963.8376    450.8750 307.5249280  +6.5136463     1705.537     2422.221     2675.848     78.00002     155.9381     311.6904      1.543     3.91     836.7827     54.93504     243.9526        15     1.245     0.764  64.38   0
       380    782.7939    451.3166 307.6001211  +6.5074674     1407.789     2394.823      2838.51     77.75201     155.5661     311.4424      1.873     4.80     838.2385     54.93504     191.4163        14     1.318     0.687  63.13   0
       381    712.5387    450.4447 307.6293346  +6.5054974     696.9421     1133.169     965.9388     78.00002     155.8142     311.7833      1.344     3.36     837.8302     54.93504      136.634         5     1.064     0.308  67.37   0
       382    370.0598    449.2592 307.7716390  +6.4946047     783.6926     987.3444     1003.467     78.12373     155.8762     311.6904      1.255     4.16     837.0129     54.93504     123.6113         7     1.121     0.441  57.89   0
       383    116.0420    448.1175 307.8771912  +6.4866082     4779.458      6915.45     7466.288     78.12373     155.8762     311.5974      1.538     3.53      840.669     54.93504     733.1261        26     1.338     0.981  56.38   0
       384    754.3707    446.9491 307.6120735  +6.5083285     2451.169     3433.308      3570.76       77.752          156     311.5664      1.506     3.61     837.9456     54.93504     337.6783        17     1.284     0.779  50.35   0
       385   1018.0286    445.6128 307.5025906  +6.5176121     3879.021     6625.821     7137.812      77.6277     155.6902     303.9094      1.822     4.24     835.8345     54.93504     491.5391        29     1.606     0.983  43.56  16
       386    274.1164    445.3199 307.8116240  +6.4930356     1487.572     2144.316     2544.568     78.00002     156.1238     311.7523      1.495     4.23     837.4586     54.93504     230.8438        12     1.103     0.696  54.36   0
       387    352.1737    442.8680 307.7792819  +6.4966483     3467.355     4934.349     5264.299       77.752     155.7522     311.5664      1.516     3.68     836.7683     54.93504     501.6371        21     1.344     0.835  53.20   0
       388    280.2122    443.6076 307.8091491  +6.4939457     472.2769     773.6378     1296.343     77.75201     155.6902     311.5664      1.167     3.49     837.3672     54.93504     73.78613         5     1.285     0.273  54.71   0
       389    707.8535    440.1811 307.6316221  +6.5095803     1651.729     2386.354     2367.376      77.6277     155.8762     311.4734      1.417     4.10     837.4003     54.93504     273.7719        13     1.315     0.663  65.07   0
       390    981.9155    439.2411 307.5178039  +6.5190486     655.5578     1049.136     1472.214     78.12373     155.8142     311.6284      1.628     4.27      836.111     54.93504     106.4612         8     1.021     0.763  50.77   0
       391    239.9966    439.0247 307.8260071  +6.4944977     911.0947     1336.309     982.9078     77.75201     155.5661     311.5044      1.566     5.70     837.6743     54.93504     135.3534        10     1.231     0.744  52.71   0
       392    450.2619    434.6989 307.7388091  +6.5032862     563.9833     676.3972     737.8142     77.87611     155.9381     311.7833      1.486     5.06     836.4088     54.93504        71.12         7     1.040     0.697 -81.91   0
       393    549.4672    433.5479 307.6976375  +6.5070600     1098.783     1267.488     1533.094     78.00002     155.8142     311.5974      1.269     3.65     836.0552     54.93504     196.2215        11     1.161     0.607  54.27   0
       394    834.4078    430.6688 307.5793658  +6.5177045     1585.397     2044.632     2029.354      77.6277     155.5661     311.5664      1.472     3.87     837.3513     54.93504      263.877        15     1.348     0.704  66.52   0
       395    471.6577    431.5591 307.7300260  +6.5052944     1569.166     2098.038     2009.552     78.12373     155.8762     311.6904      1.478     3.76     836.2222     54.93504     237.9585        13     1.156     0.696  53.81   0
       396    819.8345    429.4937 307.5854588  +6.5177068     2253.622     3094.373     3542.192     78.24725     155.7522     311.7523      1.531     3.82     837.1765     54.93504     344.4984        18     1.314     0.788  62.70   0
       397    717.2232    427.7199 307.6281441  +6.5150368      15823.3     22080.42      23415.5     77.75201     155.5661     311.6284      1.498     3.86      836.978     54.93504     2278.836        35     1.473     0.870  60.59   0
       398    638.3198    423.7851 307.6610524  +6.5140429     2773.918     3931.416       4676.3     77.75201     155.6282     311.4734      1.522     3.79     836.0715     54.93504     379.1848        20     1.399     0.788  61.07   0
       399    632.8710    423.0780 307.6633394  +6.5141540     386.4132      466.011     1041.937     78.37057     156.1238     311.6284      1.936     3.38      835.952     54.93504     93.84412         5     1.574     0.211  62.89   0
       400    619.7632    429.7607 307.6685621  +6.5109592     930.6675     1072.656     902.1123     77.87611     155.7522     311.5354      1.305     4.32     836.0413     54.93504     153.9412         8     1.085     0.490  59.19   0
       401    610.7088    418.8767 307.6726856  +6.5151529     13836.72     26612.12     30685.96     78.00002     156.1238     311.6594      2.155     6.94     835.4243     54.93504     2265.044        57     2.403     1.014  39.23   0
       402    942.5378    417.5810 307.5348805  +6.5266899      4130.09     5830.004     5982.085     77.75201     155.8142     311.5354      1.545     3.69     836.0789     54.93504     555.9982        20     1.308     0.856  61.46   0
       403    381.6338    413.7527 307.7680156  +6.5096517     31545.67     44421.72     45885.52     77.87611     155.8762     311.5974      1.498     3.53     835.6307     54.93504     4661.274        47     1.469     0.949  57.22   0
       404    418.7686    415.7019 307.7525247  +6.5100828     635.1842     1018.622     483.9823     78.12373     155.6902     311.7523      1.454     4.34     835.5411     54.93504     95.06604         7     1.169     0.459  60.22   0
       405    127.5078    413.2843 307.8735934  +6.5013743     2420.301     3348.134     3569.814     77.87611     156.3092     311.7523      1.502     3.76     839.7385     54.93504     303.7633        18     1.325     0.817  55.28   0
       406    898.2131    413.2111 307.5534391  +6.5270270     1472.824     2281.044     3399.016     77.87611     155.6282     311.5974      2.322     3.76     836.4781     54.93504     265.9513        12     1.181     0.673  49.59   0
       407    593.0488    409.2845 307.6803411  +6.5185272     674.5755     877.4048     785.6843     78.12373     155.8762     311.6904      1.537     4.98     834.8891     54.93504     120.9174         8     1.145     0.613  49.58   0
       408     61.0378    408.9326 307.9013495  +6.5009520     1676.027     2593.016     3237.141     78.00002     155.8762     311.7523      1.648     3.98     841.4929     54.93504     245.6266        16     1.373     0.710  47.80   0
       409    911.3575    407.9265 307.5481539  +6.5296445     5108.361     7395.658     7734.115     78.00002     155.9381     311.6904      1.542     3.82     836.1552     54.93504      698.227        26     1.463     0.870  63.94   0
       410    967.4126    405.9954 307.5249311  +6.5322974     644.0125     952.3343      613.273       77.752     155.6282     311.5354      1.476     5.30     835.2462     54.93504     125.0009         8     1.463     0.542  55.37   0
       411    239.1664    404.3814 307.8275091  +6.5087752     15040.57     21314.41     22124.87      77.6277     155.6902     311.4734      1.499     3.70      836.915     54.93504     2181.148        35     1.425     0.927  58.37   0
       412    734.0427    398.1319 307.6221405  +6.5278128     814.3577     1168.972     1368.806     78.12373     155.8142     311.7213      1.609     5.60     835.8039     54.93504     107.3065        11     1.291     0.685  53.05   0
       413     74.5923    398.2960 307.8960751  +6.5057967     911.9488     1205.115      1426.12     77.87611      155.504     311.4424      1.689     4.95     840.8005     54.93504     132.5237         9     0.953     0.728  71.23   0
       414    702.1505    397.4808 307.6354109  +6.5270236     761.8796     1195.849     1010.314     78.12373     155.9381     311.6594      1.753     5.80     835.6749     54.93504     103.8361        10     1.240     0.762  53.53   0
       415    962.2800    395.7839 307.5274019  +6.5363443     1046.897     1482.927     1857.947       77.752     155.6282     311.5044      1.482     3.66     834.9999     54.93504     168.0944        10     0.946     0.733  59.05   0
       416    184.6639    394.3687 307.8504837  +6.5110922     869.7622     1218.383     1211.407     77.87611     155.9381     311.6284      1.597     5.87     838.1986     54.93504     118.4499        11     1.314     0.739  56.53   0
       417    352.0283    393.9937 307.7809730  +6.5168251     1599.814     2380.595     2350.126      77.6277     155.6902     311.4734      1.570     3.86     834.9995     54.93504     208.6587        15     1.258     0.752  62.13   0
       418    139.3493    392.9241 307.8693554  +6.5101767     5552.505     7985.819      8029.61     78.12373     155.9381     311.6594      1.504     3.57     839.3373     54.93504     816.3572        26     1.407     0.887  52.82   0
       419    244.1362    391.7599 307.8258663  +6.5141526      1375.58     1924.025     1295.815     78.12373     155.8142     311.7213      1.437     3.91      836.733     54.93504     189.3253        12     1.213     0.596  55.50   0
       420    436.9779    391.5902 307.7457643  +6.5206453     881.0827     1187.644      1466.65       77.752     155.6282     311.5044      1.675     5.31     834.5308     54.93504     131.5853         9     1.126     0.708  46.53   0
       421    161.4423    388.9133 307.8603122  +6.5125701     2401.155     3696.656     3933.989     78.12373     155.7522     311.6904      1.719     4.82     838.8825     54.93504     350.0565        24     1.574     0.909  76.60   0
       422    825.7271    389.6127 307.5843353  +6.5343705       643.31     867.1614     649.4833      77.6277     155.5661     311.4734      1.466     4.54     835.5526     54.93504     104.8693         6     1.059     0.554  64.93   0
       423    556.9229    387.6782 307.6960677  +6.5262490     1231.288     1513.175     1028.716     78.37057     156.1238     311.7523      1.343     4.38     833.7715     54.93504     189.6158         9     1.088     0.539  56.81   0
       424    384.9969    383.4152 307.7676305  +6.5222910     2319.766     3226.992     3169.866       77.752      155.504     311.5044      1.530     3.98     834.4835     54.93504     324.4147        18     1.357     0.758  55.04   0
       425    273.0013    384.3975 307.8141216  +6.5181549      826.477     1356.246     1190.435      77.5032     155.4419     311.4114      1.692     3.76     836.2393     54.93504     135.8422         7     1.075     0.531  61.36   0
       426      3.6120    384.6297 307.9260167  +6.5090686      628.064     963.5541     1034.899      77.6277     150.9664      268.191      1.761     4.84     842.0772     54.93504     104.2758         7     1.103     0.601  62.72  16
       427    973.7345    382.8544 307.5230721  +6.5420625     902.0709     1443.939     1393.721     78.12373     155.8142     311.6284      1.668     5.06      834.369     54.93504     118.8143        12     1.247     0.708  60.70   0
       428    317.5776    380.4957 307.7957345  +6.5212514      544.456     1011.294     1363.167     78.12373     155.6902     311.5044      1.971     3.47     835.2551     54.93504     98.89587         5     0.761     0.457  19.61   2
       429     35.1136    378.1209 307.9131492  +6.5128088     3212.159     5091.986     5115.496     78.00002     156.1856     311.7833      1.655     3.87     841.1243     54.93504     460.0555        28     1.434     1.275  86.22   0
       430    438.7362    377.1091 307.7455167  +6.5266835     7934.777     11277.06     11863.21     78.12373     156.0619     311.7523      1.477     3.55     833.8989     54.93504     1182.565        30     1.424     0.888  58.08   0
       431    779.3713    374.3043 307.6041015  +6.5391554     13711.17     19053.36     19714.12     78.24725     155.6282     311.6284      1.493     3.64     834.8303     54.93504     2057.043        33     1.474     0.872  61.33   0
       432    771.4995    375.8709 307.6073196  +6.5382475     2121.472     3234.595     3865.472     77.87611          156     311.6904      1.633     3.78     834.9047     54.93504     304.3368        18     1.393     0.807  61.79   0
       433    199.3688    376.4959 307.8449727  +6.5189628      558.723     636.8706     325.4875     78.24725     155.6902     311.7523      1.511     5.16     837.6282     54.93504     71.78967         8     1.229     0.612  57.91   0
       434    342.8007    372.9846 307.7855073  +6.5251931      1169.69     1641.822     1790.691       77.752     155.5661     311.4114      1.564     4.91     834.4179     54.93504     186.1746        10     1.127     0.606  61.45   0
       435   1022.9634    369.1617 307.5030743  +6.5493453     3385.885     4579.731     4605.908     75.48322     133.8793     245.6376      1.452     4.26     833.1471     54.93504     452.5181        20     1.422     0.816  69.83  24
       436    953.8903    365.5785 307.5318891  +6.5485398     646.2328     822.3317     1274.168     78.12373     155.6902     311.5354      1.323     4.84     834.1198     54.93504     98.18207         8     0.973     0.684  78.69   0
       437    187.2664    365.0942 307.8503811  +6.5232671     705.7629     1242.289     1302.771     78.12373     156.0619     311.6594      1.784     5.11     837.8935     54.93504     100.7872         9     1.535     0.481  53.01   0
       438    904.8573    364.8308 307.5522843  +6.5472253     595.3428     977.0973     1413.249     78.00002     155.8762     311.5664      1.742     3.86     834.5289     54.93504     91.02039         5     0.997     0.429  45.65   0
       439    526.9928    362.2600 307.7093479  +6.5357503     588.0385     1005.489     693.9773      77.5032     155.6902     311.4114      1.643     3.45     832.4147     54.93504      101.764         5     0.800     0.497  58.13   0
       440    486.9200    360.6419 307.7260491  +6.5350861     3302.172     4576.938     4145.806     78.12373     155.8762     311.6284      1.445     3.73     832.4418     54.93504     515.7028        20     1.376     0.761  56.93   0
       441    458.9652    361.3016 307.7376401  +6.5338839     2561.646     3440.293     3548.062     78.12373     155.7522     311.7833      1.441     3.45     832.8685     54.93504      409.683        17     1.270     0.759  54.07   0
       442    915.6645    360.1855 307.5479487  +6.5495014     751.7786     1217.773     1395.406      77.6277     155.7522     311.5354      1.783     6.03     834.3149     54.93504     128.9227        11     1.437     0.734  69.42   0
       443    844.7380    357.1660 307.5775149  +6.5483991     33816.84      51028.6     53761.24     78.00002     155.9381     311.5974      1.611     3.87     834.2515     54.93504     4500.415        57     1.633     1.022  68.49   0
       444    336.9314    352.9769 307.7886132  +6.5332594     769.5786      1289.86     1428.613       77.752     155.8142     311.6284      1.836     5.94     833.8853     54.93504      141.697        11     1.535     0.712  74.86   0
       445     62.1096    353.9291 307.9027449  +6.5236998     717.1561     1156.098     1076.905     78.00002     156.1238     311.6594      1.688     3.71     839.9851     54.93504     121.4645         5     0.635     0.623  52.44   0
       446    616.5226    349.7489 307.6725710  +6.5438913      3021.65     4350.558     4281.218     78.12373     155.9381     311.6594      1.538     4.00     832.1109     54.93504     426.0696        18     1.334     0.781  61.89   0
       447     24.8643    350.4612 307.9183327  +6.5238875     1157.673     1782.614      2000.05     78.12373     155.8762     311.6904      1.554     4.76     840.1914     54.93504     176.5714        12     1.277     0.657  49.33   0
       448    148.2984    348.8927 307.8671102  +6.5286569      642.101     762.7305       803.66     78.12373     156.4328     311.5974      1.296     3.38      838.772     54.93504     97.80634         5     0.960     0.345  47.41   0
       449    701.1614    343.2285 307.6376257  +6.5493936     85938.88     120197.4       124439      77.6277     155.6282     311.5354      1.502     3.75     833.3284     54.93504     13221.85        71     1.517     0.990  59.63   0
       450    859.4786    344.8752 307.5717991  +6.5539629     1265.483     1769.871     2307.096     78.37057     156.1238     311.7523      1.474     4.36     833.7307     54.93504     205.5214        14     1.285     0.699  60.27   0
       451     80.2091    343.0133 307.8955916  +6.5288117     1408.813     2020.454      1881.91     77.87611     155.6282     311.5664      1.415     4.59     839.8449     54.93504     203.2266        13     1.290     0.685  60.11   0
       452    942.6455    340.5463 307.5373911  +6.5585045     966.3831     1559.151     1896.502     78.12373     155.8762     311.6904      1.783     4.95     833.2985     54.93504     143.2424        11     1.228     0.660  57.54   0
       453    563.6300    340.0913 307.6948660  +6.5461222     2964.217     4246.681     4262.043     78.24725     155.6282     311.6284      1.498     3.64      831.334     54.93504     430.3174        17     1.303     0.732  55.06   0
       454    100.8507    339.0045 307.8871511  +6.5311562     6695.405     9621.833     9897.785      77.5032     155.6902     311.2563      1.505     3.62     839.6586     54.93504     970.7049        28     1.403     0.889  58.52   0
       455    761.5833    337.8925 307.6127013  +6.5536015     541.1658     831.1024      943.772     77.87611     155.6902     311.5044      1.717     4.00     833.4273     54.93504     90.79071         6     1.333     0.344  61.53   0
       456    546.9030    336.1727 307.7019455  +6.5471844     7699.429      10886.2     11122.23     78.24725     155.6282     311.5974      1.460     4.07     831.1031     54.93504     1114.932        31     1.475     0.859  59.86   0
       457    911.1027    335.6433 307.5506582  +6.5594848     562.8028     619.5093     505.4516     78.12373     155.8142     311.8762      1.587     4.88     833.2955     54.93504     76.51062         6     1.185     0.568  68.14   0
       458    409.7818    331.4280 307.7590683  +6.5445831     28922.25     40368.96     41618.77     77.75201     155.6902     311.5664      1.522     3.78     832.3935     54.93504     4054.868        49     1.526     0.940  58.12   0
       459    275.8242    333.8348 307.8146374  +6.5391277     2885.836     4329.266     4073.075      77.6277     155.6902     311.4424      1.557     3.79     835.0483     54.93504     438.4794        22     1.360     0.870  65.91   0
       460    588.2545    331.0393 307.6849374  +6.5506782     670.2842      709.819     184.0528     78.12373     155.9381     311.6594      1.188     3.87     830.9845     54.93504     131.6763         6     0.779     0.550  55.11   0
       461    517.4371    330.1525 307.7143872  +6.5486909     1374.957     1710.514     1247.147     78.00002     155.8762     311.5974      1.465     3.80     830.8503     54.93504     197.5793        15     1.305     0.772  56.38   0
       462    389.8476    329.2627 307.7674217  +6.5448137     1395.984     1878.511     2384.002     78.00002     155.7522     311.7213      1.573     4.10     832.5602     54.93504     217.8151        12     1.130     0.705  59.28   0
       463    489.0034    326.7086 307.7263143  +6.5491675     1324.721     1759.151     1707.793       77.752     155.5661     311.4114      1.482     4.10     830.7391     54.93504     188.9503        13     1.230     0.723  53.74   0
       464    804.6811    323.6565 307.5952693  +6.5609090     853.6807     1379.188      1187.49     78.24725     155.8762     311.6904      1.588     4.04     832.9337     54.93504     185.9277         9     1.244     0.513  69.54   0
       465    640.2797    323.6508 307.6635698  +6.5554571     697.2147     686.2812     869.0745     78.12373     155.9381     311.6594      1.153     3.43     831.2452     54.93504     133.5605         8     0.965     0.577  68.65   0
       466    498.9197    321.8094 307.7223580  +6.5515203     9476.939     13304.36     13786.83       77.752      155.504     311.5354      1.456     3.60     830.4843     54.93504     1452.326        28     1.410     0.842  56.65   0
       467    386.2581    323.5862 307.7691023  +6.5470382     904.1311     1308.799     1641.965      77.5032     155.7522     311.3804      1.776     4.69     832.4503     54.93504      125.142         9     1.094     0.569  62.01   0
       468    768.0103    320.4798 307.6106098  +6.5610050     3396.527     4810.751     4872.268       77.752     155.6282     311.5044      1.519     4.21      832.751     54.93504     510.8616        22     1.405     0.821  58.75   0
       469    923.4905    320.2080 307.5460238  +6.5662689     868.7133     1359.332     1142.652     77.75201     155.5661     311.4424      1.712     3.31     832.5693     54.93504     185.0212         9     1.121     0.558  60.10   0
       470    715.4659    319.8653 307.6324598  +6.5595159     735.0829     722.8439     1179.249     78.12373     155.8762     311.6904      1.205     4.51     832.3022     54.93504     121.4711         7     1.119     0.550  52.48   0
       471    325.3771    318.6451 307.7945590  +6.5470510     1230.076     1590.802      1928.41      77.6277     155.8762     311.5044      1.393     3.88     833.4682     54.93504     176.8255        11     1.173     0.627  50.32   0
       472    160.8882    312.4571 307.8630985  +6.5441222     1291.762     1934.049      1921.51     78.12373     155.7522     311.7833      1.636     4.81     838.3239     54.93504     184.9838        13     1.252     0.722  63.21   0
       473    437.7635    312.3995 307.7480782  +6.5533717     601.4802     668.9614     269.1595     77.25359     155.6902     311.4734      1.260     3.47     830.9326     54.93504     103.3184         5     1.200     0.289  53.83   0
       474    260.3336    312.0964 307.8217985  +6.5475877     534.7531     915.7361     834.2089     78.12373     155.9381     311.6904      1.571     3.95     834.8236     54.93504     96.46442         6     1.351     0.331  75.15   0
       475    607.4950    310.7660 307.6776189  +6.5596889      496.892      677.895     947.5643     78.24725     155.7522     311.7523      1.360     3.44     830.1437     54.93504     107.6105         5     0.803     0.426  67.38   0
       476    388.7416    306.0592 307.7686552  +6.5543582     8119.613     11540.62     11978.33     78.12373     155.8762     311.6904      1.486     3.58     831.7941     54.93504     1164.283        30     1.422     0.899  56.29   0
       477    244.5869    306.6931 307.8285207  +6.5492939     2378.337     3200.526      3158.49     77.87611     155.6282     311.4734      1.439     3.71     835.1406     54.93504     321.4694        19     1.410     0.770  59.08   0
       478    742.2494    305.7455 307.6218020  +6.5662349     1046.928     1288.774     1218.256     78.12373     155.8762     311.6904      1.374     3.97     832.2021     54.93504     166.4686        11     1.144     0.646  53.55   0
       479    756.6410    301.7467 307.6159558  +6.5683636     57791.74     81132.01     84033.21     78.00002     155.9381     311.6904      1.497     3.63     832.0598     54.93504     8685.896        62     1.530     0.971  59.47   0
       480    428.3104    301.3649 307.7523734  +6.5576137     2567.262     3650.256     3247.211     78.24725     155.8142     311.6594      1.494     3.60     830.6089     54.93504     400.6122        16     1.262     0.722  58.26   0
       481    991.3224    298.9514 307.5185473  +6.5772916     1681.159     2557.204     2174.707     78.12373     155.9381     311.6284      1.541     3.52     830.6449     54.93504     246.0572        15     1.216     0.767  61.60   0
       482    932.4468    297.8600 307.5430443  +6.5757938     2349.248     3303.837     3247.072     78.00002     155.8762     311.7523      1.459     3.78     831.5287     54.93504     310.9207        17     1.329     0.758  62.18   0
       483    574.3959    298.7217 307.6917709  +6.5635628     1448.661      1694.38     1448.389     77.75201     155.3797     311.4734      1.234     3.57     829.4711     54.93504     245.7096         9     1.068     0.564  58.83   0
       484    465.1872    297.5822 307.7371793  +6.5604026     1074.542      1461.01     1533.676     77.87611     155.5661     311.5664      1.385     4.83     829.6666     54.93504     177.7263        11     1.209     0.693  59.88   0
       485    414.7282    296.9975 307.7581617  +6.5589651      2210.12     3159.212     3076.134      77.6277      155.504     311.5044      1.449     3.25     830.7099     54.93504     391.0272        18     1.267     0.757  57.36   0
       486    295.3107    296.8407 307.8077775  +6.5550529     717.6755     1023.806     774.3888     78.12373     155.8142     311.6904      1.567     4.99     833.3712     54.93504     136.1371         7     0.942     0.748  29.69   0
       487    664.0944    296.0949 307.6545928  +6.5676266     554.4257     779.0798      433.029     78.12373     156.4945     311.5974      1.332     3.71     829.7598     54.93504     105.5771         5     1.063     0.373  54.97   0
       488    442.7992    293.6859 307.7466102  +6.5612667     417.7659     586.9601     317.9289     77.37849     155.3797     311.3494      1.391     5.37     829.9437     54.93504     98.77802         5     1.243     0.656  75.78   0
       489    836.1848    291.1649 307.5832601  +6.5753702      1297.24     1808.514     2191.236       77.752     155.6282     311.5044      1.540     4.09     831.4767     54.93504     221.8589        14     1.325     0.685  55.92   0
       490    465.2301    291.7910 307.7373545  +6.5627954     915.8806     1288.327     1155.772      77.6277     155.6902     311.4734      1.554     4.08      829.372     54.93504     143.9566         9     0.902     0.749  76.22   0
       491    191.2104    288.1624 307.8513141  +6.5551657     2537.902     3826.374     4209.897      77.5032     155.6902     311.3494      1.578     3.99     836.8814     54.93504     339.0226        21     1.466     0.842  56.87   0
       492    445.2409    288.5993 307.7457654  +6.5634483     1295.718     1775.546     1746.519      77.5032     155.5661     311.3804      1.426     4.08     829.6557     54.93504     184.0239        13     1.212     0.686  45.25   0
       493    755.0779    286.2798 307.6171193  +6.5746986     6659.005     9256.876     9621.579     78.37057     156.1238     311.8143      1.514     3.89     831.4177     54.93504     948.5545        28     1.452     0.861  62.65   0
       494    345.6939    286.4102 307.7871946  +6.5610384       737.13     880.9009     309.8551     77.75201      155.504     311.4424      1.540     5.28     832.4367     54.93504     130.3233         9     1.318     0.744  46.70   0
       495    226.6573    286.2396 307.8366526  +6.5571419     786.6166     1299.417     1529.084     78.12373     155.9381     311.6904      1.673     4.89     835.3423     54.93504     115.9154         8     1.228     0.551  58.74   0
       496    771.5116    284.1995 307.6103609  +6.5761026     2817.219     3822.473     3640.312     77.37849     155.3797     311.3184      1.483     3.60     831.3491     54.93504     413.1356        19     1.313     0.786  59.88   0
       497     87.2808    285.6575 307.8945731  +6.5527312     1198.091     1571.902     1910.524     78.24725     155.8762     311.6594      1.541     4.08     839.8217     54.93504     167.1795        12     1.179     0.679  47.19   0
       498    473.2802    282.6910 307.7343135  +6.5668208     609.3957     928.3041     817.9366     77.87611     156.1238     311.7214      1.307     3.01     828.7957     54.93504     121.6339         5     0.879     0.434  81.37   0
       499     74.5108    279.8454 307.9000725  +6.5547046     1487.966     1922.044     1965.046     78.12373     155.7522     311.7523      1.422     3.80     839.9808     54.93504     186.7654        14     1.152     0.784  66.19   0
       500    360.8502    279.1458 307.7811404  +6.5645429     1900.553     3536.254     3810.805     78.12373     155.8762     311.6904      1.929     5.92     831.8508     54.93504     232.4562        24     1.658     0.996  16.49   0
       501   1009.6674    275.0658 307.5117174  +6.5877618     6111.872     8995.134     9341.508     78.12373     155.8762     311.6904      1.591     3.57     829.5242     54.93504     801.4238        27     1.465     0.906  61.32   0
       502    487.9577    275.1776 307.7284661  +6.5704116     2397.547      3460.92      3616.48       77.752     155.7522     311.4734      1.488     3.62     828.2314     54.93504      358.493        21     1.392     0.877  53.47   0
       503    250.2810    270.8324 307.8273532  +6.5642915     6530.518     9192.021     10277.75     78.00002     155.8762     311.6594      1.506     3.52     834.5685     54.93504      889.754        29     1.347     0.968  57.51   0
       504    917.9282    269.5441 307.5500159  +6.5870059     671.4829     992.4575     1281.267     78.00002     155.8142     311.6284      1.795     5.32     830.3754     54.93504     93.30493        10     1.471     0.544  58.60   0
       505    814.3901    268.7185 307.5930606  +6.5839169     592.3345     896.9039      1010.79     77.75201      155.504     311.5044      1.497     4.35     830.8645     54.93504     111.4579         7     1.269     0.607  45.72   0
       506    941.0657    265.6363 307.5405325  +6.5893856     515.9464     628.8969     317.2388     78.00002     155.8762     311.7214      1.492     4.25     829.9996     54.93504     92.01239         5     1.085     0.475  62.78   0
       507    769.8958    264.1230 307.6116994  +6.5843394      880.879     1260.675     1030.263     77.87611          156     311.7213      1.568     4.33     830.4512     54.93504     135.3067         8     0.894     0.597  47.79   0
       508    384.6631    261.8144 307.7718257  +6.5724924      1799.48     2822.084     2698.903      77.6277     155.7522     311.4734      1.679     4.75     830.6019     54.93504      283.219        15     1.439     0.690  58.98   0
       509    227.0496    263.7400 307.8372414  +6.5664455     663.0904     829.9681     542.9418     78.12373     155.8142     311.7213      1.410     4.65     835.5452     54.93504     96.29956         8     0.993     0.618  64.12   0
       510    971.3651    260.2039 307.5281240  +6.5926317     914.7213     1221.608     1483.783     77.25359     155.7522     311.4424      1.497     4.50     829.4822     54.93504     151.3754        11     1.316     0.602  50.84   0
       511    191.1831    258.7535 307.8523085  +6.5673083      737.801      1123.05     988.5125      77.6277     155.7522     311.4114      1.735     3.53     836.9523     54.93504     117.8061         7     1.017     0.508  63.34   0
       512    154.1179    257.4636 307.8677499  +6.5666042     2089.038     2943.391      2988.64     78.24725     155.9381     311.6594      1.539     4.24     838.2623     54.93504     273.2922        17     1.408     0.727  63.46   0
       513    306.5319    257.5589 307.8044273  +6.5716473     1264.677     1708.322     1564.844     78.00002     155.8142     311.7523      1.488     3.90     832.4814     54.93504     195.0747        12     1.171     0.663  59.96   0
       514    907.6224    252.1184 307.5548760  +6.5938605     1730.574     2662.352     2382.898     77.87611     155.5661     311.5974      1.585     4.71     829.7227     54.93504     266.0003        18     1.574     0.810  39.84   0
       515    563.6857    252.9596 307.6977444  +6.5821036     2380.243     3391.623     3183.151     78.12373     155.8142     311.6594      1.458     3.60     827.1876     54.93504     415.5232        18     1.360     0.763  62.04   0
       516    668.2253    250.4191 307.6543962  +6.5866249     2480.595     3473.038     3755.471      77.6277     155.6282     311.5974      1.489     3.47     828.0846     54.93504     397.1434        21     1.515     0.765  60.08   0
       517    727.4274    250.4823 307.6297972  +6.5885635     5612.606     7746.993      7798.51     78.00002     155.6902     311.5974      1.486     3.69     829.1517     54.93504     861.0367        23     1.349     0.808  63.44   0
       518    965.0835    249.8061 307.5310787  +6.5967175     727.8492     1082.612     1167.581       77.752     155.5661     311.4734      1.573     4.16     829.1678     54.93504     111.5099         7     1.106     0.447  57.73   0
       519    383.1078    244.6756 307.7730437  +6.5795177     864.6293     1144.218     1042.999     78.00002          156     311.6594      1.438     3.22     830.1786     54.93504     144.5643         8     1.001     0.542  59.83   0
       520    923.3735    242.3842 307.5486548  +6.5984017     1085.645     1545.921     1293.087     77.75201     155.6902     311.5664      1.570     4.14     829.1119     54.93504     198.1204        11     1.119     0.761  59.30   0
       521    226.7847    235.9209 307.8382810  +6.5779239     2594.411     3766.307     3911.771       77.752     155.6282     311.5044      1.517     3.78     835.8034     54.93504     400.2126        17     1.309     0.758  55.51   0
       522    869.6814    234.6952 307.5712182  +6.5997986      1874.41     2738.689     2669.657     77.87611     156.1856     311.7523      1.557     3.77     829.6577     54.93504     299.0444        18     1.313     0.830  54.37   0
       523    760.1108    234.1603 307.6167606  +6.5963876     1791.454     2403.904     2672.045     78.12373     155.8762     311.6904      1.422     3.33     828.9016     54.93504     247.3708        13     1.096     0.739  60.16   0
       524    580.7062    230.3781 307.6914249  +6.5919939      571.011     867.7841      1262.14     78.12373     155.6902     311.4734      1.703     4.32     826.1916     54.93504      119.788         5     1.207     0.440  59.37   0
       525    248.6583    229.6642 307.8294027  +6.5812368     859.4551     1129.188     1161.635     78.24725     155.8142     311.6904      1.424     4.40     834.7253     54.93504     122.8137        10     1.064     0.749  39.66   0
       526    460.8516    225.7360 307.7413757  +6.5899259     25222.94     35189.96     36142.58     78.12373     155.8142     311.6284      1.485     3.51     826.9029     54.93504     3743.008        43     1.470     0.931  58.74   0
       527    321.9536    226.9025 307.7990439  +6.5848200     782.8419     1176.917     916.7694     78.12373     155.7522     311.8143      1.483     5.63      831.447     54.93504     125.9927        10     1.481     0.603  76.65   0
       528    786.9680    224.6879 307.6059168  +6.6011897     14003.58      20184.5     21629.51     78.24725     155.6902     311.6594      1.556     3.66     829.1196     54.93504     2097.384        46     1.471     1.236  48.63   0
       529    725.3856    220.8783 307.6316299  +6.6007203     565.3282     646.7276     7.985747       77.752     155.6282     311.5044      1.276     3.84     827.6736     54.93504     104.7721         6     1.038     0.407  73.75   0
       530    466.4291    220.2628 307.7392409  +6.5923714     1591.822     2351.368     2732.952     77.87611     155.8762     311.5974      1.545     3.67     826.5758     54.93504     247.7291        15     1.258     0.755  44.16   0
       531    149.0741    219.2312 307.8711239  +6.5822228     2660.203      3722.08      3872.88     78.00002     155.8762     311.6594      1.490     3.66     838.2735     54.93504     412.4417        19     1.288     0.820  63.28   0
       532    123.7588    218.4701 307.8816666  +6.5816921      1224.25     1643.747     1885.943     78.00002     155.8762     311.7214      1.497     3.79     839.0749     54.93504      176.116        10     1.119     0.602  50.57   0
       533    779.1172    217.3385 307.6094229  +6.6039642     546.2951     979.5256     1312.914     78.24725     155.8762     311.6284      2.043     4.28     828.5897     54.93504      83.4881         5     1.136     0.460  57.00   0
       534    175.7922    217.8500 307.8600700  +6.5836848     569.2811     659.2218     569.1887      77.6277     155.6282     311.3494      1.260     3.97     837.4526     54.93504     100.4651         6     0.963     0.469  55.02   0
       535    923.3482    215.0508 307.5495723  +6.6096879     1498.478     2238.593     2134.314     78.24725     155.7522     311.6594      1.530     3.94     828.0845     54.93504     228.5659        15     1.182     0.902  44.51   0
       536    547.6112    211.4809 307.7058045  +6.5986973     2267.016     3263.772     3394.599     77.75201     155.6282     311.5044      1.603     3.95     825.5367     54.93504     346.9554        18     1.447     0.737  59.15   0
       537    584.9097    211.4338 307.6903093  +6.5999563      5012.84     6905.948      7477.58     78.24725     155.7522     311.6594      1.500     3.77     825.8499     54.93504     697.6759        24     1.356     0.830  59.05   0
       538    305.2084    212.2897 307.8064888  +6.5902960     1066.462     1428.287     1520.961       77.752     155.5661     311.4114      1.498     4.57     832.3234     54.93504     178.7518        10     1.322     0.483  52.84   0
       539    389.4763    210.6160 307.7715342  +6.5937939     1721.542     2333.167     2516.083      77.6277     155.6282     311.5354      1.429     3.76     829.1874     54.93504     237.1467        16     1.279     0.734  49.66   0
       540    945.8689    208.4321 307.5404347  +6.6131666     2784.462     3984.538     3989.949     78.00002     155.8762     311.6594      1.546     3.95     827.7466     54.93504     355.5716        21     1.361     0.851  60.69   0
       541    891.9725    207.8728 307.5628470  +6.6116129     11746.65     16958.67     17565.23     77.87611     155.8142     311.5974      1.513     3.71     828.3183     54.93504     1721.449        35     1.515     0.910  65.62   0
       542    319.6252    208.6924 307.8006192  +6.5922618      1130.84     1732.309     2217.765     78.24725     155.6282     311.5044      1.790     3.79     831.6905     54.93504     152.7616        14     1.207     0.756  62.73   0
       543    566.9575    208.0471 307.6978809  +6.6007582     989.6939     1388.949     1322.026     78.12373     155.8762     311.5664      1.414     4.25     825.6691     54.93504     145.3356        10     1.099     0.635  66.26   0
       544    211.2469    208.3972 307.8456562  +6.5887708     759.1029     1026.605     975.8399      77.5032     155.5661     311.2873      1.637     4.62     836.4943     54.93504      119.597         9     1.271     0.477  50.81   0
       545    978.5931    205.6531 307.5269301  +6.6153971     9882.384     14644.22     14865.19      77.6277     155.6902     311.3804      1.596     3.76     827.5598     54.93504     1374.591        35     1.501     0.970  60.70   0
       546     18.0537    204.8972 307.9260358  +6.5837658     27373.12     39314.59     40970.39     78.00002     155.8762     311.8762      1.504     3.53     842.5804     54.93504     3863.553        45     1.478     0.993  58.38   0
       547    689.9807    205.7689 307.6468426  +6.6057847     3066.607     4453.335     5394.145      77.6277     155.6902     311.5354      1.536     4.04      826.953     54.93504     480.3574        18     1.354     0.734  58.36   0
       548    264.4640    205.9132 307.8236296  +6.5915711     1208.724     1677.501     2027.622     78.12373          156     311.6904      1.485     4.38     834.3718     54.93504     208.2278        14     1.342     0.730  55.88   0
       549    498.6148    200.7928 307.7265175  +6.6014817     2200.948     3125.881     3313.713     77.75201     155.6282     311.5044      1.460     3.52     825.6999     54.93504     332.2009        17     1.300     0.770  54.51   0
       550    882.8723    196.4116 307.5670086  +6.6160443     2155.959     3216.022     3496.846      77.6277      155.504     311.4734      1.545     3.60     827.9658     54.93504     319.8981        18     1.326     0.804  58.24   0
       551    830.3925    197.1943 307.5887878  +6.6139823     2049.824     2768.559     2827.331      77.5032     155.6902     311.5044      1.396     3.68     828.1976     54.93504     318.6167        16     1.307     0.700  55.03   0
       552    510.5187    196.7504 307.7217064  +6.6035468     2777.677     3832.113     3866.431     78.12373     155.9381     311.6904      1.444     3.56     825.5966     54.93504     434.7491        17     1.328     0.705  61.62   0
       553    742.1533    193.8733 307.6255610  +6.6124280     42945.68     60516.13     62881.31     78.00002     155.9381     311.6594      1.489     3.79     826.8849     54.93504     6408.003        52     1.526     0.933  61.63   0
       554    345.1646    193.4773 307.7905163  +6.5993953     6277.778     12213.11     13344.23     78.00002     155.9381     311.6904      2.059     6.39     830.4916     54.93504     762.2899        43     1.955     1.123  88.28   0
       555    975.8776    192.6359 307.5284901  +6.6206826     2815.016     4314.484     4445.473     78.00002     155.9381     311.6904      1.614     3.70     827.1063     54.93504     406.5279        23     1.377     0.947  55.94   0
       556    910.0569    190.8576 307.5558978  +6.6192381     7945.623     11345.92     11969.22     78.24725     155.9381     311.6904      1.494     3.79      827.528     54.93504     1145.318        29     1.422     0.892  60.51   0
       557   1014.2338    191.1931 307.5126008  +6.6225474     1749.231     2447.108     1792.093      77.6277     155.6902     311.4424      1.434     3.24     826.7718     54.93504     280.0869        16     1.196     0.774  58.06   0
       558    453.5239    190.2758 307.7456024  +6.6043246     5520.589     7836.461     8265.231     78.37057     156.1238     311.7523      1.535     3.70     826.5925     54.93504     822.9791        24     1.406     0.798  61.59   0
       559    319.5132    189.5963 307.8013033  +6.6001433     648.9933     913.6232     854.7535      77.6277      155.504     311.3804      1.511     4.33     831.9439     54.93504     96.96826         6     1.123     0.476  81.34   0
       560    228.0645    187.1692 307.8393785  +6.5980972     842.9517      1245.84     1058.618     77.87611     155.9381     311.5974      1.591     5.15     836.1653     54.93504     114.9162        10     1.111     0.674  70.99   0
       561    110.8672    181.7064 307.8882525  +6.5964421     5250.018     7480.208     7338.416     78.00002     156.0619     311.6904      1.481     3.45     839.4831     54.93504     736.0425        23     1.390     0.827  59.43   0
       562    281.1820    178.3104 307.8176058  +6.6035262     37592.73      52665.9     55126.63     77.87611     155.6282     311.5664      1.491     3.58     834.4152     54.93504     5736.421        49     1.483     0.971  58.64   0
       563    256.4901    179.3849 307.8278287  +6.6022594     7373.887     10264.06     10926.86     77.87611     155.6902     311.5354      1.517     3.53     835.2565     54.93504     1076.141        28     1.404     0.863  59.58   0
       564    930.4579    180.6308 307.5477605  +6.6241366     1034.714     1472.267     1727.532     77.87611     155.8762     311.5974      1.582     3.59     827.0889     54.93504     142.5439        10     1.056     0.676  39.30   0
       565    607.2041    179.9830 307.6820935  +6.6136840     733.0995     939.3298     1229.402       77.752      155.504     311.5044      1.337     3.83     825.7344     54.93504     130.1397         6     0.972     0.432  54.59   0
       566    710.3027    177.7503 307.6393309  +6.6180290     937.2491     1546.794     1843.559     78.00002     155.8142     311.8143      1.670     4.90     826.1415     54.93504     155.6942         9     1.174     0.579  78.70   0
       567    405.2912    173.7491 307.7661934  +6.6095437     55536.59     77634.62     80375.73     78.00002     155.6902     311.8452      1.497     3.74     827.7368     54.93504     7951.468        60     1.508     0.988  58.65   0
       568    161.1534    175.2050 307.8675778  +6.6008053     4467.927     6300.326     6436.826      77.5032     155.6902     311.3494      1.479     3.50      837.506     54.93504     672.2427        24     1.316     0.882  56.00   0
       569    422.6363    174.2578 307.7589699  +6.6099111     1678.999     2380.119     2241.182     78.12373     155.8762     311.6594      1.507     4.43     827.0872     54.93504     226.2051        13     1.238     0.671  56.41   0
       570    575.3716    173.1629 307.6955467  +6.6154426     599.7299      871.044     1491.022      77.6277     155.6282     311.4734      1.831     4.73     825.4028     54.93504     128.6265         7     1.318     0.481  42.26   0
       571    692.6521    171.8008 307.6468626  +6.6198999     1099.258     1450.118     1320.137      77.5032     155.4419     311.2253      1.363     3.31     825.9148     54.93504     186.8124        12     1.151     0.670  67.68   0
       572    316.8333    170.7890 307.8030447  +6.6078200     2193.137      3839.41     5092.387      77.6277     155.5661     311.5044      2.006     5.74     832.4072     54.93504     331.7282        25     1.962     0.916 -85.71   0
       573    744.5917    169.7275 307.6253507  +6.6224795     35571.61     50203.84     52022.16      77.6277     155.4419     311.5354      1.492     3.58     826.0494     54.93504     5332.716        50     1.501     0.957  62.07   0
       574     31.8992    170.9947 307.9214190  +6.5982273     655.8785     1059.097     1173.575     77.87611      155.504     311.3184      1.676     5.22     842.3887     54.93504     96.67535         9     1.124     0.684  73.93   0
       575    792.7975    170.0716 307.6053096  +6.6239361     1129.654      1635.84     1695.067      77.6277      155.504     311.5044      1.437     5.25     826.8495     54.93504     186.7529        11     1.333     0.584  68.82   0
       576    309.2345    171.4996 307.8061781  +6.6072734     20387.84     28419.76     29332.86     78.12373     155.7522     311.8143      1.503     3.67     832.9669     54.93504     3068.384        39     1.428     0.959  58.22   0
       577     61.3604    167.4102 307.9092991  +6.6006918     9914.998     13758.41      14141.5      77.5032     155.6902     311.4114      1.516     3.57     841.3627     54.93504     1432.815        30     1.425     0.888  55.25   0
       578     95.2967    165.3842 307.8952676  +6.6026619     1651.382     2363.618     2052.619     78.00002     155.6282     311.4734      1.497     3.74      840.127     54.93504     205.3913        15     1.191     0.790  45.17   0
       579   1002.9021    163.7962 307.5182177  +6.6334858     953.3198     1538.877     1903.472     77.87611     155.5661     311.3494      1.768     5.04     825.7336     54.93504      150.811        10     1.139     0.630  43.12   0
       580    728.9914    157.6908 307.6322329  +6.6269323     639.6066     790.6754     893.5738       77.752     155.5661     311.4114      1.245     4.23     825.5139     54.93504     95.11969         7     1.184     0.431  56.85   0
       581   1004.0845    150.4135 307.5181702  +6.6390512     2225.968     3517.265     4204.771       77.752     155.6902     311.5044      1.951     5.33     825.0598     54.93504     333.0948        20     1.594     0.862  50.50   2
       582    578.2727    154.5387 307.6949616  +6.6232295     1004.198     1145.748     903.9919     78.24725     155.8762     311.6904      1.328     3.81     825.1889     54.93504     174.1295        10     1.132     0.584  52.62   0
       583    586.9808    148.1233 307.6915570  +6.6261680     1028.226     1381.056     1035.066      77.6277     155.5661     311.6284      1.465     4.29     825.1027     54.93504     183.6256         8     1.090     0.480  53.37   0
       584    595.3481    146.1917 307.6881447  +6.6272436     2166.915      3078.16     3296.481      77.6277     155.7522     311.3804      1.482     3.86      825.109     54.93504     322.5569        18     1.399     0.725  62.64   0
       585    280.0830    144.5671 307.8191895  +6.6174229     34054.63     47911.34     50204.03     78.12373     155.6902     311.5974      1.508     3.71     835.2425     54.93504     4825.883        52     1.505     0.983  58.82   0
       586    272.4895    147.8093 307.8222362  +6.6158310     736.0963     992.9969     1634.441     77.87611     155.5661     311.4734      1.617     4.17     835.3713     54.93504     123.0173         7     0.958     0.706  84.78   0
       587    339.2373    146.3608 307.7945519  +6.6186534     1200.619     1639.465     1346.547     77.87611     155.7522     311.5354      1.524     3.63     831.4624     54.93504     183.7397        12     1.144     0.707  63.13   0
       588     25.3828    143.2059 307.9250569  +6.6094840     4694.129     6746.358     6954.553     77.75201     155.5661     311.5044      1.513     3.72     842.6624     54.93504     696.0342        25     1.437     0.824  57.88   0
       589    711.7874    140.9796 307.6399370  +6.6332621     8537.462     12372.58     12950.43     77.87611     155.5661     311.5664      1.499     3.86      825.095     54.93504     1240.229        31     1.445     0.893  59.77   0
       590    188.9446    142.5645 307.8571228  +6.6152105     1044.461     1478.706     1833.035     78.00002     155.8762     311.6904      1.585     4.64     836.8355     54.93504     149.8127         9     1.121     0.544  57.88   0
       591    265.7388    139.6629 307.8253132  +6.6189698     773.2121     1151.568     1087.319     78.12373     155.8762     311.6904      1.407     3.65      835.624     54.93504     153.4977         8     1.227     0.572  77.47   0
       592    122.4366    138.3857 307.8848951  +6.6147163     5389.625     7562.923     8149.383     77.75201     155.6902     311.4424      1.516     3.46     838.3003     54.93504     759.9376        25     1.359     0.887  55.63   0
       593    461.5225    135.4162 307.7441084  +6.6272438     1550.716     2159.654     1801.204     77.75201     155.5661     311.5354      1.530     4.09     825.7937     54.93504     206.5457        17     1.225     0.966  60.46   0
       594    393.1395    134.4189 307.7725545  +6.6253797     4150.652     6427.117     6812.424       77.752     155.8142     311.5044      1.613     3.95     828.3787     54.93504     637.7056        26     1.554     0.830  61.32   0
       595    650.3748    134.8680 307.6656578  +6.6337472     813.7933     1190.648     960.7322       77.752     155.7522     311.5664      1.519     4.39     824.9351     54.93504     153.7327         9     1.164     0.532  70.76   0
       596    584.3979    135.8378 307.6930394  +6.6311552      885.606      1238.19     1147.859     77.25359     155.6902     311.4734      1.418     3.72     824.8259     54.93504     140.0001        10     1.037     0.635  28.30   0
       597    357.5877    133.2346 307.7873656  +6.6246848     3555.782     4833.914     4611.231      77.6277     155.6902     311.5044      1.469     3.59      830.697     54.93504     516.8098        22     1.378     0.805  64.58   0
       598    111.9005    133.0651 307.8894506  +6.6165615     2015.765     2821.832     2391.894     78.12373          156     311.6284      1.466     3.48      838.443     54.93504     300.9366        14     1.180     0.703  62.32   0
       599    569.4247    132.9781 307.6993561  +6.6318385     606.5533     1101.853     1260.153       77.752     155.6902     311.6284      1.576     3.90     824.6928     54.93504     96.63281         5     0.907     0.481 -81.36   0
       600    673.7083    130.9183 307.6560940  +6.6361529     849.3942      1148.77     526.1537     77.87611     156.1238     311.7213      1.324     3.63     824.8445     54.93504     144.8434         8     1.130     0.496  66.26   0
       601    747.6774    130.8871 307.6253599  +6.6386204     620.0197     786.8068     804.3263     78.12373     156.1856     311.7523      1.414     4.14     824.8585     54.93504     109.4302         7     1.028     0.522  45.22   0
       602   1004.4458    126.9675 307.5187976  +6.6487449     1474.447     2049.124     2008.159     77.87611     155.8762     311.5664      1.457     3.60      823.937     54.93504     202.6025        14     1.246     0.685  55.77   0
       603    209.4344    122.1297 307.8492928  +6.6243320     6169.021     8815.807     9718.542     78.00002     155.8762     311.7523      1.531     3.67     836.5529     54.93504     906.6756        27     1.441     0.891  63.66   0
       604    671.3019    120.7536 307.6574321  +6.6402703     7005.536     9574.314      9551.67     78.12373     155.6902     311.8452      1.478     3.65      824.603     54.93504     971.6214        27     1.413     0.834  59.06   0
       605     92.1507    122.1098 307.8980229  +6.6204255     2483.855     3609.062     4115.337     78.12373     155.6902     311.8143      1.520     3.82     838.7189     54.93504     343.6069        19     1.288     0.847  55.22   0
       606    819.1072    120.1614 307.5960360  +6.6454180     964.7177     1198.122     1047.969     78.24725     155.8142     311.7213      1.340     4.36     824.2362     54.93504     150.3662         8     1.085     0.498  54.87   0
       607    623.4076    117.9853 307.6774249  +6.6398230     10290.11     14684.42     15899.85       77.752     155.6282     311.5044      1.518     3.65     824.5124     54.93504     1523.696        37     1.516     0.920  63.91   2
       608    626.9998    109.5139 307.6762143  +6.6434405     58851.71     81566.36      84403.3     77.37849     155.3797     311.3184      1.480     3.96     824.3182     54.93504     8544.359        58     1.516     0.949  61.88   2
       609    257.9352    118.4792 307.8292632  +6.6274568     965.8552     1407.411     1550.833     78.37057     155.9381     311.6284      1.558     4.69     836.0383     54.93504     134.6672         9     1.118     0.557  62.36   0
       610    561.3028    117.4899 307.7032467  +6.6379641     627.5562     732.4691     802.2994     78.12373     156.3092     311.6594      1.328     4.03       824.36     54.93504     116.6626         6     1.039     0.448  55.34   0
       611     21.9693    117.4072 307.9273391  +6.6200225     847.4279     1549.189     1258.723      77.6277     155.6902     311.4424      1.681     6.20     842.7496     54.93504     128.0026        10     1.194     0.906 -71.41   0
       612    350.5583    113.8668 307.7909328  +6.6324481     4186.594     6705.824     6946.596     78.12373     155.8142     311.7214      1.706     3.98     831.9654     54.93504     594.1709        31     1.453     1.184  85.45   0
       613    532.3604    113.0533 307.7154203  +6.6388340     1843.414     2563.776     2408.039     78.00002     155.8762     311.6284      1.457     3.30     824.4411     54.93504     291.2629        14     1.193     0.690  57.11   0
       614    996.7309    112.3170 307.5224892  +6.6545394     690.7957     1084.691     829.9861     78.37057     156.1238     311.6904      1.811     4.73     823.2261     54.93504     96.78857         8     1.061     0.597  64.56   0
       615    306.1179    103.3934 307.8097475  +6.6352922     3987.172     5747.244     5999.996       77.752     155.4419     311.5044      1.541     3.50     835.0005     54.93504     595.3221        23     1.335     0.853  57.36   0
       616    705.9061     97.7176 307.6438197  +6.6509312     1155.581     1394.016     1843.537     77.87611     156.1238     311.7833      1.479     4.60     824.0508     54.93504     169.5267         9     1.113     0.540  60.80   0
       617    676.9673     96.4093 307.6558880  +6.6505110     1422.835     2160.076     1774.135      77.6277     155.6902     311.5044      1.575     5.55     824.0071     54.93504     208.4767        15     1.496     0.760  66.19   0
       618      3.7146     86.6047 307.9359553  +6.6321311     717523.4      1444145      1538240      77.6277     151.4136     269.4125      2.071     7.42     843.0294     54.93504     61680.58       286     2.105     1.581  67.98  28
       619    691.3361     93.3745 307.6500184  +6.6522411     3536.762     4932.775     4746.497     77.75201     155.8762     311.5974      1.508     4.13     823.9507     54.93504     535.6992        21     1.405     0.782  64.56   0
       620    433.1263     84.6661 307.7575997  +6.6472550       4552.1     6362.223     6488.233     78.24725     155.9381     311.6284      1.502     3.80     826.4509     54.93504     679.0618        24     1.420     0.831  61.92   0
       621    905.6365     79.7917 307.5614213  +6.6649550     3985.114     5853.252     6333.192      77.5032     155.6282     311.4424      1.546     3.80      821.917     54.93504     581.7165        24     1.436     0.861  61.70   0
       622    887.6406     80.7416 307.5688678  +6.6639667     2075.288     2919.374     3070.475     78.12373     155.8762     311.7213      1.496     3.86     822.1227     54.93504      325.949        17     1.398     0.728  65.88   0
       623    585.8652     80.2470 307.6942811  +6.6541591     884.2007     1064.856     547.9771     78.00002     155.8142     311.6904      1.352     4.86     823.7348     54.93504     131.3269         7     1.025     0.654  63.31   0
       624    597.6992     78.3757 307.6894261  +6.6553250     1803.675     2722.494      2242.28     78.24725     155.6282     311.4734      1.497     3.70     823.7048     54.93504     309.0113        16     1.319     0.725  63.29   0
       625    618.1229     78.0289 307.6809511  +6.6561467     556.4503     863.7286     603.7437     78.00002     155.9381     311.6904      1.433     4.01     823.6975     54.93504     91.65686         6     0.944     0.488  52.71   0
       626    243.4166     77.6118 307.8366613  +6.6438477      1030.54     1345.897     1974.262     78.00002     155.5661     311.5664      1.451     4.61     836.2852     54.93504      181.591        10     1.231     0.549  56.79   0
       627    396.4931     76.3565 307.7730985  +6.6494667     2160.542     2960.664     2482.258     78.12373     155.8762     311.7833      1.465     3.75     829.0167     54.93504      340.683        15     1.318     0.701  53.36   0
       628    144.3241     73.5208 307.8779712  +6.6422308     3606.575     5129.791     4929.587     78.37057     156.1238     311.7523      1.511     3.64     836.4319     54.93504     527.3621        22     1.413     0.802  63.73   0
       629     26.2492     71.3671 307.9271028  +6.6391761     13412.12     19504.51     20826.44     77.87611     155.8762     311.5974      1.564     3.76     840.3853     54.93504     1869.818        35     1.467     0.954  57.56   0
       630    292.6416     72.1391 307.8163909  +6.6477486     1446.832     1999.291     2656.604     78.12373     155.8762     311.7214      1.455     3.75     835.9124     54.93504     256.9949        15     1.305     0.697  58.85   0
       631    565.9767     70.9577 307.7028547  +6.6573340     738.3331     940.3392     672.0803       77.752     155.7522     311.4424      1.417     4.74     823.5997     54.93504     115.4086         8     1.227     0.520  67.79   0
       632    553.2434     70.7354 307.7081531  +6.6570026     756.4958     995.4067     796.2037     78.12373     155.8142     311.6594      1.301     3.94     823.5997     54.93504     138.6273         9     1.135     0.547  71.19   0
       633    947.1741     69.4589 307.5445037  +6.6705971     558.7153     751.6441     926.8227     77.75201     155.8762     311.5044      1.565     4.17     821.2088     54.93504     103.4314         6     1.117     0.445  62.30   0
       634    761.0303     69.7846 307.6218430  +6.6642946     692.3878     1145.037     2234.076       77.752     155.6282     311.5974      3.405     4.30     823.2975     54.93504     124.9376         8     1.007     0.571  66.15   0
       635    894.7084     67.0470 307.5663855  +6.6698558     750.0186     1099.363      1619.01     78.12373     155.8142     311.7833      1.536     4.36     821.4879     54.93504     116.4556         7     0.937     0.576  59.72   0
       636    828.0021     65.5284 307.5941551  +6.6682727     6672.441     9485.584     10173.17      77.6277      155.504     311.5044      1.536     3.84     822.3965     54.93504     941.6991        28     1.409     0.904  62.62   0
       637    773.0791     65.8733 307.6169663  +6.6663093     3608.857      5002.98     5622.486     78.37057     156.1238     311.6904      1.493     3.99     823.1302     54.93504     513.6798        20     1.327     0.795  62.27   0
       638    418.1835     66.5918 307.7644116  +6.6542209     1254.142     1894.215      1538.32     77.75201     155.6282     311.5044      1.573     4.16     827.1628     54.93504     184.4407        10     1.184     0.581  54.96   0
       639    918.8572     65.2025 307.5564119  +6.6714172     536.2635     698.7592     557.2163      77.5032     155.5661     311.4114      1.552     4.59     821.1395     54.93504     88.57202         6     1.105     0.542  23.83   0
       640    155.8838     69.6852 307.8732965  +6.6442004     551.8474     753.1398     714.7645     77.87611          156     311.7523      1.754     4.57     836.2841     54.93504     109.0804         5     0.947     0.625  30.33   0
       641    535.5922     63.9247 307.7157146  +6.6592281     1215.626     1690.134     1821.178       77.752     155.3797     311.4734      1.485     4.34     823.6536     54.93504     186.7044        14     1.390     0.635  62.11   0
       642     66.5359     63.2379 307.9106362  +6.6438790      3489.23     5129.513     5377.515     78.12373     155.8142     311.7523      1.566     3.57     837.9442     54.93504     483.0365        21     1.370     0.825  60.73   0
       643     51.0534     64.0818 307.9170408  +6.6430132     1069.095      1523.86     967.9587     78.12373     155.8762     311.7213      1.549     4.16     838.7107     54.93504     202.2224         9     1.205     0.476  55.33   0
       644    655.4370     63.5938 307.6659265  +6.6633467      653.466     886.3782     1105.456     77.25359     155.6282     311.4424      1.372     4.72      823.411     54.93504     109.1116         8     1.195     0.528  43.44   0
       645    427.8170     62.6134 307.7605414  +6.6561844     1142.012     1487.458     1461.063     77.87611     155.5661     311.5974      1.505     4.31     826.7999     54.93504     181.1655        10     1.095     0.641  49.16   0
       646    590.4263     59.7663 307.6930680  +6.6627677     1355.653     1886.215     1449.659      77.6277     155.6282     311.4424      1.454     4.03     823.4346     54.93504     245.1834        12     1.305     0.593  54.43   0
       647      9.0078     58.7312 307.9346898  +6.6438173     2706.487     4065.931     4613.694      77.6277     155.5661     311.5664      1.564     3.51     840.1422     54.93504     392.6147        18     1.303     0.800  65.67   0
       648    767.6799     53.4048 307.6196244  +6.6712789     2254.429     3171.907      3357.82     77.75201     155.4419     311.4114      1.608     4.63     823.0497     54.93504     290.6255        17     1.430     0.701  62.28   0
       649     81.3252     54.2832 307.9047910  +6.6480705     962.6693     1221.908     1311.471     78.24725     156.1856     311.7214      1.437     5.46     837.0085     54.93504     150.7453        11     1.224     0.688  59.80   0
       650    408.5551     53.6298 307.7688449  +6.6592527     1273.362     1911.985     1993.455     77.75201     155.8762     311.5354      1.540     3.87     828.1212     54.93504     175.8077        13     1.147     0.755  54.24   0
       651    105.5766     53.0152 307.8947570  +6.6494041     1060.001     1559.383     1445.871     77.87611     155.6902     311.5664      1.566     3.78     836.3511     54.93504     165.4835        10     0.884     0.829  79.96   0
       652     94.2849     47.5230 307.8996325  +6.6512948     10375.75     14870.49     15566.67     78.24725     156.1856     311.7523      1.570     3.79     836.3761     54.93504     1407.469        34     1.514     0.910  58.28   0
       653    423.3959     46.9741 307.7629002  +6.6624950     2808.524     3810.622     3522.794      77.6277     155.6902     311.5044      1.394     3.25      827.174     54.93504     440.6659        17     1.297     0.718  61.94   0
       654    245.2118     47.3415 307.8369271  +6.6564068     563.8916     846.5897     1076.202      77.5032     155.8142     311.3804      1.665     4.38     836.1576     54.93504     110.9138         7     1.340     0.408  42.06   0
       655    637.1158     39.2408 307.6743503  +6.6727943     20173.73     28247.73     29705.34     78.12373     155.8142     311.5974      1.485     3.74     823.0178     54.93504     3036.784        37     1.453     0.896  60.47   0
       656    261.0362     41.6072 307.8305434  +6.6593023     1512.874     2516.508     3390.272     77.37849     155.6902     311.4114      1.862     4.77     836.1257     54.93504     204.5918        13     1.274     0.703  51.86   0
       657    666.5930     40.3441 307.6620646  +6.6733176     490.4972     787.8673     685.1584      77.6277     155.7522     311.4114      1.861     3.43     822.9281     54.93504     72.33368         5     1.058     0.322  68.40   0
       658    536.8821     35.3252 307.7161316  +6.6710805     5802.444     7976.807     8169.648     78.37057     156.1856     311.7214      1.462     3.55     823.2092     54.93504      808.042        27     1.373     0.879  62.91   0
       659    255.0741     35.7488 307.8332165  +6.6615225     2099.296     2810.468     3704.681     78.12373     155.9381     311.6904      1.510     3.73     836.1125     54.93504     315.8789        15     1.194     0.737  66.73   0
       660      4.2835     33.9655 307.9374824  +6.6538854     1527.201     2277.864     2181.536     78.12373     155.3176     276.9772      1.469     3.48     837.9531     54.93504     208.1914        15     1.212     0.745  69.48  16
       661    692.9387     33.9704 307.6513289  +6.6768241     522.4092     709.0186     1174.259     77.87611     155.8762     311.6284      1.026     3.66     822.8362     54.93504     85.00256         5     1.018     0.379  57.30   0
       662    623.5830     29.7520 307.6802896  +6.6762630     3377.874     5611.046     6554.242      77.6277     155.8762     311.4424      1.945     6.09     822.9202     54.93504     569.0372        32     2.112     0.863  70.40   0
       663    263.0033     31.5395 307.8300624  +6.6635250     10114.99     14644.09     15638.56      77.5032     155.6282     311.3804      1.544     3.73     836.1013     54.93504     1393.566        34     1.533     0.912  57.47   0
       664    508.1678     32.0246 307.7281734  +6.6714885     538.9097     670.0031     806.9077      77.5032     155.6902     311.4734      1.695     3.55     823.7109     54.93504     90.43109         5     1.339     0.271  78.67   0
       665    442.4325     30.9812 307.7555235  +6.6697325     25046.16     35405.47     36073.12      77.6277     155.6902     311.5354      1.504     3.56     826.3146     54.93504     3617.873        44     1.497     0.949  59.37   0
       666    920.2593     30.9238 307.5569672  +6.6856185     2065.496     2942.252     2795.998     78.24725     155.9381     311.6284      1.564     3.79     819.6329     54.93504     282.4667        18     1.302     0.834  59.39   0
       667    527.6815     31.3393 307.7200876  +6.6724204     695.0704     844.4465     997.5411     78.24725     155.8762     311.6284      1.750     4.49       823.32     54.93504     107.2737         7     1.203     0.476  41.18   0
       668    322.7599     31.6018 307.8052301  +6.6654911     1039.954     1612.872     1763.049     77.37849     155.6282     311.4114      1.563     4.67     834.8757     54.93504     173.0154         9     1.285     0.481  52.46   0
       669     28.3107     31.2324 307.9275905  +6.6558171     2556.468     3798.805     3845.146     78.24725     155.6902     311.6594      1.573     3.70     837.2089     54.93504     362.5048        18     1.275     0.782  54.85   0
       670    555.3845     30.5005 307.7086040  +6.6736878     859.5901      1037.18     848.3018     78.12373     155.6282     311.4114      1.283     4.02     822.9994     54.93504     140.9284         9     1.194     0.493  51.36   0
       671    250.8992     28.1408 307.8352055  +6.6645248     3355.141     4963.595     5318.366     77.87611     155.8762     311.7833      1.567     3.82     836.0869     54.93504     519.5445        23     1.445     0.843  63.25   0
       672    303.8968     26.2147 307.8132482  +6.6670869     1214.276     1807.242     1402.479     77.87611     155.6282     311.4424      1.554     4.54     835.5881     54.93504     181.5453        14     1.190     0.833  60.86   0
       673    940.7077     20.7104 307.5488087  +6.6905130     1164.368     1904.094     1684.962     78.12373      156.371     311.7214      1.726     4.46     819.0426     54.93504     155.6932        11     1.295     0.641  59.43   0
       674    575.7089   1019.2476 307.6672479  +6.2660746     3967.459     6521.158      7127.33     78.12373     155.8142     293.3346      1.814     3.76      855.895     54.93504     476.6544        32     1.524     1.155  65.94  16
       675    711.9128   1019.5134 307.6106855  +6.2704850     1037.187     1777.883     2174.299     77.87611     156.0619     290.7221      1.886     5.13     854.0269     54.93504      158.295        16     1.503     0.880  44.74  16
       676    202.9519     16.2678 307.8555256  +6.6678280     895.6334     1286.168     1202.049     78.12373     155.8142     311.6904      1.471     4.41     835.9371     54.93504     148.7717         9     1.116     0.619  51.09   0
       677    751.6948   1015.7919 307.5942909  +6.2733409     1285.576     2187.181     2879.629     77.87611      155.504     311.4734      2.022     4.92     853.4623     54.93504     162.6188        16     1.311     0.896  64.33  16
       678    624.2712   1013.9075 307.6472618  +6.2698920     517.8438      740.231     341.7222     78.00002          156     311.6904      1.296     3.03     855.5414     54.93504     88.59247         5     0.913     0.717  85.41   0
       679    959.1500   1009.4816 307.5083600  +6.2828172     5315.616     10245.58     10745.34     78.12373     155.9381     311.6904      2.049     4.64     848.9185     54.93504     568.7489        41     1.727     1.309  51.50   0
       680    713.5684   1010.0239 307.6103132  +6.2744585     946.2971     1532.093     2266.256      77.5032     155.6902     311.4734      2.064     5.10     853.8943     54.93504     142.9112        12     1.169     0.772  48.53   0
       681    243.7979   1009.8674 307.8053705  +6.2589074     1228.587     1792.841     1799.617      77.5032     155.4419     311.4734      1.607     5.25      854.945     54.93504     169.4627        14     1.288     0.873  49.73   0
       682    692.1660     20.4363 307.6521003  +6.6823871      1997.56     2675.191     2874.418     77.87611     155.6282     311.4114      1.496     4.46     822.5688     54.93504     271.1335        14     1.209     0.721  60.38   0
       683    441.8432   1008.8030 307.7231776  +6.2659390     929.8766     1583.748     1876.663      77.5032     155.4419     311.3184      1.934     5.51     855.5925     54.93504     111.5646        11     1.246     0.688  61.78   0
       684    719.0112   1007.8165 307.6081266  +6.2755505     2435.831     3898.347     4359.827     77.87611     155.5661     311.5664      1.631     3.58     853.8183     54.93504     330.4146        22     1.353     0.956  56.84   0
       685    734.5463   1006.6277 307.6017156  +6.2765566     824.5665     1245.445     1438.362     77.87611          156     311.5664      1.807     4.99     853.6344     54.93504      107.592         9     1.278     0.551  59.24   0
       686    365.5462   1005.5382 307.7549652  +6.2647490     1758.257     2787.001     2669.348     78.12373     155.8142     311.6284      1.724     4.27     855.7022     54.93504     245.4037        18     1.300     0.944  59.60   0
       687    547.8330    995.6590 307.6796069  +6.2748893     4012.881     6747.128     7684.423     78.00002     155.9381     311.6284      1.830     3.96     855.4595     54.93504     522.5741        32     1.568     1.089  64.83   3
       688    545.0184    987.7709 307.6810381  +6.2780531      7992.06     12924.11     13866.49       77.752     155.6902     311.5974      1.743     3.88     855.3467     54.93504     979.4482        38     1.578     1.095  58.50   3
       689    752.3378    994.7653 307.5947220  +6.2820450     7384.535     12347.54     12701.65     78.00002     155.9381     311.6284      1.806     3.94     853.1714     54.93504     821.4899        39     1.627     1.145  57.76   0
