#   1 NUMBER                 Running object number                                     
#   2 X_IMAGE                Object position along x                                    [pixel]
#   3 Y_IMAGE                Object position along y                                    [pixel]
#   4 ALPHA_J2000            Right ascension of barycenter (J2000)                      [deg]
#   5 DELTA_J2000            Declination of barycenter (J2000)                          [deg]
#   6 FLUX_APER              Flux vector within fixed circular aperture(s)              [count]
#   9 FLUXERR_APER           RMS error vector for aperture flux(es)                     [count]
#  12 FLUX_RADIUS            Fraction-of-light radii                                    [pixel]
#  13 FWHM_IMAGE             FWHM assuming a gaussian core                              [pixel]
#  14 BACKGROUND             Background at centroid position                            [count]
#  15 THRESHOLD              Detection threshold above background                       [count]
#  16 FLUX_MAX               Peak flux above background                                 [count]
#  17 ISOAREA_IMAGE          Isophotal area above Analysis threshold                    [pixel**2]
#  18 A_IMAGE                Profile RMS along major axis                               [pixel]
#  19 B_IMAGE                Profile RMS along minor axis                               [pixel]
#  20 THETA_IMAGE            Position angle (CCW/x)                                     [deg]
#  21 FLAGS                  Extraction flags                                          
         1      9.0839     71.1281 307.9361369  +6.6320457     740233.2      1777815      1960997     81.94096     163.5585      326.404      2.326     7.48     936.4772     57.52829     61061.18       390     2.284     1.779 -44.01  28
         2    642.5635     24.0713 307.6744375  +6.6727891     15975.59     27716.08     29283.85     81.68206     163.2344      326.404      1.870     4.67     907.5552     57.52829     1779.751        52     1.737     1.184 -36.94   0
         3    268.4998     16.1366 307.8301884  +6.6634916     7841.636     14040.05      15111.5     81.55231     163.2993      326.404      1.908     4.47     926.9525     57.52829     883.9208        42     1.737     1.147 -38.53   2
         4    447.8950     15.7641 307.7556353  +6.6696811     19186.73     34365.26     35983.42     81.94096     163.1046     326.4688      1.905     4.74      912.137     57.52829     2136.986        55     1.754     1.235 -37.26   0
         5    628.8514     14.5480 307.6804597  +6.6762601     2509.672     5223.438     6324.766     81.94096     163.1046     326.3715      2.327     6.18     907.4084     57.52829     314.6702        33     1.841     1.393 -86.94   0
         6    925.8668     15.6272 307.5569611  +6.6857644     1675.209     2728.693     1987.818     81.42234     163.1046     326.2741      1.699     6.10     902.2573     57.52829     251.5765        16     1.459     0.818 -32.25   0
         7     33.8880     15.5633 307.9277211  +6.6558179     1940.536     3478.944     3423.983     81.81161     163.1046     326.3715      1.886     5.04     932.0872     57.52829     217.7543        23     1.565     0.964 -31.81   0
         8    256.4112     12.6184 307.8353326  +6.6645367     2608.719     4345.389     4447.695     81.42235     162.9097     326.2741      1.808     4.54     927.3081     57.52829     320.9374        27     1.583     1.054 -41.87   0
         9    309.5673     10.8382 307.8132989  +6.6670613     921.8669     1659.862     1908.932     81.42234     163.0397     326.1443      1.987     5.67     924.6287     57.52829     125.0643        11     1.270     0.713 -35.49   0
        10    946.1619      5.9196 307.5488526  +6.6904503      915.678     1388.505     1715.194     81.68206     163.2993     308.8321      1.927     6.08     900.3056     57.52829     129.1644        12     1.335     0.827 -51.30  16
        11    697.5873      5.4826 307.6521951  +6.6823075      1632.97     2904.893     3219.599     81.42235     162.9747     304.0281      1.953     4.87     905.2592     57.52829     200.4828        21     1.459     0.976 -44.27  16
        12    208.9428      1.3599 307.8554454  +6.6675846     476.3592     684.4075     592.9435     71.44633     130.0903     245.9951      1.483     4.32     928.2059     57.52829     100.8989         5     1.109     0.480   0.80  24
        13    580.4751   1003.9481 307.6670666  +6.2662269     3902.736     6706.051     7926.242     81.81161     163.2993     326.3715      1.882     5.14     945.2412     57.52829     445.7361        29     1.643     0.961 -37.97   0
        14    806.6002   1023.5104 307.5724869  +6.2657278     7776.388     10269.94     10706.97     72.33024     131.7084     247.7112      1.322     3.94     941.3331     57.52829     1577.329        20     1.412     0.652  -4.99  24
        15     77.4462   1023.6519 307.8753152  +6.2411804     3752.051     4754.808         4786     71.29795     129.7642     245.7798      1.207     3.51     950.7678     57.52829     855.5099        14     1.297     0.554  -5.40  24
        16    716.2888   1004.0352 307.6106548  +6.2707433     1106.013     1783.877     2158.572     81.94096     163.1695     326.3715      1.841     6.11     943.0978     57.52829     167.7928        14     1.324     0.792 -42.33   0
        17    492.3568   1002.5803 307.7037114  +6.2638347     1713.557     1901.552     1695.658     81.29218     163.1046     326.2092      0.787     0.84     945.9102     57.52829       704.16         5     0.559     0.479  88.38   0
        18    756.2470   1000.0901 307.5941916  +6.2737100     1248.571      2050.67     2479.925     81.81161     163.1046     326.5013      1.774     6.27     941.6976     57.52829     160.4537        16     1.340     0.954 -28.86   0
        19    963.7890    994.4355 307.5081794  +6.2829863     6123.458     10474.35     10857.83     81.29218     163.0397     326.1443      1.808     4.57     936.1211     57.52829     714.7799        33     1.635     1.046 -38.80   0
        20    718.1750    994.5985 307.6101902  +6.2747018     1068.755     1712.815     3259.989     81.42234     162.9097     326.1443      1.931     4.72      942.762     57.52829     153.4186        12     1.330     0.694 -35.37   3
        21    723.6376    992.4637 307.6079934  +6.2757660     2594.976     4578.014     5397.946     81.81161     163.1695      326.404      1.902     4.98     942.4409     57.52829     354.3099        27     1.658     0.919 -37.20   2
        22    248.3619    994.5636 307.8053206  +6.2589432     1360.956     2369.112     2416.606     81.55231     163.1046     326.2092      1.858     4.92     949.8811     57.52829     199.5435        17     1.258     0.994 -30.50   0
        23    446.6169    993.4142 307.7230191  +6.2660824     935.6375     1464.566     2116.357     81.55231     162.9097     326.3066      1.884     6.49     946.8555     57.52829     127.4824        13     1.325     0.891 -49.58   0
        24    739.4456    991.6561 307.6014549  +6.2766288     979.5742     1640.087     1853.693     81.81161     163.2344      326.404      1.895     5.85     941.8802     57.52829     138.8335        12     1.470     0.654 -34.74   0
        25    370.1841    989.9294 307.7548822  +6.2649529     1681.515     2820.395     3227.865     81.29217     163.1695     326.2741      1.880     5.45     948.5771     57.52829     218.2679        17     1.565     0.729 -36.97   0
        26    980.8192    987.9514 307.5013244  +6.2862320     570.1105     774.9658     673.8869     81.29218     163.2993     326.1768      1.517     3.86     935.3085     57.52829     77.79211         5     0.818     0.522 -33.85   0
        27    757.1167    979.5424 307.5945244  +6.2822210     7487.607     12566.86     13011.28     81.81161     163.2344     326.4364      1.789     5.01     941.2433     57.52829     906.4143        37     1.645     1.038 -36.03   0
        28    552.4949    980.1619 307.6794928  +6.2751069     3975.726     6790.969     7263.352     81.94096     163.1046     326.5013      1.860     4.95     945.1134     57.52829     482.9985        30     1.649     0.965 -41.68   0
        29    522.8886    981.1326 307.6917566  +6.2737128     1053.656     1928.606     1977.003     81.94096     163.4289     326.3391      1.821     6.24     945.4279     57.52829     157.9283        15     1.875     0.583 -32.28   0
        30    302.9573    978.6984 307.7831843  +6.2673287     13743.56     23440.92     25765.93     81.81161     163.1046     326.5986      1.872     5.34     949.5668     57.52829     1775.955        51     2.050     1.009 -36.74   0
        31    427.0510    979.0479 307.7316323  +6.2713554     900.5714     1384.998      1391.93     81.94096     163.1046     326.3715      1.737     6.36     947.3884     57.52829     114.2619        12     1.415     0.803 -33.43   0
        32    818.3668    978.6752 307.5691131  +6.2846293     1016.734     1599.387     1646.908     81.68207     163.2344     326.3391      1.784     4.83     939.7325     57.52829     146.1573         9     1.141     0.580 -18.18   0
        33    274.3021    976.7410 307.7951520  +6.2671728      866.154     1391.852     1620.559     81.55231     163.1695     326.5013      1.817     5.39     949.6882     57.52829     127.0975         9     1.256     0.652 -35.90   0
        34    918.4141    973.0176 307.5277484  +6.2903110     8359.247     13736.45     14213.68     81.55231     162.9097     326.2741      1.770     4.81     936.9259     57.52829     961.8472        34     1.597     1.042 -39.40   0
        35    549.6752    972.3671 307.6809277  +6.2782299     7989.842     13058.82     14172.55     81.68207     163.2344     326.3066      1.774     4.94     945.0471     57.52829      992.699        36     1.629     1.012 -42.76   0
        36     48.5175    971.7248 307.8890952  +6.2616392     639.5186     822.9691     201.9614     82.07011     163.5585     326.4364      1.372     6.18     949.7489     57.52829     102.3699         8     1.523     0.706 -51.85   0
        37    604.7803    969.7679 307.6581279  +6.2811512     1239.782     2344.792     2111.606     81.29218     163.0397     326.2092      1.724     6.31     944.0126     57.52829     190.7028        16     1.617     0.817 -41.90   0
        38   1013.8120    968.6276 307.4882715  +6.2953109     4476.511      7726.96      8330.32     81.42234     163.0397     326.3066      1.865     5.15     933.4335     57.52829     526.1282        31     1.665     0.974 -40.38  16
        39    892.0115    969.1134 307.5388467  +6.2910398     11467.43     19855.03     21354.68     81.42234     162.9747     326.2092      1.841     5.14     937.4919     57.52829     1421.002        48     1.744     1.149 -36.09   0
        40    536.0892    968.1021 307.6867150  +6.2795346     3876.967      6335.35     7253.354     81.81161     163.6879     326.3715      1.764     5.21      945.179     57.52829     472.1683        24     1.569     0.928 -35.69   0
        41     70.4928    967.1691 307.8801235  +6.2642606      791.078     1319.494     651.6534     81.94096     163.0397     326.3715      1.739     5.86     949.5748     57.52829     135.0048         8     1.585     0.611 -52.43   0
        42    645.8010    967.2901 307.6411737  +6.2835493     1348.797     2059.175     1982.996      81.0312     162.7796     326.1118      1.604     5.20     943.5085     57.52829     202.6495        15     1.373     0.764 -29.47   0
        43    800.9738    966.2555 307.5767567  +6.2891739     562.5608     827.1662     857.5562     81.42234     163.2993     326.2092      1.604     4.93     939.8182     57.52829     87.68927         7     1.360     0.506 -20.10   0
        44    489.4840    964.5841 307.7061913  +6.2794225     2192.897     3419.475     3341.034     81.42235     162.9097     326.2741      1.751     5.61     945.5932     57.52829     251.6563        21     1.593     0.907 -33.50   0
        45    923.7831    956.7416 307.5260672  +6.2972091     41057.46     69378.91     73090.15     81.42234     163.1695     326.1443      1.808     4.99     936.2435     57.52829     5049.505        66     1.733     1.170 -39.65   0
        46    231.0427    954.9664 307.8138580  +6.2747052     1498.583     2310.831     2133.406     81.55231     163.2344     326.1768      1.599     5.03     949.1093     57.52829     218.0687        14     1.489     0.666 -38.44   0
        47    118.6554    954.1016 307.8605649  +6.2712776     675.4095     1001.746     366.9979     81.68207     163.2344     326.5986      1.526     5.17     949.1121     57.52829     104.4978         8     1.350     0.560 -31.32   0
        48    769.8357    948.5827 307.5902871  +6.2954268     6179.172     10430.43     11094.49     81.29218     163.0397     326.1443      1.827     5.26     940.1993     57.52829     824.6686        37     1.784     1.089 -52.46   0
        49    629.9712    952.9225 307.6482346  +6.2889494     787.7752     1363.025     1839.038     81.68207     163.2993      326.404      1.864     4.38     943.1201     57.52829     117.5653         8     1.330     0.411 -30.89   0
        50    821.8170    950.4886 307.5686316  +6.2963799     2201.466     3539.678     4006.981     81.55231     162.9747     326.2417      1.751     5.45     938.8346     57.52829     309.9897        19     1.536     0.786 -41.78   0
        51    556.0311    948.0499 307.6791108  +6.2884810     793.9415     1378.395     1480.416     81.55231     163.2344     326.3066      1.839     6.68     944.6022     57.52829     116.2129        11     1.318     0.951 -50.81   0
        52    239.3706    947.2798 307.8106601  +6.2781583      1324.34     2317.666     1945.537     81.68207     163.2344     326.3391      1.803     5.77     949.0338     57.52829     163.8734        14     1.488     0.721 -51.30   0
        53    203.9951    947.1326 307.8253577  +6.2770284     899.8282     1310.696     1282.001     81.29218     162.9097     326.1768      1.857     6.04     948.8962     57.52829     115.7155        12     1.224     0.837  14.06   0
        54     64.3016    945.5387 307.8834304  +6.2729802     2512.142     4102.155     4302.056     81.55231     163.2344     326.5013      1.736     4.76     949.1949     57.52829     326.6435        24     1.594     0.849 -43.76   0
        55    958.1506    943.4411 307.5122404  +6.3038482     6284.021     10793.92     11326.15     81.94096     163.2344     326.3066      1.842     4.85     934.5475     57.52829     759.3422        36     1.588     1.141 -36.57   0
        56    640.0938    938.1001 307.6445313  +6.2954073     638.5952     1040.074     1290.863     81.81161     163.7526     326.2092      1.917     5.26     942.3901     57.52829     89.52966         7     1.340     0.584 -41.11   0
        57    214.1955    939.2306 307.8213895  +6.2806335     537.2281     834.5753      759.913     81.29217     163.1046     326.1443      1.611     3.36     948.7254     57.52829     86.68567         5     0.935     0.350 -45.63   0
        58    931.8132    935.0060 307.5234647  +6.3064499     1834.055     3348.526     3600.391     81.42234     163.0397     326.2417      1.978     5.68     935.2432     57.52829     247.8494        22     1.613     0.870 -39.00   0
        59    791.2883    931.5247 307.5819524  +6.3031864     1346.268     2170.434      2430.62     81.81161     163.5585     326.4688      1.711     5.63     939.1301     57.52829     183.4319        14     1.456     0.763 -35.19   0
        60    652.5814    931.0549 307.6395827  +6.2987341     4203.761     6941.757     7186.538     81.29217     163.2344     326.1768      1.745     4.88     941.8772     57.52829     573.8898        29     1.597     0.954 -37.58   0
        61    264.8387    931.2513 307.8006264  +6.2856315     3935.461     6828.151     6318.659     81.55231     163.2344     326.3391      1.768     4.98     949.1023     57.52829     542.6081        28     1.649     0.945 -37.31   0
        62   1001.7933    930.8278 307.4945373  +6.3105131     735.0427     1273.769     1282.814     81.29217     163.1046     326.1768      1.656     6.17     932.4697     57.52829     100.8197        10     1.156     0.926 -79.65   0
        63    474.7632    929.3695 307.7134983  +6.2934643     1070.822     1643.574      1635.44     81.42235     162.9747     326.2092      1.810     5.59     945.5689     57.52829     144.7026        13     1.366     0.661 -34.69   0
        64     33.5768    928.5510 307.8967690  +6.2789563     2034.397     3308.564     3604.547     81.42235     163.2993     326.2741      1.787     5.12     949.1827     57.52829     314.5914        19     1.541     0.843 -30.54   0
        65    884.0509    927.6029 307.5435537  +6.3079090     820.6172     1400.237     1032.966     81.16179     162.9747     325.9494      1.798     6.25     936.6475     57.52829     120.0247        11     1.589     0.691 -36.36   0
        66    976.6232    924.8552 307.5051938  +6.3121377     682.6873     1161.617     925.8578     81.42234     163.2344     326.1768      1.818     4.61     933.1996     57.52829     92.01147         7     1.076     0.562 -14.67   0
        67    955.4744    924.6909 307.5139841  +6.3114988     756.2182     1325.153     1518.136     81.81161     163.4289      326.404      1.820     5.27     934.0511     57.52829     109.9086         8     1.465     0.536 -43.96   0
        68    577.1097    923.5249 307.6711856  +6.2993117     1683.705     2807.003     3161.211     81.81161     163.4937     326.4364      1.832     4.44     943.5023     57.52829      223.932        18     1.323     0.974 -43.86   0
        69    300.6410    924.4958 307.7859853  +6.2896245     788.4804     1186.201     1275.194     81.81161     163.1695     326.5337      1.642     6.30     949.2717     57.52829     103.2773        15     1.553     0.717 -27.50   0
        70   1008.8221    922.7971 307.4918883  +6.3140630     800.7108     1615.196     1171.776     81.42234     162.9097     326.1118      2.211     6.64     931.8758     57.52829     117.1947         9     1.464     0.845 -88.81   0
        71    616.5875    919.7911 307.6549142  +6.3021770     1281.866     1978.432     2085.448     81.55231     163.0397     326.3066      1.791     4.99     942.2299     57.52829     144.7507        14     1.223     0.868 -39.93   0
        72     66.2635    920.3477 307.8834723  +6.2834445     875.0876     1521.273     2230.783     81.81161     163.1695     326.3391      1.962     5.49     948.7819     57.52829     115.4533        10     1.312     0.649 -37.11   0
        73     61.1998    919.5887 307.8856012  +6.2835871     468.4033     916.3333     1176.332     81.42235     162.9097     326.1768      2.365     4.57     948.8355     57.52829     72.75513         5     1.342     0.442 -30.84   0
        74    296.3329    917.5556 307.7880102  +6.2923444     1390.616     2431.641     2185.981     81.81161     163.1695      326.404      1.860     4.68     949.2631     57.52829     209.6166        15     1.384     0.877 -29.58   0
        75    564.2966    915.9181 307.6767651  +6.3020219     504.8333     653.3618     74.86092     81.68207     163.6232     326.4364      1.567     4.34     943.6799     57.52829     95.48743         5     1.195     0.448 -33.68   0
        76    764.3168    913.0016 307.5937813  +6.3099296     717.0465     1026.163     1030.845      81.0312     162.7796     326.0793      1.665     4.98     939.3206     57.52829     121.9949         8     0.984     0.715 -69.24   2
        77    900.8228    910.3416 307.5371693  +6.3155952     6601.467      11025.1      11011.4     81.42234     163.2344     326.2092      1.776     4.90     935.6128     57.52829     802.6339        32     1.628     0.992 -38.20   0
        78    436.7502    907.5089 307.7300279  +6.3012114     1925.855     3349.023     3200.679     81.81161     163.0397     326.5661      1.895     4.36     946.2311     57.52829     294.8083        18     1.453     0.816 -30.72   0
        79    109.6925    908.6704 307.8658318  +6.2897283     483.0644     690.7312     282.7584     81.81161     163.3641     326.3715      1.544     4.26     948.3659     57.52829     86.74274         6     0.963     0.538 -43.89   0
        80    338.3455    905.8610 307.7709570  +6.2985845     8724.536     14490.86     15116.38     81.94096     163.1695     326.3391      1.767     4.65     948.7944     57.52829     1147.018        36     1.615     1.028 -40.70   0
        81    258.4474    904.8163 307.8041783  +6.2963283     6428.192     10984.55     11319.18     81.29218     163.1695     326.1443      1.798     4.92     948.8723     57.52829      766.401        36     1.673     1.040 -39.74   0
        82    586.5004    899.2236 307.6681073  +6.3096580     1100.893     1690.452       1911.6     81.94096     162.9747     326.1443      1.726     5.91     942.5152     57.52829     144.6136        15     1.545     0.791 -41.07   0
        83    770.8262    899.2628 307.5915415  +6.3158189     660.5605     1060.006     996.6671     81.42234     163.1695     326.3066      1.897     4.51     938.5752     57.52829     148.1952         6     1.393     0.483 -34.03   0
        84    916.5953    895.2696 307.5311260  +6.3223442     914.0464     1741.083     1299.604     81.29218     162.8447     326.2092      1.940     6.08     934.7213     57.52829     117.8175        13     1.411     0.780 -39.70   0
        85    873.2506    893.1962 307.5492008  +6.3217507     469.9504     959.3308     768.2649     81.16179     162.9747     325.9494      1.304     3.98     936.0616     57.52829     75.92859         6     1.481     0.307  25.22   0
        86    983.6219    891.1237 307.5034236  +6.3262958      747.166     1004.705     1189.861     81.42234     163.0397     326.3066      1.606     5.17     931.6775     57.52829     102.4118         9     1.182     0.640 -42.25   0
        87    844.9077    889.6194 307.5610948  +6.3222790     628.6934     879.6949     924.1327     81.68207     162.9747     326.2417      1.763     4.79     936.5502     57.52829     95.01453         6     0.990     0.658 -68.61   0
        88    752.7509    888.6473 307.5994082  +6.3195956     1551.307     2466.917     2490.921     81.81161     163.1046      326.404      1.640     5.86     938.7984     57.52829      226.976        17     1.549     0.751 -42.41   0
        89    576.2035    889.0180 307.6727298  +6.3135253     573.8311     852.2034      736.267     81.42234     162.7796     326.1768      1.790     5.00     942.5451     57.52829     88.52789         6     1.165     0.606 -33.86   0
        90    984.1039    884.4123 307.5034495  +6.3290824     1178.828      2131.64     2299.482     81.68207     162.9747     326.1443      1.874     6.72     931.4199     57.52829     169.8186        17     1.619     0.981 -47.11   0
        91    617.2078    885.2366 307.6558255  +6.3164615     743.5989     1393.964     1353.345      81.0312     163.0397     326.1118      2.000     5.40     941.3951     57.52829     96.86932         9     1.349     0.610 -35.41   0
        92      3.7324    885.1089 307.9106424  +6.2958813     832.2809      1105.21     1179.905     81.94096     159.2942     282.6179      1.535     5.34      949.244     57.52829     106.3113        10     1.309     0.614 -16.08  16
        93    538.1680    883.8737 307.6887028  +6.3143727     1174.546     1797.884     1808.476     81.68206     163.2344     326.3715      1.745     4.51     943.3795     57.52829     183.7391        13     1.196     0.765 -22.10   0
        94    671.5720    881.7327 307.6333622  +6.3197303     2371.092     3862.167     3791.765     81.55231     163.1695     326.3391      1.754     4.93     940.1566     57.52829     281.8635        23     1.566     0.851 -32.04   0
        95    961.6971    879.7820 307.5129133  +6.3302450     532.3954     803.2158     653.7376     81.68207     163.0397     326.1118      1.614     4.82     932.3566     57.52829     91.94434         8     1.117     0.589 -32.51   0
        96    832.0947    878.4949 307.5667926  +6.3264425     746.6628     1196.786     1431.848     81.81161     163.8819     326.2741      1.804     5.46     936.3622     57.52829     138.9829         9     1.509     0.558 -30.54   0
        97     68.0676    877.9258 307.8841657  +6.3010159     2735.758      4762.29     5095.146     81.94096     163.3641     326.3391      1.844     5.16      948.462     57.52829     396.2791        23     1.560     0.931 -34.16   0
        98    949.5763    877.2053 307.5180351  +6.3309036     846.9374     1504.795     1243.012     81.29218     162.9747     326.2092      1.804     6.35     932.8614     57.52829     97.98425        12     1.490     0.760 -35.43   0
        99    569.1296    878.6276 307.6760197  +6.3175771     569.1254     755.6978     1197.509     81.55231     163.1695     326.3066      1.619     4.32     942.4404     57.52829     91.95404         5     1.113     0.478   4.18   0
       100    211.4814    876.9832 307.8246307  +6.3062364     2102.313     3429.934      3372.41     81.42234     162.9097     326.2092      1.735     5.61     948.4258     57.52829     258.0891        20     1.579     0.852 -41.42   0
       101     85.6695    877.0072 307.8768861  +6.3019884     1786.469     2994.685     3177.759     81.29217     162.8447     326.2741      1.751     4.76     948.2461     57.52829     245.9907        17     1.362     0.889 -41.09   0
       102    245.4993    873.4393 307.8106215  +6.3088443     911.8265     1452.561     1266.258     81.81161     163.1046     326.5986      1.724     5.82     948.6356     57.52829     117.5948        10     1.345     0.709 -15.00   0
       103    802.6817    872.8047 307.5792026  +6.3278070     670.8165     965.9396     1168.395     81.29218     162.7796     326.0793      1.563     4.24     936.5839     57.52829     92.28223         6     0.762     0.674 -32.71   0
       104    666.0603    870.9175 307.6360173  +6.3240100     6621.064     10813.93     11392.74     81.94096     163.2344      326.404      1.747     5.00     939.9868     57.52829     807.3332        34     1.615     1.015 -39.49   0
       105    351.1999    872.6898 307.7667428  +6.3127092     707.3229     1306.181      1237.88      81.0312     162.7146     326.0144      1.715     4.88     948.3658     57.52829     106.7355         8     1.134     0.660 -43.80   0
       106    454.3739    869.8113 307.7239850  +6.3173643     438.2464     548.1722     586.2976     81.42234     163.0397     326.2741      1.284     3.45     944.7668     57.52829     73.02966         5     0.762     0.450 -73.30   0
       107     26.1144    869.0299 307.9018934  +6.3032732     1069.967     1776.573     1840.286     81.94096     162.9747     326.2417      1.819     6.65     948.8923     57.52829     139.2086        16     1.472     1.054 -23.13   0
       108    903.8066    867.2098 307.5373848  +6.3334996     2513.848      4296.75      4508.26     81.29217     163.0397     326.2417      1.830     5.03     934.4214     57.52829     334.0553        23     1.613     0.891 -37.80   0
       109     38.9211    867.9299 307.8966116  +6.3041592     1029.855      1606.94     1406.415     82.07011     163.4937     326.3391      1.726     5.72     948.7328     57.52829     150.1036        15     1.461     0.799 -38.84   0
       110    349.1199    864.1024 307.7678980  +6.3161839      14845.1      24771.8     26110.51     81.68207     163.5585     326.4364      1.759     4.88     948.2676     57.52829     1896.736        49     1.701     1.119 -36.50   0
       111     83.5788    865.0443 307.8781613  +6.3068559     1333.172      2135.17     2718.294     81.29217     163.1046     326.1768      1.722     4.79     948.1801     57.52829     174.0315        18     1.356     0.899 -47.51   0
       112    220.0531    863.3569 307.8215332  +6.3121496     1299.062     1993.421     2008.641     81.81161     163.2344     326.3715      1.618     5.15     948.4494     57.52829     178.5272        18     1.453     0.880 -42.70   0
       113    680.3235    851.0757 307.6307634  +6.3326786     778.0867     1542.736     2004.831     82.07011     163.4937     326.4688      2.905     5.51     939.0199     57.52829     130.6188         9     1.556     0.550 -41.92   2
       114    426.9345    854.8712 307.7358889  +6.3226097     1021.798     1870.382     1315.107     81.81161     163.2993     326.3715      1.802     6.18     944.7125     57.52829     133.3264        13     1.489     0.721 -45.82   0
       115    112.5568    854.7224 307.8664761  +6.3120931     1568.339     2692.914     2832.074     81.68207     163.2344      326.404      1.752     4.41     947.9048     57.52829     219.3771        17     1.357     0.811 -28.26   0
       116    458.5196    853.9795 307.7227994  +6.3240387     387.3481     684.2551     1326.362     81.55231     162.9097     326.3391      2.221     3.75     944.4105     57.52829      93.1062         6     1.838     0.220 -25.28   0
       117    893.9766    848.9782 307.5420832  +6.3406968     1939.457     3112.631     3086.228     81.42234     163.0397     326.3391      1.777     4.86     934.0607     57.52829      258.642        20     1.478     0.871 -39.49   0
       118    864.8179    848.5123 307.5542115  +6.3399139     1914.773     3131.875     2981.492     81.55231     162.9747     326.2092      1.732     6.52     935.0571     57.52829     247.5071        17     1.477     0.808 -37.70   0
       119    828.1422    848.0170 307.5694634  +6.3388913      2816.68     5028.069     5399.708     81.29218     163.1695     326.1118      1.937     5.77     935.5903     57.52829     367.6642        25     1.592     1.008 -34.49   0
       120     95.8505    848.1863 307.8736374  +6.3142280     2445.801     4066.667     4239.728     81.16179     163.2344     326.0793      1.774     4.58      947.741     57.52829     296.1855        21     1.517     0.868 -43.29   0
       121    564.1995    839.3175 307.6793981  +6.3336384     307081.3       510641     538268.6      81.0312     162.7146     326.0468      1.777     4.67     941.0296     57.52829     37363.46       163     1.818     1.293 -40.99   0
       122    408.4352    841.9470 307.7440112  +6.3273230     7154.982     11834.98     12534.63     81.68206     163.2344     326.3715      1.807     4.75     945.0556     57.52829      897.905        38     1.678     1.054 -44.76   0
       123    651.7773    842.6084 307.6429076  +6.3352170     1218.176     1950.058     2167.383     81.42235     163.0397     326.1768      1.760     4.74      939.322     57.52829      163.527        16     1.373     0.803 -45.05   0
       124    351.6091    840.2803 307.7676721  +6.3261010     11518.58     19517.42     20890.36     81.42235     162.8447     326.2092      1.835     4.78     947.2123     57.52829     1464.549        49     1.766     1.119 -40.27   0
       125    669.9257    836.6383 307.6355707  +6.3382897     3134.057     5161.109     5511.696     81.68206     163.2993     326.4364      1.734     4.97     938.6929     57.52829     403.8047        24     1.589     0.903 -37.43   0
       126    902.5280    835.4052 307.5389888  +6.3465857      5163.41     8711.162     8911.819     81.42235     162.7796     326.2741      1.811     4.83     933.1836     57.52829     651.5726        35     1.635     1.078 -37.35   0
       127    741.0082    833.7258 307.6061416  +6.3418736     592.5353     983.2855     701.6142     81.42234     162.7796     326.2092      1.523     3.22      937.312     57.52829     92.59821         4     0.677     0.446   0.50   2
       128    644.9278    830.7036 307.6461555  +6.3399016      3075.14      5296.04     6019.105     81.55231     163.4289     326.3391      1.816     4.83     939.0361     57.52829     422.7881        24     1.599     0.898 -40.34   0
       129    833.1740    829.7105 307.5679911  +6.3466165     1475.356     2361.601      2326.52     81.94096     162.9747     326.2092      1.706     6.54     935.0831     57.52829     189.2065        17     1.437     0.837 -36.79   0
       130    637.2260    826.2996 307.6495038  +6.3414613     1788.686      3808.13     5534.096     81.81161     162.9747     326.2741      2.671     9.16      939.033     57.52829     219.9692        30     2.614     0.896 -57.81   0
       131    959.9674    828.8829 307.5153479  +6.3511982     770.5148     1111.546     1519.169     81.81161     163.0397     326.3066      1.719     5.42     930.3704     57.52829     119.4446         7     1.213     0.684 -33.84   0
       132    921.3741    823.3212 307.5315676  +6.3522041     3104.076     5006.591     5326.881     81.55231     163.1695     326.3066      1.758     4.75     931.9466     57.52829     392.3697        24     1.516     0.955 -37.49   0
       133    331.6187    823.7506 307.7765364  +6.3322520     1025.544     1603.264     952.6951     81.29218     163.2993     326.1768      1.660     6.32     947.1518     57.52829     133.6227        14     1.397     0.803 -51.80   0
       134    379.5691    819.2365 307.7567717  +6.3357274     2549.925     4098.604     4224.615     81.42235     162.9747     326.1443      1.756     4.73     945.5297     57.52829      290.468        21     1.502     0.868 -31.51   0
       135    515.7657    808.9615 307.7005449  +6.3445436     2942.047     4661.792     4500.289     81.55231     163.1046     326.1443      1.649     4.71     941.4805     57.52829     384.7056        21     1.550     0.811 -39.06   0
       136    860.5443    808.1240 307.5573499  +6.3564430     816.1929     1488.135     1746.047     81.81161     163.1695     326.3066      1.768     6.39     933.9236     57.52829     111.1504        13     1.485     0.772 -38.55   0
       137    253.3730    808.1984 307.8095661  +6.3360393     556.7097     1523.414     2260.461     81.29218     162.9097     326.1443      2.455     5.96      948.265     57.52829     110.7311         8     1.499     0.666 -48.89   0
       138    581.0905    807.0140 307.6734750  +6.3475396     687.2719     1067.058     946.2845     81.55231     163.0397     326.2092      1.693     5.29     939.3975     57.52829     104.1889         7     1.139     0.695 -12.11   0
       139    562.5511    805.1272 307.6812401  +6.3476965     5629.367     9261.049     10162.52     81.81161     163.2993      326.404      1.767     4.99     939.5837     57.52829     671.9055        30     1.613     0.983 -38.48   2
       140    569.1182    804.6307 307.6785289  +6.3481218     1154.905     2156.283     1945.386     81.68207     163.0397     326.3715      1.934     6.67     939.4946     57.52829      150.562        15     1.692     0.737 -14.10   3
       141    480.5384    803.9965 307.7153465  +6.3454104     1502.396     2492.696     2094.499     81.16179     163.0397     326.0793      1.736     5.46     943.1176     57.52829     197.8813        20     1.629     0.875 -30.08   0
       142    122.1829    803.2047 307.8642292  +6.3336827     1353.879     2250.859     2277.947     81.42234     162.9097     326.2092      1.782     5.84     947.2863     57.52829     191.3381        15     1.569     0.740 -44.50   0
       143    898.5068    803.3267 307.5417415  +6.3596931      1302.28     2097.966     2353.212     81.68207     163.3641     326.3715      1.788     5.54      932.075     57.52829     169.7672        14     1.311     0.753 -39.23   0
       144    697.9333    802.0200 307.6251067  +6.3535185     628.3646     838.8291     897.4849     81.42234     163.2344     326.2741      1.638     3.70     936.9384     57.52829     115.2357         5     1.040     0.379 -56.57   0
       145    533.3063    799.0031 307.6935958  +6.3492431      18157.7     30002.16     31956.52     81.55231     162.9097     326.0793      1.775     4.65     940.2593     57.52829     2214.638        51     1.709     1.107 -37.54   0
       146    374.9384    800.6053 307.7593271  +6.3432624     655.4827     1247.001     1293.425     81.16179     163.0397     326.1443      1.896     5.60     945.1064     57.52829     89.50598         7     1.346     0.656 -27.16   0
       147    946.9898    797.2128 307.5218069  +6.3638378     3597.376     5941.389      6370.53     81.55231     162.9747     326.3066      1.729     4.96     929.6725     57.52829     476.7858        29     1.662     0.943 -41.92   0
       148     66.9739    795.3026 307.8874302  +6.3350835      532.592     894.7237     1222.523     81.94096     162.9747     326.3066      1.808     5.04     946.8965     57.52829     95.46826         5     1.211     0.593 -48.80   0
       149     43.9621    789.5966 307.8971828  +6.3366628     1427.307     2393.026     2633.417      80.9004     163.0397     326.1443      1.796     5.19     946.9061     57.52829     197.6503        18     1.473     0.941 -42.79   0
       150    326.0468    787.7645 307.7800718  +6.3469190     2876.881     4819.902     4381.571     81.42234     163.1695     326.3066      1.753     4.73      946.298     57.52829     386.0314        25     1.538     0.968 -34.01   0
       151    791.4659    783.5840 307.5868748  +6.3642613     51460.88     83919.38     88051.69     81.29218     163.1046     326.2417      1.783     5.15     934.5242     57.52829     6119.063        73     1.742     1.137 -38.91   0
       152     25.9829    785.6478 307.9047852  +6.3376864     1942.565     3337.735     3032.808     81.29217     163.1695     326.1443      1.761     4.55     946.9324     57.52829     244.9117        22     1.557     0.879 -37.80   0
       153    729.6954    785.6376 307.6124660  +6.3613451     682.9991     1114.544     1144.926     81.94096     163.1046     326.5013      1.995     4.99      935.664     57.52829     107.3868         7     1.034     0.681  87.54   0
       154    434.6709    782.1126 307.7351413  +6.3529032     728.0455     1151.122     946.1902     81.94096     163.4937     326.3715      1.802     6.77     943.1456     57.52829     144.0109        11     1.595     0.806 -48.32   0
       155    248.7732    781.4023 307.8123866  +6.3469454     4776.928     8722.313     10909.83     81.29218     162.9747     326.1768      2.115     4.74     947.3644     57.52829     603.5166        37     1.722     1.119 -41.31   0
       156    719.6884    778.1941 307.6168747  +6.3640825     19817.05     32922.33     35711.97     81.29218     162.9097     326.1118      1.782     4.90      935.535     57.52829     2507.922        59     1.791     1.121 -37.26   3
       157    713.4223    774.6757 307.6195967  +6.3653249     82309.64     134289.8       141104     81.42235     163.1046     326.3066      1.786     4.86     935.6012     57.52829     9942.777        77     1.743     1.142 -39.02   3
       158    916.7087    778.7717 307.5350084  +6.3704379     7953.367     12923.38     13460.76     81.94096     162.9747     326.2417      1.745     4.89     930.7882     57.52829     958.4197        36     1.632     0.992 -39.04   0
       159    358.3545    775.5312 307.7670664  +6.3530550     18605.77     31239.88     32823.13     81.81161     163.1695     326.3715      1.821     4.58     944.9069     57.52829     2153.641        52     1.718     1.136 -39.21   0
       160    407.5209    775.7081 307.7466366  +6.3546346     1320.585     2049.098     2095.626     81.55231     163.4937     326.4364      1.625     5.17     943.4529     57.52829     171.8669        15     1.357     0.748 -37.37   0
       161    420.2050    773.3663 307.7414470  +6.3560275      19752.5     33740.07     35638.18      81.0312     163.0397     326.1443      1.829     4.67     943.0018     57.52829     2375.296        52     1.748     1.126 -38.87   0
       162    646.8995    775.0364 307.6472192  +6.3629466     687.1779     1007.848      1347.98     81.81161     163.1046     326.5661      1.508     4.56     937.1348     57.52829     118.8014         7     1.204     0.491 -39.90   0
       163    957.2673    772.2947 307.5183776  +6.3744674     1921.123     3215.384     3097.772     81.68207     163.3641     326.3715      1.798     4.71     928.9041     57.52829     249.4415        20     1.531     0.884 -37.72   0
       164    248.3055    759.9268 307.8133101  +6.3557943     759376.4      1894028      2112301     81.68207     163.3641     326.3715      2.399     6.31     946.4758     57.52829     63192.32       554     2.423     2.037 -49.88   4
       165    886.0846    771.1374 307.5479881  +6.3725653     761.3221     1226.475     884.7196     81.94096     163.2993     326.3391      1.704     5.68     931.7898     57.52829     108.5583         9     1.380     0.660 -43.34   0
       166    654.2825    769.2523 307.6443478  +6.3655817     5968.295     9674.729      10297.9     81.81161     163.2344     326.4364      1.756     4.82     936.8718     57.52829     716.7335        30     1.620     0.944 -37.47   0
       167    442.8041    767.3231 307.7322640  +6.3592813     1550.778      2495.66      2642.29     81.42234     162.7146     326.2092      1.693     6.72      942.355     57.52829       196.78        19     1.723     0.791 -43.39   0
       168    168.3320    766.2451 307.8463159  +6.3504934     759.9052     897.2811     513.0536     81.81161     163.1695      326.404      1.379     5.41        946.9     57.52829     105.7983         8     1.100     0.752 -63.27   0
       169    913.6794    770.2137 307.5365556  +6.3738694     6236.038     10202.27     10158.09     81.42235     162.9747     326.1443      1.746     4.93     930.7546     57.52829     776.2349        33     1.622     0.977 -37.29   0
       170    742.0875    764.4277 307.6080349  +6.3705155      602.661     834.0161     598.2245     81.94096     162.9747     326.2417      1.722     4.22     934.2526     57.52829      94.4209         5     0.925     0.550 -44.20   0
       171    882.1133    761.5480 307.5499615  +6.3763909     724.3007     1091.215     1163.957     81.81161     163.1046     326.4364      1.850     4.19     931.6728     57.52829     119.3489         7     1.137     0.440 -50.60   0
       172    607.5543    761.2344 307.6640309  +6.3673246     940.2304     1641.342     1575.117     81.42235     163.1695     326.2417      1.756     6.10     937.1589     57.52829     115.6987        15     1.333     1.043 -12.61   0
       173    689.3929    759.5059 307.6300918  +6.3707817     2199.178     3667.953     3859.052     81.42235     162.9097     326.1768      1.739     5.01     935.8572     57.52829     298.0776        24     1.646     0.989 -35.20   0
       174    158.2896    759.9315 307.8507020  +6.3527613     823.6665     1399.043     1220.722     81.94096     163.4289     326.3715      2.035     5.94     946.7661     57.52829     113.7787        10     1.349     0.736 -43.73   0
       175    133.5049    760.0825 307.8609922  +6.3518639      862.014     1619.197     1935.534     81.55231     163.5585     326.5013      2.149     6.33     946.7065     57.52829     111.9745        12     1.601     0.704 -40.63   0
       176    423.1114    756.0229 307.7408276  +6.3632842     48019.99     81251.48     85828.73     81.81161     163.0397     326.2417      1.810     4.70     942.1768     57.52829      5702.39        74     1.788     1.186 -38.34   0
       177    965.3816    758.6295 307.5154675  +6.3803796     559.5676      837.797     1017.526     81.42235     163.0397     326.3066      1.187     3.37     928.3636     57.52829     121.6467         5     0.972     0.503   5.06   2
       178    540.8054    755.1209 307.6919665  +6.3676087      6398.42     10916.04     11506.54     81.42234     162.7146     326.1443      1.794     4.77     938.9955     57.52829     785.2412        36     1.658     1.040 -35.44   0
       179    457.8256    753.5679 307.7264901  +6.3654638     3765.166     6721.608     8325.332     81.29218     163.0397     326.2092      2.031     4.73     941.5756     57.52829     492.7145        32     1.775     1.000 -35.58   0
       180    786.0951    751.7042 307.5901828  +6.3772413     10690.37     17708.26     18785.14     81.81161     163.8819     326.2417      1.751     4.84     933.0638     57.52829      1374.71        42     1.688     1.025 -37.97   0
       181    453.9927    747.1813 307.7282988  +6.3679713     1990.364     3369.058     3829.502     81.42234     162.9097     326.2092      1.806     5.41     941.3412     57.52829     259.3021        20     1.621     0.783 -40.89   0
       182     15.6287    747.9141 307.9103703  +6.3529125     955.5857     1565.886     1725.555     81.94096     162.9097     326.2092      1.765     5.49     947.0252     57.52829     150.6346         9     1.148     0.740 -40.88   0
       183    807.4883    746.1543 307.5814828  +6.3802484     1146.696     1608.928     1565.477     81.81161     163.1046      326.404      1.668     4.78     932.5093     57.52829     190.9092        12     1.281     0.667 -25.55   0
       184    152.0788    743.8964 307.8538269  +6.3591709     2775.693     4736.368     4708.947     81.55231     163.4937     326.4364      1.815     4.57     946.3923     57.52829     345.5815        24     1.442     1.042 -34.59   1
       185    143.8520    743.6722 307.8572519  +6.3589863     10114.91     17855.19     19778.19     81.68207     163.2344      326.404      1.887     4.92     946.4073     57.52829     1278.074        48     1.719     1.207 -31.71   0
       186    980.5621    740.2986 307.5097790  +6.3884538     1557.674     2604.066     3071.664     81.81161     163.1046     326.5986      1.977     6.29     927.3525     57.52829     203.3447        15     1.490     0.747 -37.83   0
       187    931.5909    740.2552 307.5301251  +6.3868350     5910.601     9912.205     10181.49     81.16179     163.1695     326.0793      1.798     4.92     929.7352     57.52829     727.2916        33     1.588     1.054 -36.29   0
       188    136.0709    741.0369 307.8605738  +6.3598119     2387.217     4188.318     5143.119     81.68207     163.2993      326.404      1.895     4.75     946.3681     57.52829     286.9083        21     1.509     0.866 -33.82   1
       189    687.1026    737.9139 307.6317733  +6.3796179     1507.911     2429.033      2688.66     81.81161     163.6232     326.4364      1.756     5.46     935.3184     57.52829     197.7657        17     1.519     0.809 -43.99   0
       190    573.9518    737.2080 307.6788032  +6.3761152     1997.563     3425.703      4231.28     81.29217     163.1046     326.0144      1.767     5.63     937.4491     57.52829     248.0857        21     1.650     0.832 -41.64   0
       191    421.4963    736.3905 307.7421640  +6.3713339     1016.969     1947.868     2077.413     81.55231     162.8447     326.1768      2.003     7.03     941.3048     57.52829     131.2612        15     1.326     1.045 -25.34   0
       192    136.0876    734.6556 307.8607837  +6.3624465     1695.109      3020.29     3289.502     81.81161     163.1046     326.5337      1.840     5.84      946.249     57.52829     241.7128        21     1.739     0.848 -39.54   0
       193    706.0245    735.2404 307.6240030  +6.3813556     608.6884     1105.416     1682.041     81.42234     163.1046     326.1443      2.477     4.26     934.2899     57.52829     97.90039         5     1.353     0.382  -8.50   0
       194    986.0010    731.4888 307.5078164  +6.3922722     1726.187     2956.085     3486.263      81.0312     162.7796     326.1118      1.807     5.84     926.9574     57.52829     223.6641        20     1.709     0.814 -43.88   0
       195    955.1548    731.7394 307.5206229  +6.3911380     2902.867     4609.635     4879.139     81.68207     163.1695     326.4688      1.716     5.58     928.4412     57.52829     380.0404        22     1.498     0.872 -38.49   0
       196    925.7710    732.2003 307.5328146  +6.3899655     2772.571     4400.318     4987.269     81.16179     163.0397     326.1768      1.692     5.24     929.7427     57.52829     354.2954        20     1.478     0.832 -38.67   0
       197    678.1364    731.3754 307.6357193  +6.3820165     1311.184      2019.33     1843.517     81.42234     163.2344     326.3066      1.633     6.17     935.3873     57.52829      189.718        15     1.454     0.736 -39.08   0
       198    825.3324    729.6539 307.5746269  +6.3876569     1073.053     1586.109     1500.031     81.81161     163.1695     326.2741      1.568     5.97     931.7457     57.52829     170.6235        13     1.355     0.770 -53.26   0
       199    900.4261    727.6168 307.5434986  +6.3910100     758.6558     1299.807     1612.475     81.42235     163.0397     326.3066      2.002     5.66     930.2538     57.52829      126.076         8     1.334     0.676 -23.64   0
       200    250.7868    726.5417 307.8134130  +6.3696584     1625.468      2865.47     3664.214     81.16179     163.1695     326.0793      2.019     5.44     945.2583     57.52829     213.4619        18     1.456     0.851 -37.62   0
       201    688.1638    723.5070 307.6318196  +6.3856006     705.9189     1045.283     1663.985     81.94096     163.1046     326.4688      1.994     4.77     934.5805     57.52829     108.4102         7     0.895     0.721  78.67   0
       202    943.4418    722.0355 307.5258162  +6.3947522     934.7708     1492.386     1358.055     81.55231     163.2344     326.2092      1.672     6.29     928.6937     57.52829     114.2634        13     1.482     0.750 -40.73   0
       203    166.7301    721.4084 307.8485051  +6.3689469     676.8243     1061.896     892.4403     81.29218     162.8447     326.2417      1.601     3.81      945.594     57.52829     125.3588         6     1.296     0.422 -40.31   0
       204    970.1705    719.4853 307.5147979  +6.3966983      2285.77     3724.293      4155.95     81.81161     162.9097     326.2417      1.733     5.38     927.4263     57.52829     302.3683        20     1.647     0.785 -38.47   0
       205    917.4990    720.3370 307.5366514  +6.3945860     1034.251      1546.88      1630.67     81.55231     163.2993      326.404      1.676     5.09      929.562     57.52829     148.0741        12     1.365     0.620 -47.12   0
       206    689.8018    718.7472 307.6313001  +6.3876203     819.8582     1487.985     2331.984     81.16179     162.9747     325.9494      2.420     5.42     934.2492     57.52829     108.0975        10     1.349     0.614 -37.31   0
       207   1011.9524    712.8795 307.4976622  +6.4008211     1695.922     2758.781     2655.184     81.81161     163.2993     326.3391      1.665     5.66     925.5341     57.52829     208.7107        20     1.486     0.911 -36.04   0
       208    481.3884    713.7712 307.7180502  +6.3826827     547.8824     909.4168     350.5381     81.29218     163.0397     326.2417      1.864     4.20     939.5776     57.52829     95.64764         6     1.185     0.424 -36.98   0
       209    813.1732    711.4585 307.5802928  +6.3947609     1039.294     1631.028     1785.767     81.42235     163.2993     326.2092      1.796     4.87      931.631     57.52829     166.9424        12     1.294     0.662 -34.36   0
       210    899.5540    709.1395 307.5444844  +6.3986082       1392.2      2414.97     2449.053     81.68207     163.1695     326.4364      1.690     5.39     929.6836     57.52829     190.7322        15     1.536     0.678 -42.11   0
       211    873.7148    704.0738 307.5553902  +6.3998351     867.9984     1257.207      1432.85     81.94096     163.5585     326.3715      1.653     4.59     930.3039     57.52829     124.1923         8     1.174     0.509 -36.32   0
       212    856.6011    700.0798 307.5626350  +6.4009113     1472.581      2627.92     2318.429      81.0312     162.6495     326.1443      1.869     5.04     930.6294     57.52829     221.5186        17     1.574     0.810 -19.44   0
       213     55.7036    698.9586 307.8953893  +6.3744715     2255.568     3832.342     4584.599     81.81161     163.1695     326.5337      1.836     4.96      946.491     57.52829     283.4679        22     1.529     0.950 -36.04   0
       214    119.0368    697.3248 307.8691359  +6.3772811     751.0221     1705.494      1668.16     81.68206     163.2993      326.404      2.454     6.68     945.7344     57.52829     102.1393        12     1.682     0.743  77.78   0
       215    668.1544    687.6182 307.6413460  +6.3997445     5458.178     9140.038     9621.878     81.42234     163.1046     326.1118      1.753     4.65     933.2626     57.52829     709.6115        30     1.608     0.964 -39.13   0
       216    525.7501    687.0932 307.7005246  +6.3951844     718.4794     974.6263     712.8542     81.68207     163.1046     326.5337      1.631     4.43     937.1844     57.52829     110.3328         7     1.136     0.529 -64.57   0
       217    615.1741    686.7281 307.6633865  +6.3983355     1140.215     1777.489     2006.236     81.42234     163.1046     326.2741      1.530     4.80     935.3216     57.52829     169.6437        12     1.272     0.657 -33.33   0
       218    536.9503    687.4160 307.6958606  +6.3954271      582.438     855.4839       1020.1     81.29217     163.2993     326.0468      1.493     4.17     936.8886     57.52829     89.84076         5     1.569     0.316 -26.85   0
       219    641.8948    683.2589 307.6524029  +6.4006636     1760.474     3269.461     2973.221     81.68207     163.2344     326.5013      1.929     5.83     934.0992     57.52829     226.0232        23     1.707     0.883 -38.33   0
       220    131.2348    683.4298 307.8645412  +6.3834276     3277.434     5346.798     5593.499     81.42235     162.9747     326.1768      1.786     4.53     945.1739     57.52829     379.4675        26     1.482     1.013 -39.12   0
       221   1005.2051    682.8742 307.5014769  +6.4129819     2291.338     3819.262     3948.859     81.42234     162.7796     326.2741      1.780     5.41     925.4273     57.52829     273.7559        21     1.577     0.851 -35.29   0
       222    317.2669    683.4491 307.7872589  +6.3896831      644.253     953.0784     1227.889     81.68207     163.1695      326.404      1.557     5.01     943.1516     57.52829     94.60596         7     1.263     0.562 -64.81   0
       223    785.0528    679.7124 307.5930477  +6.4069241     18182.44     30503.39     32060.01     81.81161     163.1046     326.5013      1.775     4.82     931.4529     57.52829     2311.205        47     1.678     1.084 -37.19   0
       224    915.1014    679.3997 307.5390286  +6.4114046     3514.885     5744.086     5884.006     81.29218     162.8447     325.9819      1.761     4.61      928.267     57.52829     484.6295        23     1.539     0.876 -32.84   0
       225    512.5742    679.4661 307.7062567  +6.3978904     925.2815     1484.746     1284.711     81.42235     163.1695     326.2741      1.747     5.54     937.2112     57.52829     130.8984        11     1.270     0.682 -62.09   0
       226    484.0068    680.0762 307.7181041  +6.3966794     1345.551     2044.867      1700.99     81.42234     162.7146     326.2417      1.578     5.67     938.0099     57.52829     156.2229        14     1.285     0.741 -26.36   0
       227    329.4445    679.3522 307.7823390  +6.3917838     769.3823      943.744     409.9015     81.81161     163.1695     326.3391      1.417     4.69     942.5579     57.52829     109.9153         7     1.081     0.576 -21.75   0
       228    286.7459    679.3021 307.8000789  +6.3903681      618.489     820.4193     617.3491     81.68207     163.2344     326.5986      1.518     4.46     944.0808     57.52829     79.56305         6     1.037     0.546 -34.12   0
       229    556.5803    677.8342 307.6880300  +6.4000411     501.8748     807.6236     998.4023     81.29218     163.0397     326.1768      2.023     4.48     936.1746     57.52829     78.60437         5     1.170     0.488  34.75   0
       230    258.5871    673.2473 307.8119825  +6.3919197     5446.761     9447.407     9850.744     81.16179     163.1046     326.1118      1.853     4.48     943.9337     57.52829     652.4259        33     1.640     1.060 -40.98   0
       231    665.5800    672.4238 307.6429295  +6.4059303     6391.013     10556.51     11157.47     81.55231     163.0397     326.3066      1.790     4.70     932.5023     57.52829     743.4407        33     1.624     0.996 -39.01   0
       232    648.3179    673.5750 307.6500621  +6.4048764     816.5332     1514.001      1163.53     81.55231     162.9747     326.3715      1.584     5.39     933.4756     57.52829     113.7732        10     1.468     0.558 -37.90   0
       233    925.1235    665.0743 307.5353481  +6.4176532     1027.856     1687.702     1458.628     82.07011     163.4937     326.4364      1.680     4.79     927.4409     57.52829     192.3568        12     1.268     0.711 -36.28   0
       234    737.3165    660.9752 307.6135133  +6.4130601     3295.703     5889.764     6465.103     81.68206     162.9747     326.3391      1.958     4.91     931.0641     57.52829     424.6196        30     1.573     1.078 -34.67   0
       235    692.6827    661.4584 307.6320403  +6.4113651     935.1229     1432.218     1859.926     81.94096     163.2344     326.4364      1.547     4.71      931.618     57.52829     141.8817         8     1.213     0.518 -41.89   0
       236   1003.6250    657.5825 307.5029859  +6.4233694     8363.534     13518.11     13834.73     81.55231     163.0397     326.3066      1.754     4.72     924.5208     57.52829      1010.51        36     1.636     0.995 -38.80   0
       237    941.9994    658.0234 307.5285746  +6.4211279     2321.571      3869.22     4137.683     81.42234     162.9097     326.1443      1.706     4.64     926.6187     57.52829     332.0461        22     1.569     0.864 -44.63   0
       238      3.5753    660.0753 307.9183672  +6.3887630     550.2894      1107.63     916.4865     81.42234     157.6905     280.3605      1.962     4.66     946.6608     57.52829      92.6535         6     1.333     0.461 -32.21  16
       239     23.0106    657.3583 307.9103860  +6.3905402     1727.343     3268.219     3987.648     81.16179     163.0397     326.1118      2.118     5.50     946.4198     57.52829     216.5183        20     1.498     0.972 -29.56   0
       240    439.6355    655.3356 307.7373763  +6.4054015     522.5189     741.1175     956.5268     81.68207     163.1695      326.404      1.876     5.64     938.2075     57.52829     75.88123         6     1.275     0.704 -36.44   0
       241     81.0377    652.3161 307.8864521  +6.3945785     22593.25     39227.09     42129.04     81.81161     163.1695     326.3066      1.863     4.59     945.4791     57.52829     2593.219        62     1.778     1.248 -41.77   0
       242    542.1511    653.3396 307.6948540  +6.4096679     1774.321      2768.07     2888.492     81.81161     163.1695     326.4364      1.694     5.26     935.8986     57.52829     216.9346        19     1.495     0.869 -36.70   0
       243    510.9415    650.7785 307.7079068  +6.4096775     1124.311     1725.599     1896.791     81.42234     163.1046     326.1768      1.654     5.95     936.4396     57.52829     161.0249        13     1.469     0.679 -29.75   0
       244    932.1192    649.5659 307.5329649  +6.4242889     994.9715     1720.342     1964.426     81.68207     163.2344      326.404      1.931     5.45      926.677     57.52829     130.4612        11     1.283     0.652 -16.27   0
       245    551.2070    647.0731 307.6913039  +6.4125586     995.0698     1659.267     1489.576     81.42234     162.7796     326.2741      1.635     5.51     935.5961     57.52829     152.5245        12     1.501     0.570 -43.15   0
       246    726.8660    644.5109 307.6184116  +6.4195063     3124.553     5433.147     6107.678     81.81161     163.4289     326.3391      1.847     5.05     930.8047     57.52829     415.1832        25     1.551     0.919 -37.98   0
       247    748.9793    642.8932 307.6092789  +6.4209148     3691.655     6027.156     5833.044     81.68207     163.0397     326.1768      1.676     4.66     930.6147     57.52829     442.2709        25     1.540     0.924 -35.85   0
       248    580.4871    640.7751 307.6793526  +6.4161408     2856.782     4794.374     4814.517     81.94096     163.0397     326.2417      1.833     4.67     934.6674     57.52829     352.8758        26     1.644     0.935 -34.80   0
       249   1021.8110    639.1244 307.4960523  +6.4315964     4586.424     7476.678     7423.843     81.42234     153.9524     274.8287      1.699     5.27     922.8057     57.52829     593.4232        29     1.538     0.991 -36.05  24
       250    416.9286    641.1608 307.7472903  +6.4104896     993.0423     1624.496     1653.873     81.68207     163.2344     326.4364      1.653     5.35     938.3301     57.52829     136.4797        11     1.160     0.804 -10.82   0
       251    324.6394    639.6859 307.7856814  +6.4079956     1206.934     1975.886     1613.689     81.81161     163.2344     326.3715      1.709     4.39        940.7     57.52829     167.0215        15     1.370     0.813 -29.64   0
       252    241.1967    640.2397 307.8203280  +6.4049591     1483.357     2661.754     2993.416      81.0312     162.9747     326.0793      1.924     5.79     943.1614     57.52829     190.9794        20     1.508     0.905 -33.03   0
       253    987.2805    637.8505 307.5104419  +6.4309687     7634.249     12358.93     12786.94     81.81161     163.2993     326.3715      1.731     4.99     924.1123     57.52829      953.149        30     1.612     0.921 -37.18   0
       254    707.3367    636.4716 307.6267971  +6.4221705     975.1004     1727.288     1786.272     81.81161     163.2344     326.4364      1.846     4.44     930.8244     57.52829     163.1572        11     1.382     0.637 -31.97   0
       255     98.3960    634.7291 307.8798392  +6.4024231      730.193     1238.933     1138.717     81.29218     162.8447     326.2092      1.748     4.82     944.5153     57.52829        102.6         7     1.053     0.626 -21.08   0
       256    432.6411    632.1736 307.7410672  +6.4147274     2533.549     4429.011     4816.233     81.42234     163.0397     326.2092      1.874     5.20     937.5966     57.52829     278.5203        22     1.513     0.949 -37.09   0
       257    145.7763    631.2632 307.8602739  +6.4054507      20886.5     36368.54     37887.59     81.42235     163.2344     326.2741      1.841     4.59     943.6932     57.52829     2516.988        55     1.751     1.159 -40.39   0
       258    814.3169    631.8049 307.5825079  +6.4276797     1181.492     1929.625     1653.016     81.29218     162.8447     326.0793      1.743     5.84     929.8693     57.52829     148.9239        17     1.567     0.766 -39.50   0
       259    365.6814    626.0845 307.7690922  +6.4149903     638.8489     1057.815      973.097     81.55231     163.5585     326.4364      1.794     4.27     938.8057     57.52829     107.7207         7     1.181     0.439 -34.68   0
       260    982.1848    620.7718 307.5131349  +6.4378484     6232.374     11258.53     12294.78     81.42234     163.0397     326.2741      1.914     4.63      923.493     57.52829     766.7158        41     1.640     1.236 -37.93   0
       261    575.7773    616.1291 307.6821437  +6.4261564     41570.61     71915.19     76334.11     81.42234     163.1046     326.3715      1.828     4.67      933.993     57.52829     4904.955        72     1.797     1.200 -38.90   0
       262    219.6670    616.8586 307.8300665  +6.4138855     591.3809     1111.218     1131.627     81.94096     163.1695     326.3715      2.503     4.87      943.321     57.52829     112.3398         6     1.523     0.441 -57.64   0
       263    940.6345    617.0130 307.5305251  +6.4380113     527.5166     917.0014     287.0229     81.29217     163.0397     326.2417      1.726     4.43     925.1223     57.52829     91.38367         6     1.167     0.479 -17.93   0
       264    535.1710    616.4370 307.6990037  +6.4246666     567.1506     819.6594      975.906     81.42234     162.9747     326.2092      1.715     3.43     935.3343     57.52829     94.87079         5     1.163     0.293 -54.31   0
       265    183.2918    612.7352 307.8453184  +6.4143625     2376.084     4183.505     4545.601     81.81161     163.4289     326.3715      1.858     4.51     943.2784     57.52829     339.7397        28     1.577     1.068 -41.08   0
       266     27.4509    619.7417 307.9098218  +6.4062170     895.1795      1518.48      1422.37     81.81161     163.2344     326.3715      1.592     5.62     946.1114     57.52829     143.3677        11     1.399     0.647 -41.45   0
       267     75.9899    606.8840 307.8900947  +6.4131614     1012.846     1957.196     2209.812     81.42234     162.9747     326.2092      1.855     5.94     944.2186     57.52829     159.2805        13     1.386     0.716 -35.70   0
       268    473.0244    599.9351 307.7253825  +6.4293916     52345.25     92887.57     98598.34     81.42234     163.2344     326.3066      1.887     4.80     935.4153     57.52829     6151.706        84     1.838     1.262 -40.43   0
       269     16.9622    601.2744 307.9148077  +6.4134858     1495.829     2520.533     2656.239     81.68207     163.2993     326.4364      2.008     6.61     946.3013     57.52829     179.8951        18     1.596     0.781 -34.29   0
       270    658.0000    597.9152 307.6485990  +6.4364326     672.6514     1412.497     1541.482      81.0312     162.7146     326.0144      1.508     3.87     930.5442     57.52829     102.1317         5     1.328     0.323 -78.11   2
       271    147.3895    595.1780 307.8608306  +6.4204001     1219.087     2128.463     2317.985     81.42234     162.9747     326.2417      1.805     5.60     942.8745     57.52829     180.7192        18     1.553     0.940 -31.60   0
       272    426.7187    592.7023 307.7448660  +6.4308215     801.2111     1568.837     1558.753     81.68207     163.5585     326.4688      1.839     5.66     936.1324     57.52829     120.7328        10     1.540     0.585 -34.72   0
       273    617.8954    592.0585 307.6654597  +6.4375054     761.0456     1341.392     805.5273     81.68207     163.2344     326.5013      1.624     4.96     931.4526     57.52829      93.8573         8     1.094     0.637 -62.32   0
       274    318.7025    588.9877 307.7898686  +6.4287231      1782.83     3369.795      3393.92     81.55231     162.9747     326.1443      2.033     4.88     938.5363     57.52829     229.1596        23     1.675     0.949 -36.29   0
       275     19.4260    591.0856 307.9141310  +6.4177746     614.3635     812.2842     1619.599     81.94096     162.9747     326.2417      1.837     4.92     946.1033     57.52829     86.48663         7     1.038     0.659 -42.08   0
       276    470.8400    587.8435 307.7266998  +6.4343095     711.6014      1388.61     1948.791     81.55231     163.2344     326.2417      1.945     5.73      935.056     57.52829     109.0436        10     1.877     0.492 -37.40   0
       277    744.9866    583.4548 307.6129468  +6.4453168     4667.706     7754.638     7824.248     81.16179     163.1695     326.1118      1.771     4.70     928.9171     57.52829     603.5641        30     1.605     0.991 -41.51   0
       278    798.6231    578.6912 307.5908225  +6.4490794     12480.94     20688.68     22043.66     81.81161     163.0397     326.2092      1.794     4.76     928.0032     57.52829     1594.265        46     1.703     1.100 -40.55   0
       279   1015.7192    579.0477 307.5006085  +6.4561924     875.7908      1396.92     1428.056     81.81161     163.2344      326.404      1.678     6.03     920.3935     57.52829     136.2166        12     1.600     0.745 -36.00  16
       280    540.9478    578.7318 307.6978807  +6.4404247     1122.743     2113.065     2311.553     81.68207     163.1046     326.3066      1.877     6.33     933.1709     57.52829     141.3649        15     1.472     0.777 -45.03   0
       281    622.5930    576.6590 307.6640291  +6.4440197     2516.471     4207.291     3988.392      81.1618     163.1046     326.0793      1.776     4.51     930.7748     57.52829     297.3887        23     1.428     0.991 -34.19   0
       282    939.6894    573.0539 307.5324008  +6.4561258     956.9598     1450.373     1568.713     81.81161     163.0397     326.5013      1.791     5.59     923.2653     57.52829     142.1201        12     1.308     0.672 -34.20   0
       283    381.3850    570.5193 307.7644530  +6.4384545     833.1058     1320.516     1169.723     81.42235     162.9747     326.2092      1.614     5.90     936.3342     57.52829     111.3423        10     1.389     0.706 -23.51   0
       284    235.0555    570.0641 307.8252631  +6.4337193      1069.24     2112.703     2799.686     81.94096     163.1695     326.3715      2.109     7.22     940.2075     57.52829     145.5039        18     1.464     0.998 -35.02   0
       285    874.6579    561.9230 307.5597969  +6.4585458     2611.612     4136.593      4117.85     81.94096     163.2344     326.3066      1.663     4.64     925.3661     57.52829     330.6719        21     1.443     0.842 -35.58   0
       286    833.3133    559.3820 307.5770612  +6.4582113     2316.969     3830.193     4092.087     81.55231     162.9747     326.2417      1.772     4.91     926.2689     57.52829     287.1259        21     1.573     0.858 -33.95   0
       287    804.3145    555.2322 307.5892503  +6.4589536     2339.307     4344.146     4885.221     81.81161     163.0397     326.3066      1.985     5.38     926.6228     57.52829     302.0992        24     1.648     0.937 -37.02   1
       288    261.4149    554.3170 307.8148466  +6.4411067     6396.678     11465.87     11669.05     81.42235     162.9097     326.2417      1.896     4.75     938.5312     57.52829     777.6392        38     1.804     1.079 -39.69   0
       289    814.0276    550.5886 307.5853714  +6.4611956     139977.5     235682.7     248339.2     81.42234     163.0397     326.2417      1.797     4.85     926.2289     57.52829     17490.17       116     1.803     1.241 -39.25   0
       290    195.6569    548.8424 307.8423528  +6.4411523     49194.26     88188.66     94046.61     81.68207     163.1695     326.3715      1.903     4.65     940.0017     57.52829     5771.281        77     1.833     1.273 -41.25   0
       291    119.6528    545.0539 307.8740583  +6.4401552     5213.874     9468.219     10096.56     82.07011     163.1695     326.3391      1.940     4.62       942.23     57.52829     596.9636        41     1.754     1.204 -33.59   0
       292    984.9186    542.2972 307.5146454  +6.4703338     1301.462     2061.581     2079.059     81.68207     163.5585     326.4364      1.726     4.97     920.3312     57.52829     169.7944        14     1.301     0.751 -29.20   0
       293    234.2946    540.7228 307.8265760  +6.4458051     624.9172     878.7363       262.87     81.55231     163.4289     326.4364      1.544     3.49     938.5011     57.52829     110.8722         5     0.981     0.730 -14.16   0
       294   1006.1458    540.6116 307.5058822  +6.4717389       469.52     832.4889     635.9816     81.16179     163.1695     326.0468      1.454     3.45     919.5637     57.52829     96.44525         5     0.818     0.420 -20.59   0
       295    850.5751    537.8599 307.5706158  +6.4676732     3997.108     6320.962     6584.363     81.42234     163.2344     326.2417      1.746     5.07     924.9803     57.52829     493.8652        25     1.561     0.866 -37.64   0
       296    369.0490    536.0141 307.7707489  +6.4522829     14121.79     25536.14     27078.53     81.16179     163.1695     326.0793      1.907     4.54     935.3917     57.52829     1656.804        51     1.766     1.214 -39.28   0
       297    460.3689    535.9500 307.7328093  +6.4553785     624.2529       856.66     479.3511     81.55231     163.2993     326.3066      1.412     3.42     933.1104     57.52829     99.75989         5     0.780     0.433 -70.83   0
       298    171.1891    534.7471 307.8529974  +6.4461463     1672.479     3124.428      3256.72     81.16179     163.1695     326.1118      2.096     5.18     940.3221     57.52829     206.3166        23     1.649     0.933 -38.97   0
       299    804.4918    531.2106 307.5899882  +6.4688755      5235.21     8502.587     9212.338     81.55231     162.8447     326.1768      1.778     4.79     925.4671     57.52829     647.5873        31     1.640     0.986 -40.11   0
       300    535.3228    530.8412 307.7018400  +6.4600044     5552.248     9865.479     10263.25     81.68207     163.2344     326.4364      1.897     5.04     930.7168     57.52829     625.2382        39     1.753     1.099 -34.38   0
       301    245.9117    532.1968 307.8220391  +6.4497156     705.8137     964.7139     826.5157     81.29217     162.9097     326.0468      1.546     4.74     937.9074     57.52829     95.12329         7     1.162     0.547 -25.51   0
       302    108.3086    531.6909 307.8792259  +6.4452886     798.4006     1287.119     1327.891     81.81161     163.7526     326.4688      1.928     5.92     942.1909     57.52829     127.4375        10     1.364     0.722 -25.40   0
       303    393.5233    527.5576 307.7608672  +6.4565964     1206.155     1966.453     2168.835     81.68207     163.2344      326.404      1.831     5.83     934.0457     57.52829     165.9878        16     1.589     0.727 -31.25   0
       304    182.4370    524.0477 307.8486879  +6.4509417     5698.149     10226.94     11117.67     81.68206     163.2344     326.2741      1.940     4.80     939.6415     57.52829     662.5962        39     1.755     1.137 -41.17   0
       305    579.9194    524.0521 307.6835403  +6.4643036     2103.813     3665.057     4012.775     81.81161     163.2344     326.3715      1.827     5.75     929.7693     57.52829     279.5242        26     1.852     0.941 -31.02   0
       306    277.6515    520.5145 307.8092488  +6.4556061     73148.55     130035.3       139072     81.81161     163.1695     326.4688      1.917     4.67     936.3363     57.52829     8538.663        92     1.860     1.321 -41.50   0
       307     54.0099    522.7197 307.9020902  +6.4471607     4117.811       7462.8     7942.176     81.42234     162.9097     326.2092      1.899     4.52     943.6489     57.52829      483.359        35     1.654     1.123 -35.75   0
       308    821.2366    523.5162 307.5832906  +6.4726122     1328.529      2142.61     2534.906     81.81161     163.2344     326.3066      1.858     5.38     924.8646     57.52829     184.4113        15     1.524     0.720 -32.88   0
       309    566.2300    518.3452 307.6894214  +6.4662000     818.0236     1195.917     1864.347     81.68207     163.2993     326.3066      1.437     3.40     929.7747     57.52829     126.2023         5     0.764     0.438  17.16   0
       310    261.5537    515.4587 307.8161088  +6.4571512     1207.687     2211.783      2492.77     81.81161     163.2344     326.5013      2.068     6.25      936.653     57.52829     153.1282        17     1.444     0.897 -38.32   0
       311    977.0550    514.5272 307.5188494  +6.4815344     1369.887     2268.758     2136.223     81.68207     163.1046     326.3066      1.745     5.74     919.7786     57.52829     192.2437        14     1.386     0.721 -37.11   0
       312    800.7462    512.9628 307.5921611  +6.4762826     14322.16      23860.6     25216.05     81.68207     163.2344      326.404      1.768     4.86     924.7195     57.52829     1765.785        43     1.679     1.049 -38.41   0
       313    504.4016    511.3474 307.7153480  +6.4670130     34277.28     64655.36     70384.92      81.1618     162.9097     325.9494      2.008     4.60     930.7163     57.52829     3845.286        79     1.908     1.398 -31.96   0
       314    654.7697    509.6744 307.6529266  +6.4727492     880.5479     1616.338     2004.707     81.68207     163.2344      326.404      2.577     6.68     927.4533     57.52829      106.668        15     1.756     0.712 -42.81   0
       315    216.6689    507.8447 307.8350162  +6.4587829     1691.833     3221.873     3227.418     81.81161     163.1695      326.404      1.906     6.03     938.2452     57.52829     262.9612        21     1.678     0.855 -44.02   0
       316     52.3544    507.8850 307.9032829  +6.4532281      1125.96     1703.858     1630.392     81.81161     163.1695     326.3715      1.640     4.63     943.2271     57.52829     154.0464        13     1.063     0.907 -51.64   0
       317    664.2742    506.3117 307.6490912  +6.4744559     2598.722     4545.843     4533.879     81.81161     163.5585     326.4364      1.816     4.99     927.0026     57.52829     288.1614        24     1.606     0.937 -40.75   0
       318    674.6888    506.1755 307.6447685  +6.4748613     1327.925     1987.206     1815.987     81.94096     163.0397     326.2417      1.686     5.31     926.6823     57.52829     162.0783        17     1.402     0.836 -38.92   0
       319    726.5457    505.4678 307.6232454  +6.4768913     1090.422     1990.023     2510.421     81.81161     163.1695     326.2741      1.884     5.21     926.3634     57.52829     155.6314        14     1.401     0.684 -24.12   0
       320    402.0495    502.0341 307.7581904  +6.4674187     1444.854      2446.48     2397.375     81.68207     163.2344     326.3066      1.766     5.65     932.8667     57.52829     171.6921        20     1.637     0.839 -40.66   0
       321     82.4489    503.5869 307.8909259  +6.4560173     653.5899     1479.663     1021.015      81.1618     163.1695     326.0793      2.244     4.95     942.1551     57.52829     87.90625         8     1.019     0.680  -4.31   0
       322    148.7302    498.8492 307.8635489  +6.4602072     21599.79     38639.46     41276.81     81.81161     163.1695      326.404      1.926     4.63     939.8073     57.52829     2493.678        61     1.808     1.230 -42.43   0
       323    333.4614    500.3484 307.7867453  +6.4658081     3298.676     5554.918     5577.391     81.81161     163.1695     326.3715      1.839     4.67     933.9114     57.52829     404.5629        27     1.582     0.987 -37.72   0
       324    513.5786    499.6246 307.7119322  +6.4721602     1765.788     2890.642     2509.281     81.42235     163.0397     326.3715      1.746     4.55     929.9849     57.52829     250.2198        20     1.483     0.894 -36.10   0
       325    876.5666    499.1577 307.5611228  +6.4845188     1227.949     1995.823     2001.719     81.55231     163.2344     326.1768      1.802     5.78     922.5706     57.52829     182.5723        13     1.412     0.667 -37.02   0
       326    113.8032    497.1518 307.8781180  +6.4597306     2248.303     3989.635     4093.147     81.16179     162.9747     325.9494      1.788     4.73     940.9056     57.52829     256.3468        25     1.617     0.987 -41.56   0
       327    349.6646    495.8954 307.7801643  +6.4681912     723.8268     1079.456     1237.024     81.68207     163.3641      326.404      1.462     4.20     933.3871     57.52829      125.993         8     1.231     0.532 -75.98   2
       328    352.3797    494.8429 307.7790719  +6.4687170     532.8039     607.5352      1095.51     81.29218     163.1046     326.2092      1.156     3.44     933.2892     57.52829     83.78656         5     0.771     0.445 -72.02   3
       329    974.2792    493.4571 307.5207135  +6.4901393     4822.378     7903.014     8236.233     81.81161     163.2344     326.3391      1.770     5.19     919.1919     57.52829      611.278        30     1.660     0.975 -37.81   0
       330    547.5778    485.8012 307.6982737  +6.4790077     1230.036     2142.314     1972.629     81.42235     162.9097     326.0793      1.835     6.25     929.1674     57.52829     156.7651        15     1.423     0.771 -34.70   0
       331     13.0272    483.1557 307.9204640  +6.4621087     21293.17      37972.3     40628.99     81.42234     163.2993     326.2741      1.895     4.52      943.603     57.52829     2530.131        63     1.779     1.250 -40.29   0
       332    445.7440    480.0428 307.7407813  +6.4779648     35087.27     63001.74     67113.89     81.68207     163.1695      326.404      1.905     4.65      930.679     57.52829       4125.6        65     1.805     1.247 -38.54   0
       333    653.7346    479.7586 307.6543690  +6.4850634     10460.06     18072.21     19433.51     81.81161     163.1695     326.4688      1.870     4.82     926.4196     57.52829     1265.003        40     1.708     1.069 -40.94   0
       334    293.4474    480.2001 307.8040549  +6.4727786     626.1318     1058.061     1511.419      81.0312     162.8447     325.8844      2.034     5.59     933.2356     57.52829     111.2458         8     1.778     0.496 -27.86   0
       335    210.8804    477.6003 307.8384490  +6.4710721     15343.01     29564.27     31601.61      81.0312     162.5843     326.0793      2.019     4.54     937.6086     57.52829     1735.705        60     1.803     1.388 -33.77   0
       336    176.4128    479.0160 307.8527217  +6.4693267     1245.366     2119.325     1342.681     81.55231     162.9097     326.3066      1.729     4.73     938.4348     57.52829     172.8917        16     1.444     0.819 -51.03   0
       337      1.3909    476.7431 307.9255169  +6.4643629     1009.193     1998.099     3131.993     71.44633     130.4967     246.3393      2.396     5.18     943.7927     57.52829     212.5372        12     1.745     0.591  89.36  24
       338    987.6775    477.8251 307.5156734  +6.4970399     1009.129     1679.614     2189.359     81.42234     163.1695     326.3391      2.062     4.98     918.2551     57.52829     166.7622        10     1.310     0.535 -27.81   0
       339    916.2036    477.2951 307.5453907  +6.4948693     648.8544     993.6135     689.0136     81.55231     162.9097     326.1118      1.834     5.24     920.4489     57.52829     94.35229         8     1.582     0.491 -33.82   0
       340    826.7629    478.0208 307.5825311  +6.4915774     714.2354     1197.851     1158.728     81.42234     162.9747     326.1118      1.784     3.18     922.7296     57.52829     121.4587         7     0.851     0.599 -61.10   2
       341    575.5331    476.3044 307.6869796  +6.4838661     2354.414     4211.866     3501.477     81.81161     163.4289      326.404      1.858     4.88     928.3139     57.52829     300.0258        26     1.593     1.043 -41.56   0
       342    949.4139    473.5732 307.5317164  +6.4975161     4345.689     6887.066     7010.124     81.55231     163.0397     326.3066      1.753     5.06     919.3105     57.52829     541.3521        27     1.596     0.899 -36.05   0
       343    622.5285    472.0279 307.6675972  +6.4872080     5493.545     9640.687      9897.74     81.55231     163.1695     326.3066      1.855     4.79     927.0953     57.52829     623.3756        34     1.609     1.102 -34.73   0
       344    110.7362    472.5183 307.8802302  +6.4697952     1035.155     1261.777      1212.77     81.94096     163.2993     326.3715      1.560     5.94     940.3298     57.52829      137.832        14     1.300     0.763 -35.58   0
       345    972.0474    465.9419 307.5225690  +6.5014229     3156.558     4964.705     5078.744     81.81161     163.2344     326.5013      1.631     4.61     918.2297     57.52829     422.3965        21     1.487     0.842 -32.62   0
       346    534.7715    463.3266 307.7043561  +6.4878550     6250.125     11245.86     12081.61     81.68207     163.2344     326.3391      1.924     4.62     928.0031     57.52829      751.985        40     1.729     1.136 -40.37   0
       347    410.6643    464.9428 307.7558691  +6.4830188     604.8624     927.8304     1374.473     81.94096     163.1695      326.404      1.606     4.29     931.1971     57.52829     92.50226         5     1.093     0.481 -25.43   0
       348    380.8769    463.4894 307.7682952  +6.4826174     2152.646     3865.135     3938.956     81.81161     163.4937     326.4364      1.855     4.74     931.3175     57.52829     287.3932        22     1.511     0.945 -37.17   0
       349    750.4499    463.4949 307.6147319  +6.4950182      656.035     775.1497     705.1052     81.68207     163.1046     326.5337      1.538     4.39     924.2695     57.52829      109.495         5     1.102     0.601 -31.14   0
       350    103.1325    462.0125 307.8837468  +6.4738754     584.8717     1154.627     1534.413     81.29218     163.0397     326.2741      2.288     4.48      940.334     57.52829     76.40411         6     1.272     0.448 -35.42   0
       351    891.2508    459.2336 307.5563690  +6.5014904      2799.69     4686.003     5968.668     81.68207     163.2993     326.2741      1.864     4.64      920.667     57.52829      360.489        25     1.632     0.867 -38.71   0
       352    238.4949    458.8472 307.8276126  +6.4797428     584.4281     749.1984     691.5428     81.68207     163.1695     326.5013      1.156     3.47     935.3286     57.52829     92.04034         5     0.991     0.350   5.07   0
       353    898.6278    453.6267 307.5534929  +6.5040517     1887.574     3240.873     3714.986     81.29218     163.0397     326.2092      1.904     4.92     920.2614     57.52829     241.6314        21     1.516     0.969 -44.37   0
       354    937.8289    452.8709 307.5372290  +6.5056746     1212.917     1906.117     1940.907     81.55231     163.2344     326.3391      1.656     6.04     918.9544     57.52829     165.0076        16     1.408     1.066 -25.10   0
       355    117.6224    452.9232 307.8780356  +6.4781157     617.1592     985.6222     919.0826     81.42234     163.1046     326.2741      1.699     4.64     939.6843     57.52829     89.93622         6     0.822     0.743  82.90   0
       356    722.5198    449.4741 307.6268117  +6.4998701     2575.395     4319.124     4759.632     82.07011     163.4937     326.4364      1.849     4.68     924.2291     57.52829     331.2862        21     1.542     0.833 -38.73   0
       357    393.4455    447.7537 307.7636068  +6.4895353     3097.578     5479.432     5631.554     81.81161     163.1695      326.404      1.895     4.72     930.4281     57.52829     336.1224        33     1.679     1.151 -36.13   0
       358     84.3256    448.6199 307.8920165  +6.4787693     1529.114     2757.248     2933.811     81.42235     163.1695     326.3066      1.959     6.17     940.5857     57.52829     183.7513        18     1.558     0.824 -37.93   0
       359    433.6448    447.7838 307.7469025  +6.4908741     649.0775     1190.658     1541.192     81.29218     163.1046     326.1443      1.908     7.03     929.4995     57.52829     108.2975        10     1.449     0.955 -25.76   0
       360    621.1821    444.3159 307.6690947  +6.4986020       8416.2     14782.07     15901.23     81.42234     162.9097     326.3066      1.888     4.58     925.4712     57.52829     968.8853        44     1.768     1.121 -40.36   0
       361    784.1836    440.5799 307.6014891  +6.5056071      14281.8     24657.25     28143.39     81.55231     163.0397     326.2741      1.935     5.36     922.2704     57.52829      1808.44        60     2.288     1.087 -44.79   0
       362    303.6516    441.2581 307.8011373  +6.4891964     2220.594     3903.026     4500.647     81.81161     163.2344     326.3715      1.917     4.38     931.4761     57.52829     257.9294        25     1.499     1.031 -49.99   0
       363    969.0720    435.9744 307.5248163  +6.5136938     1909.873     3177.516      2832.35     81.42234     163.1046     326.2741      1.707     5.68     917.0607     57.52829     277.5076        19     1.725     0.819 -46.51   0
       364    812.8943    437.9987 307.5896460  +6.5076339     1125.658      1867.54     1850.363     81.29218     162.8447     326.0144      1.650     5.95     921.4344     57.52829     145.4437        18     1.506     0.858 -45.64   0
       365    386.5610    437.7782 307.7668058  +6.4934216     1382.583     2383.112     2358.676     81.42235     163.0397     326.1443      1.774     4.52      929.979     57.52829     202.1392        17     1.340     0.917 -37.54   0
       366    716.5970    435.4428 307.6297472  +6.5054636     483.2242     771.8375     1059.509      81.1618     162.7796     326.0468      1.581     4.07     923.7115     57.52829     94.67932         5     1.195     0.396 -55.14   0
       367    121.2944    432.7751 307.8771953  +6.4865560     3647.431     6656.715     7681.595     81.94096     162.9747     326.2417      1.985     4.80     939.1918     57.52829     429.3347        32     1.628     1.153 -36.20   0
       368    375.6637    433.3614 307.7714836  +6.4948783     625.4763     945.6951     1157.494     81.81161     163.1695     326.4364      1.629     5.57     929.8823     57.52829     108.2122         7     1.271     0.687 -26.27   0
       369   1022.6034    430.6942 307.5027496  +6.5176622     3644.581     5518.314     5825.759     81.29218     144.8799      262.813      1.704     4.38     914.4721     57.52829     411.3005        25     1.327     1.166 -81.26  24
       370    759.4854    431.9543 307.6120436  +6.5083405     1893.997     3152.829     3883.177     81.81161     163.1695     326.3715      1.806     5.09     922.7643     57.52829     252.4988        21     1.619     0.868 -35.63   0
       371    279.3366    429.8900 307.8116265  +6.4930706     1395.725     2444.498     2349.284     81.81161     163.3641     326.4364      1.886     6.28     931.7645     57.52829     178.8064        19     1.715     0.914 -21.62   0
       372    357.4411    427.3401 307.7792597  +6.4967510     2659.551     4721.216     5423.917     81.81161     163.2344     326.4364      1.971     5.06     929.8926     57.52829     298.7579        29     1.749     1.028 -39.72   0
       373    713.1136    425.2946 307.6315379  +6.5095360     1356.728     2452.353     2329.849     81.81161     163.6232     326.4364      1.806     5.59     923.3373     57.52829     212.9427        19     1.612     0.842 -39.84   0
       374    554.4139    418.2511 307.6977213  +6.5071208     825.9999     1404.931      1788.76     81.16179     163.2344     326.1118      2.073     5.34     924.9554     57.52829     114.0818         9     1.071     0.752 -38.49   0
       375    476.7287    416.4548 307.7300625  +6.5052537     1097.113     1798.107     1202.089     81.68207     163.1695     326.3391      1.758     5.94     926.4153     57.52829     155.0153        12     1.218     0.828 -26.58   0
       376    839.4249    415.1013 307.5793950  +6.5179739     1468.694     2228.852      2087.46     81.94096     162.9747     326.2092      1.701     5.75     920.3353     57.52829     209.4058        12     1.220     0.764 -32.42   0
       377    825.0140    414.3822 307.5854077  +6.5177883     1656.265     2827.837     2988.597     81.55231     162.9097     326.2741      1.831     5.41     920.4507     57.52829     221.5446        17     1.464     0.782 -31.62   0
       378    722.4533    412.5441 307.6280882  +6.5151122      13223.1     22115.85     23092.23     81.94096     163.2344     326.3391      1.823     4.79     922.8145     57.52829     1510.155        44     1.715     1.097 -37.94   0
       379    643.5279    408.5255 307.6610207  +6.5141253     2447.724     3888.229     4747.385     82.07011     163.3641      326.404      1.838     4.84     923.1165     57.52829      273.847        22     1.511     0.940 -30.78   0
       380    618.4807    405.6844 307.6715250  +6.5144580     4743.376     8365.296     9565.193     81.55231     163.5585     326.4364      1.873     4.94     923.1598     57.52829     543.3256        31     1.725     0.994 -38.47   3
       381    614.9663    402.9808 307.6730768  +6.5154561     12083.16     21951.37     23535.99     81.29218     163.0397     326.1768      1.930     4.77     922.9833     57.52829     1402.441        44     1.753     1.168 -34.86   3
       382    716.7760    407.1910 307.6306284  +6.5171316     563.9222     764.9758     722.9651     81.42234     163.0397     326.2417      1.336     5.24     922.5707     57.52829     85.52301         6     1.349     0.575 -15.69   0
       383    947.5365    402.5932 307.5348916  +6.5267535     3520.404     5658.065     5575.439      81.1618     162.9097     326.1443      1.736     5.10     916.5466     57.52829     430.7936        24     1.546     0.876 -34.64   0
       384    386.8364    398.4200 307.7680268  +6.5096771      23514.7     42669.21      44889.8     81.29218     163.0397     326.1443      1.922     4.59     927.5753     57.52829      2699.89        59     1.798     1.231 -39.21   0
       385    132.9176    397.8212 307.8735549  +6.5013758     1873.054      3386.08     3456.372     81.55231     162.9097     326.2741      1.828     5.97     938.1469     57.52829     220.4178        24     1.735     0.960 -39.33   0
       386    903.4338    398.0064 307.5533734  +6.5271721     1341.463     2294.312     2463.523     81.16179     163.0397     326.1443      1.794     5.42      918.068     57.52829     172.4109        14     1.358     0.721 -47.85   0
       387    916.4604    392.9598 307.5481306  +6.5296910     4530.715     7404.702     6243.631     81.81161     163.2344     326.4364      1.551     5.27     917.3812     57.52829       537.08        30     1.613     0.984 -39.90   0
       388    899.4028    393.8459 307.5551890  +6.5287547     679.3484     1095.289     1141.451     81.16179     162.9097     326.0144      1.998     5.24     918.0125     57.52829     92.09259         6     1.126     0.690   3.22   0
       389     66.7284    393.2581 307.9012122  +6.5010274     1349.922     2329.641     2621.575     81.94096     163.2344     326.3715      1.901     6.10     939.8879     57.52829     170.8257        15     1.387     0.755 -28.54   0
       390    244.3235    388.9268 307.8275665  +6.5088005     11403.18     20735.87     22430.99     82.07011     163.4937      326.404      1.946     4.68      931.705     57.52829      1304.32        51     1.794     1.234 -42.02   0
       391    739.9588    382.5262 307.6218289  +6.5280898     574.1786     957.6202     1160.397     81.68206     163.2993      326.404      1.764     6.06     921.3329     57.52829     102.0515         7     1.305     0.792 -16.32   0
       392     80.4733    382.9260 307.8958527  +6.5057558     660.8245     878.2811     1280.328     82.07011     163.4937     326.4364      1.874     3.83     939.3898     57.52829     100.8789         5     1.341     0.314 -38.60   0
       393    967.6522    381.2665 307.5272519  +6.5362295     867.6925     1345.737     1211.423     81.81161     163.1695     326.3066      1.627     3.95     914.4822     57.52829      146.877        11     1.109     0.717 -37.02   0
       394    707.5646    381.8539 307.6353131  +6.5272818      637.065     855.2982     1045.637     81.68207     163.2344      326.404      1.552     5.18     921.5336     57.52829     89.17639         6     1.102     0.688  -0.94   0
       395    357.2404    378.9128 307.7809867  +6.5167340     1178.388     2083.002     2035.188     81.81161     163.1695      326.404      1.860     6.82     927.0739     57.52829     142.8971        17     1.570     0.831 -36.91   0
       396    144.5777    377.6602 307.8693957  +6.5100907     4199.256     7644.271     7991.369     81.42235     163.1695     326.3066      1.896     4.74     937.2706     57.52829     482.1514        35     1.690     1.133 -43.43   0
       397    249.7921    376.6003 307.8257130  +6.5140727     1150.585     2214.165     2125.131     81.16179     162.9097     326.1768      1.951     7.44     931.1505     57.52829     168.0095        18     1.783     0.870 -43.91   0
       398    166.7817    373.2790 307.8603185  +6.5126475     2026.111     4044.247      4220.76     81.42234     162.9097     326.3066      2.081     5.50     936.1212     57.52829      234.886        28     1.705     1.099 -45.85   0
       399    830.7089    373.7395 307.5844143  +6.5347559     698.9799     1185.674      728.981     81.68207     163.2993     326.4364      1.601     4.60     919.3415     57.52829     101.3453         8     1.015     0.592 -21.08   0
       400    562.1567    373.1201 307.6960326  +6.5260101     843.3135     1601.283      1943.46     81.81161     163.2344     326.3391      2.169     5.90     921.7165     57.52829      106.588        12     1.521     0.644 -34.61   0
       401    390.1246    368.2874 307.7676829  +6.5222258      1776.97     3215.592     3675.465     81.81161     163.5585     326.4688      1.988     6.07     925.4035     57.52829     209.6297        22     1.558     0.962 -43.90   0
       402    978.6010    367.8464 307.5231548  +6.5421352     810.8235     1696.463     1556.386     81.16179     162.9097     325.9169      2.249     5.72     913.3111     57.52829     122.9509         9     1.427     0.646 -47.23   0
       403    278.2247    369.2016 307.8141499  +6.5180839     577.9317     1045.902     518.4308     81.42234     162.9097     326.1443      1.617     3.37     930.1414     57.52829     87.90033         5     0.943     0.350 -45.68   0
       404      8.2394    368.4023 307.9263610  +6.5093136     750.6541      1142.55     1250.407      80.9004     162.9747     325.5918      1.798     4.98     940.8935     57.52829     103.7516         7     1.016     0.690 -41.09   0
       405    443.9558    361.8589 307.7455319  +6.5266888     5942.732     10760.73     11265.05     81.68207     163.1695     326.4688      1.928     4.76     923.6493     57.52829      717.718        38     1.753     1.114 -40.17   0
       406     40.3225    362.3445 307.9132364  +6.5128967     2816.855     4998.341     5525.356     81.81161     163.2344     326.3715      1.990     5.21     940.0079     57.52829     296.9048        29     1.726     1.034 -48.20   0
       407    614.8148    363.1378 307.6744887  +6.5318977     455.2089     825.2477     1168.664     81.29217     163.1695     326.1768      2.176     4.41     920.3165     57.52829     74.42883         5     0.771     0.717  73.30   0
       408    776.6371    360.8145 307.6073211  +6.5382808     1699.105     2735.345     3238.882     81.42234     163.0397     326.1443      1.765     5.01     920.2019     57.52829     196.1168        19     1.519     0.770 -36.49   1
       409    784.6050    359.1437 307.6040664  +6.5392374     11107.14     19128.87      19722.9     81.16179     163.1046     326.0793      1.821     4.78     920.1276     57.52829     1356.711        41     1.690     1.073 -38.67   0
       410    348.2001    357.6235 307.7854659  +6.5252177     852.6472     1342.849     1639.239     81.29218     162.9097     326.1768      1.747     5.59     926.1833     57.52829     124.9125        10     1.246     0.708 -22.91   0
       411    959.5690    350.9997 307.5316323  +6.5484532     594.9764     924.2908     1057.711     81.16179     163.0397     326.1768      1.720     5.27     913.3548     57.52829     119.3273         7     1.087     0.720  -2.39   0
       412    193.4772    349.9727 307.8500184  +6.5231672     602.8371     1152.009     1267.203     81.68206     163.1695     326.3391      1.759     4.24      933.454     57.52829     94.01575         5     1.144     0.448 -27.81   0
       413      1.5476    347.3746 307.9298577  +6.5177672     506.0919     1058.296     1652.222       73.348      132.909     249.1606      2.726     4.92      940.684     57.52829     95.02209         7     1.432     0.478 -84.12  24
       414    492.1621    345.4792 307.7260554  +6.5350696     2611.619     4476.735     4719.478     81.68207     163.2993     326.3715      1.835     4.54     921.5751     57.52829     299.6671        25     1.539     0.994 -40.26   0
       415    464.3619    346.1068 307.7375865  +6.5338766     1725.339     3282.002     3487.787     81.94096     163.1695     326.4364      2.010     5.60     922.2797     57.52829     221.8533        22     1.527     0.950 -38.68   0
       416    849.9221    342.0745 307.5774996  +6.5484700     28727.78     50308.57     53308.34     82.07011     163.4937      326.404      1.883     4.77     917.5001     57.52829     3266.598        64     1.798     1.206 -45.77   0
       417    621.7682    334.4307 307.6725711  +6.5439808     2287.712     4196.022     4329.241     81.29218     162.9747     326.1118      1.880     5.24     918.9163     57.52829     262.6006        25     1.585     1.005 -28.84   0
       418     29.9666    334.7039 307.9184807  +6.5239564     1018.561     1700.088     2312.262     81.94096     163.1046     326.5013      2.076     6.10     939.8809     57.52829     116.6574        12     1.192     0.877 -38.69   0
       419    706.4201    328.0684 307.6376081  +6.5494455     68632.66     118030.6     124871.5     81.42234     163.1695     326.2741      1.841     4.56     919.1877     57.52829      7833.25        86     1.802     1.248 -40.89   0
       420    864.7050    329.6025 307.5717776  +6.5541131     952.8455     1512.436     1520.717     81.42235     162.9097     326.0144      1.699     5.62     916.4087     57.52829     144.7842        11     1.551     0.574 -42.99   0
       421     85.6701    327.5656 307.8955775  +6.5287821     1133.772      2024.97     2566.726     81.68207     163.2344     326.4688      2.183     5.32     938.1028     57.52829     155.9395        16     1.332     0.920 -42.09   0
       422    568.7829    324.8145 307.6949154  +6.5461723     2142.534     4143.915     4350.342     81.55231     162.9097     326.3066      2.032     5.23     918.7054     57.52829     233.7834        29     1.643     1.137 -40.75   0
       423    106.2005    323.5502 307.8871831  +6.5311319      4877.44     9055.003     9450.953      81.0312     162.8447     325.9169      1.925     4.75     937.3307     57.52829     601.1185        36     1.684     1.145 -36.38   0
       424    947.5541    325.0141 307.5375023  +6.5587782     709.4713     830.0327     730.9401     81.16179     163.0397     326.1443      1.352     4.47     912.8737     57.52829     108.8591         8     1.163     0.512 -28.43   0
       425    552.1634    321.0015 307.7019510  +6.5471884       5924.5     10705.83     11257.02      80.9004     163.0397     326.1443      1.905     4.64     918.6312     57.52829     720.7549        35     1.734     1.064 -38.90   0
       426    281.0563    318.6479 307.8146905  +6.5390465     2133.009     3958.528     3990.314     81.81161     163.2344     326.4688      1.904     5.37     927.8759     57.52829     268.7247        25     1.668     0.946 -46.17   0
       427    415.0431    316.1204 307.7590980  +6.5445970     20905.92     38617.82     41526.85     81.81161     163.2344     326.3391      1.976     4.76     922.2453     57.52829     2373.582        62     1.820     1.292 -37.85   0
       428    522.7984    314.8766 307.7143615  +6.5487307     1165.549     1941.318     1956.733     81.16179     162.6495     326.2092      1.725     4.41     918.8377     57.52829     161.1351        15     1.307     0.806 -49.32   0
       429    394.6886    314.3493 307.7676165  +6.5446438     993.0103     1907.548      3234.77     81.81161     163.0397     326.5013      1.943     4.94     922.8567     57.52829     125.7095        13     1.189     0.907 -24.99   0
       430    494.1302    311.3472 307.7263946  +6.5492248     1098.613      1896.99     2011.213     81.68207     163.1046     326.3066      1.771     4.88     919.2409     57.52829     159.5184        14     1.241     0.808 -34.48   0
       431    810.0128    308.9211 307.5952051  +6.5608195     665.0907     1208.717     670.9924     81.42234     162.9097     326.1443      1.559     5.94     917.1185     57.52829     95.89777         8     1.692     0.587 -27.57   0
       432    504.1078    306.5278 307.7224116  +6.5515493     7402.367     13246.43     14008.21     81.68206     163.3641      326.404      1.899     4.71      918.752     57.52829     834.6719        42     1.737     1.165 -40.84   0
       433    593.7842    314.6297 307.6848707  +6.5512155     452.2887     956.5558     1422.153     81.42235     162.9747     326.3066      2.084     4.43     917.9969     57.52829     69.39679         5     1.166     0.478  -3.57   0
       434    773.2091    305.3401 307.6106210  +6.5610652     2799.624     4888.198     5137.543     81.16179     163.1046     326.0793      1.851     4.92     917.5587     57.52829     330.9149        23     1.615     0.900 -39.81   0
       435    647.2203    307.4430 307.6629077  +6.5559746     430.0981     766.1581     314.6612     81.29218     163.1046     326.2092      1.452     3.43     918.0177     57.52829     83.18292         5     0.750     0.454  19.72   0
       436    929.0850    304.8681 307.5458577  +6.5664768     945.6924      1539.94     1198.885     82.07011     163.4937      326.404      1.691     5.42     913.0073     57.52829     120.4576        12     1.283     0.848 -18.39   0
       437    721.5891    304.9082 307.6320877  +6.5595141     700.2836     916.3253     469.8912     81.55231     162.9097     326.1768      1.653     5.77     918.1244     57.52829     98.90399         7     1.227     0.764 -19.48   0
       438    330.6646    303.6245 307.7945860  +6.5469173     843.0896     1261.577     718.1047     81.42235     163.2344     326.3066      1.480     4.61     924.8301     57.52829     127.6791         8     1.022     0.591 -17.89   0
       439    166.0475    297.1701 307.8632119  +6.5440383     1062.468     1925.453     1781.065     81.42234     163.2993     326.2741      1.846     6.62     934.6424     57.52829     129.5663        14     1.244     0.989 -42.81   0
       440    394.0116    290.7770 307.7686977  +6.5543511     5978.371      11171.6     11705.68     81.42234     163.0397     326.2741      1.963     4.81     922.1076     57.52829     754.3123        39     1.731     1.146 -38.19   0
       441    761.8933    286.6331 307.6159561  +6.5684082     46671.36      79860.5     83989.67     81.94096     163.1046     326.4364      1.832     4.84     916.8672     57.52829     5485.777        74     1.760     1.237 -39.59   0
       442    249.8791    291.1358 307.8285809  +6.5493531      1757.88     3050.571     3446.453     82.07011     163.2993     326.3391      1.846     4.93     928.9308     57.52829     202.0833        20     1.415     0.933 -33.02   0
       443    747.8372    289.9784 307.6216845  +6.5665564     952.1091     1653.648     2020.956     81.42234     162.9747     326.1443      1.935     6.06     917.2765     57.52829     151.4657        13     1.371     0.779 -44.82   0
       444    433.5405    285.9227 307.7524357  +6.5576837     2000.116     3693.453     3710.897     81.94096     163.2993     326.3391      1.870     4.75     920.2378     57.52829     234.1411        25     1.489     1.088 -34.20   0
       445    579.4598    283.5725 307.6918754  +6.5635547     1039.362     1913.976     2202.651     81.42235     163.2993     326.2741      1.898     7.30     916.5233     57.52829     145.9204        17     1.720     0.867 -50.82   0
       446    996.6806    283.5666 307.5184844  +6.5775296     1600.116     2736.957     2750.716     81.68207     163.1695     326.3715      1.768     4.58     908.8672     57.52829     227.5215        18     1.502     0.868 -28.41   0
       447    937.6440    282.6919 307.5430492  +6.5759171     2184.134     3527.835     3842.846     81.81161     163.1695     326.5013      1.735     4.62     911.6288     57.52829      286.953        20     1.479     0.845 -38.65   0
       448    470.7444    282.3887 307.7370947  +6.5603927     995.6733     2114.807     2700.539     81.16179     163.1695     326.0468      2.305     6.90     918.1627     57.52829     121.0449        16     1.447     0.985 -18.66   0
       449    419.8744    281.6397 307.7582601  +6.5589923     1734.356     3389.726     3481.031     81.68207     163.2344      326.404      2.052     5.18     920.7426     57.52829     208.1701        25     1.526     1.153 -32.12   0
       450    300.0012    280.9330 307.8080990  +6.5552520     643.1647     1221.973     987.8174     81.16179     162.7796     326.1443      1.857     5.54      925.171     57.52829     93.68439         8     1.269     0.682 -20.24   0
       451    841.4650    276.0059 307.5832462  +6.5754595     953.9152     1601.119     1913.783     81.29217     162.9747     326.1443      1.733     6.14     914.6954     57.52829     148.4581        13     1.421     0.807 -39.48   0
       452    450.8223    273.1829 307.7456860  +6.5635233     884.1749     1791.957     2313.087     81.55231     163.1046     326.3066      2.485     6.79     918.7129     57.52829     110.4244        16     1.648     0.784 -49.09   0
       453    196.7005    272.9210 307.8512986  +6.5550805     1854.659     3499.398     3285.976     81.55231     163.5585      326.404      1.948     5.62     932.4325     57.52829     216.1743        24     1.624     1.000 -32.65   0
       454    760.2987    271.1676 307.6171417  +6.5747388     5210.393     8764.022     9368.149     81.81161     163.1046     326.5013      1.830     4.56     916.1785     57.52829      595.241        30     1.554     1.042 -38.43   0
       455    231.0537    271.4826 307.8370718  +6.5568315     586.6224     929.1582     852.7139     81.81161     163.2344     326.4688      1.670     5.15     930.4888     57.52829     83.46429         6     0.933     0.803 -75.87   0
       456     92.8165    270.3492 307.8945552  +6.5526402     819.5291     1652.025     1709.773     81.29218     163.2993     326.0793      2.230     5.23     936.3002     57.52829     115.9097         9     1.363     0.567 -36.17   0
       457    776.6652    269.2018 307.6104065  +6.5760985      2267.85     3871.565     3521.783     81.16179     162.9097     326.1443      1.758     5.08     915.7416     57.52829     271.3297        20     1.439     0.862 -36.69   0
       458    365.9482    264.0094 307.7812684  +6.5644564     1544.279     3056.397     3147.499     81.29218     163.1046     326.1118      1.989     6.90     922.0618     57.52829     169.0228        25     1.748     1.053 -18.19   0
       459   1015.0063    260.0834 307.5116604  +6.5878356     5328.373     8656.826     8740.706     81.42234     162.9097     326.2092      1.710     4.84     907.6276     57.52829     708.5729        27     1.572     0.909 -38.57  16
       460    492.9313    260.0070 307.7286333  +6.5703768     1739.502     3157.388     2958.407     81.29218     162.9097     326.2741      1.933     5.32     916.2977     57.52829      211.087        22     1.673     0.904 -42.76   0
       461    255.6787    255.4894 307.8273822  +6.5642623     4930.674     8993.114     9469.158     81.55231     163.4937     326.4688      1.921     4.56     928.3751     57.52829     573.9469        36     1.699     1.138 -36.63   0
       462     80.0767    264.5214 307.9000476  +6.5546160     942.6525     1843.733     2237.179     82.07011     163.4937     326.4688      2.160     5.22     936.8184     57.52829     143.1415        15     1.541     0.898 -19.02   0
       463    389.9072    246.3177 307.7719122  +6.5725649     1308.403     2468.365     2672.927     81.55231     163.5585     326.4688      1.956     6.20     920.2993     57.52829     165.9481        18     1.546     0.912 -35.82   0
       464    159.3490    242.1684 307.8678662  +6.5665156      1607.99     2960.202     3203.229     81.68207     163.2993     326.3066      2.042     5.05     933.3219     57.52829     226.2186        18     1.520     0.833 -44.46   0
       465    312.0146    242.2650 307.8044200  +6.5716174     1073.848     1979.421     2138.344     81.29218     163.1046     326.2741      2.121     6.40     924.2365     57.52829     147.1033        14     1.589     0.723 -38.14   0
       466    569.0917    237.9861 307.6977285  +6.5820240     1942.142     3493.549     3768.119     81.55231     162.9747     326.1443      2.027     4.93     914.3142     57.52829     224.7776        24     1.571     1.003 -32.53   0
       467    912.8860    237.0661 307.5548789  +6.5939231     1490.562     2753.552     2699.932     81.81161     163.4289     326.4364      1.889     5.49     910.3314     57.52829     202.0557        19     1.503     0.867 -35.60   0
       468    732.6949    235.3144 307.6298263  +6.5886136     4376.043     7314.085     7196.371     81.81161     163.6232     326.4364      1.774     4.62     915.0013     57.52829       540.52        28     1.558     1.010 -38.90   0
       469    673.8762    235.0661 307.6542796  +6.5867446     1849.662     3075.931      3304.53     81.94096     163.2993     326.3391      1.820     4.48     914.4791     57.52829      240.826        21     1.405     0.972 -28.20   0
       470    970.8965    234.8887 307.5308427  +6.5967616      773.004     1213.968     906.2733     81.81161     163.6879      326.404      1.776     4.69     908.3384     57.52829     105.0411         7     1.355     0.462 -21.32   0
       471    976.4125    245.2449 307.5282007  +6.5926711     1033.032     1453.849      1483.48     81.29218     163.0397     326.1118      1.576     4.42     908.5505     57.52829     143.1517        10     1.241     0.608 -44.81   0
       472    928.3795    227.5396 307.5487613  +6.5983737      1026.78     1678.716     1482.551     81.42235     163.1695     326.3066      1.648     6.25     909.0632     57.52829     138.7184        15     1.643     0.668 -30.61   0
       473    232.4149    220.7863 307.8382294  +6.5778033     1967.928     3588.215     3315.318     81.55231     162.9097     326.3066      1.945     4.95     930.3223     57.52829     250.2963        24     1.475     1.182 -33.26   0
       474    875.1340    219.2361 307.5711712  +6.6000202     1559.331      2678.38     2931.922     81.68207     163.2344     326.4364      1.859     4.81     911.5116     57.52829     242.2499        18     1.460     0.915 -28.79   0
       475    765.3922    219.1343 307.6167844  +6.5963881     1415.996     2470.285     2288.309     81.29218     162.9747     326.2092      1.889     5.26     913.6939     57.52829     177.1179        17     1.380     0.906 -32.55   0
       476    792.3094    209.6488 307.6059180  +6.6012051     11845.94     20250.88     22168.79     81.81161     163.0397     326.5337      1.871     4.65     912.8176     57.52829     1394.695        54     1.916     1.146 -31.79   0
       477    729.7772    206.5942 307.6320104  +6.6003711     619.6465     1119.986      1339.52     81.29218     162.9747     326.2092      2.252     5.19     913.5518     57.52829     90.28992         7     1.345     0.566 -68.44   0
       478    154.0923    203.6276 307.8713617  +6.5822468     1891.578     3415.442     3756.686     81.94096     162.9747     326.2417      1.961     4.73     932.3944     57.52829      221.535        23     1.475     1.043 -58.33   0
       479    129.1431    202.7580 307.8817595  +6.5817646     899.7129     1679.968     1880.435     81.68207     163.1695      326.404      2.044     6.37     933.2987     57.52829     119.6055        12     1.464     0.778 -19.57   0
       480    466.4560    210.2718 307.7413226  +6.5900170     19016.87      34450.3     38199.34     81.68207     163.1695     326.3391      1.987     4.98     914.8721     57.52829     2228.619        68     2.333     1.217 -40.47   0
       481    928.5753    199.9678 307.5496108  +6.6097616     1413.131     2350.015     2411.549     81.29217     163.0397     326.1768      1.784     5.19     908.1698     57.52829     168.6542        20     1.567     0.878 -31.03   0
       482    590.3088    196.2749 307.6903238  +6.5999537     4010.391     7098.673     7587.548     81.81161     163.4289      326.404      1.916     4.53     912.7417     57.52829     453.3654        30     1.605     1.065 -38.25   0
       483    552.7906    196.4294 307.7059113  +6.5986305     1740.424     3178.995     3049.343     81.29218     163.0397     326.1768      1.882     5.38     912.7446     57.52829     205.3116        20     1.536     0.853 -49.64   0
       484    310.3351    197.0432 307.8066539  +6.5902273     1068.863     1539.476     1125.363     81.81161     163.1695     326.3715      1.541     4.28     924.7934     57.52829     139.2571        12     1.112     0.761 -35.93   0
       485    394.8015    195.3438 307.7716082  +6.5937703      1284.26     2254.742      2328.81     81.16179     162.9097     326.0793      1.824     4.81     918.1053     57.52829     159.5835        15     1.219     0.865 -29.83   0
       486    951.1516    193.3633 307.5404505  +6.6132428     2377.805     3962.928     3871.402     81.68207     163.1695     326.2741      1.726     4.56     907.7136     57.52829       289.79        25     1.556     0.952 -41.28   0
       487    897.2844    192.8557 307.5628561  +6.6116508     10076.51     16864.78     17226.42     81.81161     163.2344     326.5013      1.774     4.72     909.2496     57.52829     1187.601        42     1.680     1.077 -39.15   0
       488    572.0363    193.0076 307.6980286  +6.6006891     761.9224     1137.224     1275.251     81.16179     163.0397     326.1118      1.683     4.79     912.6451     57.52829     120.5316        10     1.140     0.759 -54.98   0
       489    324.4986    193.2124 307.8008979  +6.5922852     811.5277     1406.645     1595.583     81.55231     162.9747     326.1118      2.037     5.39     923.6997     57.52829     119.3076        11     1.329     0.922 -12.05   0
       490    983.9022    190.6289 307.5269308  +6.6154664     8980.021     14203.53     14699.17     81.94096     162.9747     326.3715      1.689     4.51      907.287     57.52829     1162.433        35     1.567     0.997 -36.33   0
       491     23.4794    189.3393 307.9261271  +6.5837387     21753.35      38952.5      41026.3     81.94096     163.2344     326.3715      1.936     4.61     938.6735     57.52829     2628.344        61     1.816     1.264 -40.88   0
       492    695.2698    190.7003 307.6468897  +6.6057753     2484.208     4455.866     4414.833     81.81161     163.3641     326.3715      1.857     4.92     912.8346     57.52829     328.8055        26     1.618     0.981 -37.29   0
       493    269.4967    190.3463 307.8238534  +6.5916168     928.3952     1698.492     1743.418     81.68207     163.2344      326.631      1.778     6.12     927.7874     57.52829     125.6407        14     1.423     0.820 -37.00   0
       494    503.8620    185.5051 307.7266165  +6.6014968     1695.269     2841.747     2661.685     81.55231     163.2993      326.404      1.780     4.55     912.9703     57.52829     246.2229        22     1.502     0.982 -27.74   0
       495    888.1078    181.3231 307.5670596  +6.6161043     1873.691     3057.032     3131.546     81.55231     163.4289     326.3715      1.694     5.01     909.0415     57.52829     242.1854        21     1.561     0.852 -40.12   0
       496    835.7438    182.1526 307.5887953  +6.6140095     1769.665     3107.019     3305.888     81.81161     163.2344     326.4688      1.867     5.43     910.7007     57.52829     220.2361        21     1.631     0.828 -38.96   0
       497    747.4894    178.8005 307.6255890  +6.6124375     34983.96     59661.37     63300.76      81.0312     162.7146     326.0468      1.830     4.54     911.9254     57.52829     4075.407        67     1.752     1.215 -38.92   0
       498    516.0781    181.3812 307.7216792  +6.6036094     2175.804     3788.268     3445.858     81.29217     162.9097     326.3391      1.761     4.90     912.6381     57.52829     255.5033        26     1.590     1.024 -42.39   0
       499    350.5469    178.1847 307.7905827  +6.5993646      5000.43     11396.22     13027.95     81.16179     163.2344     326.0793      2.363     6.47     921.4321     57.52829     561.8184        57     2.261     1.374 -59.76   0
       500    981.2612    177.5960 307.5284683  +6.6207580     2712.684     4453.792     4680.728     81.16179     162.9747     326.0793      1.733     4.83       907.15     57.52829     336.2153        25     1.543     0.924 -36.75   0
       501    915.4120    175.9188 307.5558937  +6.6192485     6876.744     11259.23     11689.94     81.42234     162.9097     326.2092      1.747     4.67     907.9617     57.52829     844.1823        34     1.598     1.028 -40.67   0
       502   1019.4733    176.3120 307.5126294  +6.6225650     1640.816     2361.393     2257.334     81.81161     163.4937      304.724      1.563     5.54     906.8311     57.52829     221.3018        13     1.251     0.691 -37.85  16
       503    458.9360    174.9217 307.7456468  +6.6043560     4160.955     7494.672     8080.796     82.07011     163.2993     326.3715      1.919     4.75     913.7535     57.52829     454.3723        36     1.792     1.051 -38.54   0
       504    233.3841    171.1613 307.8395135  +6.5983197     584.9059     1149.224     1339.812     81.42234     163.0397     326.1443      1.634     3.51     929.2646     57.52829     94.54419         5     0.984     0.361  -4.26   0
       505    116.2397    166.3423 307.8883611  +6.5963607     3982.693     7278.887     7985.932     81.81161     163.2993      326.404      1.961     4.79     932.7888     57.52829     495.0915        35     1.696     1.134 -36.99   0
       506    261.9498    163.8912 307.8278889  +6.6022826     5462.589      10079.5     10532.31     81.81161     163.0397     326.5661      1.960     4.73     928.3541     57.52829     660.6378        41     1.781     1.175 -36.15   0
       507    286.5740    162.9416 307.8176874  +6.6035037     28103.82     51814.58     55955.76     81.42234     163.2344     326.2092      1.957     4.64     927.7186     57.52829     3239.644        67     1.833     1.295 -38.37   0
       508    935.5579    165.2275 307.5478815  +6.6243355     716.1379     1113.121      1238.19     81.42235     163.2344     326.2417      1.535     4.02     907.1941     57.52829     103.3677         6     1.285     0.360 -29.93   0
       509    715.8362    162.6781 307.6392902  +6.6180318     791.9983     1309.352     1352.861     81.68207     163.2993     326.3715      1.758     5.63     911.4168     57.52829     118.1127        10     1.588     0.562 -36.91   0
       510    613.0933    163.6305 307.6819600  +6.6141932     545.5637     1144.482     1369.447     81.94096     163.0397     326.3391      2.234     4.84     911.7198     57.52829     79.81964         5     1.378     0.482  -0.66   0
       511    410.6735    158.4164 307.7662650  +6.6095467     41467.02     75647.27     80587.22     81.29218     163.0397     326.2741      1.940     4.59     915.2798     57.52829     4674.644        72     1.834     1.302 -40.96   0
       512    166.5365    159.7022 307.8676843  +6.6007972     3463.344     5954.646     6229.555     81.68207     163.3641      326.404      1.865     4.93     930.8076     57.52829      404.405        28     1.610     1.020 -35.91   0
       513    427.8144    159.1983 307.7591146  +6.6098002     1104.694     1923.403     1725.393     81.42234     162.9097     326.1443      1.819     6.52     914.2722     57.52829     130.8054        15     1.430     0.844 -28.33   0
       514    314.6534    156.0894 307.8062504  +6.6072772     15155.85      27587.8      29588.2     81.81161     163.0397     326.5013      1.951     4.53     925.1049     57.52829     1860.176        57     1.821     1.253 -38.80   2
       515    322.0934    155.9044 307.8031646  +6.6076039     1912.082     3679.945     4301.885     81.81161     163.8173     326.3066      2.161     6.31     924.3969     57.52829     217.1556        22     1.561     1.061 -30.82   3
       516    749.9069    154.6941 307.6253996  +6.6224692      28932.5      49657.3     52512.81     81.81161     163.7526     326.3391      1.813     4.70     910.7054     57.52829     3421.041        60     1.730     1.182 -38.92   0
       517    798.4293    155.2112 307.6052148  +6.6238811     1149.224     1961.375     2282.696     81.29218     163.0397     326.2092      1.861     6.95     910.6321     57.52829     144.2628        17     1.535     0.881 -37.06   0
       518    697.9532    156.1111 307.6469450  +6.6201431     767.1849     1440.192     1154.689     81.81161     163.1046     326.5337      1.806     5.32       911.42     57.52829     118.6561         9     1.313     0.609 -33.81   0
       519     66.7590    151.8282 307.9094186  +6.6006825     7764.115     14108.03     14717.67     81.42234     163.1046     326.2092      1.916     4.69     935.0527     57.52829     878.0207        43     1.738     1.182 -38.81   0
       520    100.7632    149.6460 307.8953612  +6.6027304     1221.345     2180.655     1851.491     81.55231     163.2344     326.2741      1.815     4.94     932.8382     57.52829     203.6782        15     1.492     0.783 -27.41   0
       521   1008.9726    148.7187 307.5179248  +6.6336043     798.6564      1364.07     1046.886     81.68207     163.0397     326.3391      1.645     5.31     906.0145     57.52829     129.5251        11     1.492     0.533 -20.03   0
       522    734.0085    142.5401 307.6324186  +6.6269535     491.9132     722.6553     1035.846     81.16179     163.1046     326.0793      1.356     3.96     910.2886     57.52829     79.17987         5     0.900     0.498  -0.43   0
       523    583.9422    139.3808 307.6948972  +6.6232248     749.0427     1461.317     1029.475     81.42234     163.1046     326.1768      1.815     5.13     911.2429     57.52829     105.9692         8     1.201     0.620  -9.74   0
       524   1009.1625    135.1698 307.5183030  +6.6392035     2078.465     3345.723     3985.979     81.42234     162.9747     326.2417      1.679     4.60     905.0744     57.52829     261.0518        21     1.490     0.909 -39.41   0
       525    600.7266    131.0099 307.6882048  +6.6272434     1703.762     3235.304     4295.229     81.29217     162.8447     326.2417      2.425     5.61     911.1099     57.52829     222.5311        21     1.624     0.915 -43.21   0
       526    592.6005    132.7176 307.6915244  +6.6262658     807.3127     1518.026     1944.515      81.0312     162.7146     326.0468      2.049     5.52      911.144     57.52829     105.1272        10     1.249     0.687 -15.88   0
       527    285.4261    129.2777 307.8193083  +6.6173605     25792.71     46616.28     50636.34     81.55231     163.1695     326.3391      1.948     4.71      927.806     57.52829     2988.464        74     2.029     1.279 -35.47   0
       528     30.7096    127.7213 307.9252213  +6.6094164      3790.78      7063.68     7862.432     81.55231     163.4937     326.4364      2.013     5.22       936.93     57.52829     434.5862        38     1.805     1.210 -45.41   0
       529    717.1796    125.8716 307.6399772  +6.6332700     6909.445     12064.05     12872.43     81.42234     163.1046     326.3391      1.869     4.64     909.8807     57.52829     782.4939        39     1.683     1.132 -38.99   0
       530    194.3440    127.2689 307.8572308  +6.6151218     830.7718     1330.663     1054.763     81.94096     163.1046     326.3391      1.732     5.81     929.4471     57.52829     112.2017        11     1.335     0.711 -39.03   0
       531    127.9114    122.9766 307.8849863  +6.6146541     4171.923     7473.886     8118.367     81.81161     163.0397     326.2417      1.910     4.40     931.0472     57.52829     522.0637        38     1.707     1.196 -43.14   0
       532    345.1043    131.2047 307.7944400  +6.6185736     757.0983     1631.065     1410.499     81.55231     162.9097     326.1443      2.160     5.69     922.1348     57.52829     126.4073        10     1.550     0.793  -7.30   0
       533    655.7944    119.8124 307.6656961  +6.6337130     765.9975     1365.641     1568.694     81.42234     162.9747     326.2417      2.004     6.29     910.5146     57.52829     120.0924        11     1.491     0.746 -30.27   0
       534    466.7750    120.4528 307.7442364  +6.6271029     1094.484      1848.66     2157.588     81.29218     163.2344     326.2741      1.793     5.49     912.4068     57.52829     139.1104        11     1.075     0.791 -36.21   0
       535    398.6301    118.8801 307.7726122  +6.6254613     3135.992     6321.847     6337.154     81.68207     163.1695     326.3391      2.051     5.39     916.2875     57.52829     313.9253        34     1.720     1.304 -54.97   0
       536    363.0182    117.7213 307.7874525  +6.6247419     2803.521     5083.314     5478.784     81.42234     162.9097     326.3066      1.926     4.35     920.2661     57.52829     380.7441        31     1.552     1.162 -44.78   0
       537    117.2629    117.7231 307.8895906  +6.6164635     1534.183     3085.646     3103.251     82.07011     163.2344     326.3391      2.035     5.53     931.2488     57.52829     163.7711        22     1.494     1.032 -38.67   0
       538    678.4795    115.5107 307.6564130  +6.6362494     544.5626     884.9888     1042.835     81.55231     163.4937     326.4688      1.739     5.61     910.1179     57.52829     123.5428         5     1.361     0.651 -50.57   0
       539   1009.9759    112.0398 307.5187452  +6.6487785     1367.002     2438.574     1988.555     81.42234     162.9747     326.1443      1.759     5.58     903.5239     57.52829     191.7283        18     1.499     0.784 -37.62   0
       540    214.9759    106.6728 307.8493565  +6.6243184     4637.382     8424.151     8676.257     81.42234     163.1046     326.3066      1.934     4.69     928.7642     57.52829     538.9902        34     1.699     1.091 -37.63   0
       541    676.7176    105.5935 307.6574810  +6.6402839     5483.225     9386.837     10115.51     81.42235     162.8447     326.2092      1.846     4.54      909.725     57.52829     624.7798        33     1.598     1.082 -33.04   0
       542     97.5993    106.6558 307.8981396  +6.6203685     1885.667     3300.054     3756.823      81.0312     162.9747     326.0468      1.946     5.33     931.4891     57.52829     226.3242        23     1.702     0.883 -38.37   0
       543    824.7753    105.3022 307.5959515  +6.6453650     1084.862     1643.189     1813.066     81.94096     162.9747     326.2417      1.773     4.74     906.8167     57.52829     150.7201        15     1.368     0.804 -26.17   0
       544    628.8711    102.8235 307.6774617  +6.6398225     7886.528     14122.37     14908.29     81.42234     163.1046     326.3391      1.885     4.62     910.3463     57.52829     927.6198        45     1.708     1.203 -42.44   3
       545    632.4075     94.3655 307.6762782  +6.6434325     46343.38     80141.42     84932.63     81.29218     163.0397     326.1443      1.862     4.49      910.048     57.52829     5443.177        73     1.786     1.241 -36.05   2
       546    567.0618    102.4730 307.7031638  +6.6378929     644.7169     1301.722     1778.981     81.94096     163.2344      326.404      2.054     5.08     910.6497     57.52829     89.97034         8     1.382     0.528 -30.26   0
       547    263.8833    103.1773 307.8291487  +6.6274086     709.7092     1309.991     1586.564     81.68206     162.9097     326.3066      1.845     4.37     928.0626     57.52829     110.6332         8     1.154     0.537 -13.62   0
       548     28.2406    101.3049 307.9271473  +6.6202367     871.8199     1562.704     1727.197     81.81161     163.1695     326.5013      2.027     5.35     936.5648     57.52829     116.3751        10     1.169     0.692 -40.00   0
       549    355.9871     98.5961 307.7910242  +6.6323997     3212.059     5964.297     6648.207     81.42234     162.9097     326.2417      2.006     5.17     921.0854     57.52829     430.4495        33     1.862     1.002 -43.60   0
       550   1001.6862     97.6132 307.5226777  +6.6544566     624.9588     961.0751     700.8921     81.42235     163.0397     326.2741      1.735     4.75     902.6382     57.52829     122.4243         8     1.547     0.790 -37.59   0
       551    537.5963     97.7948 307.7155692  +6.6388346     1538.154     2857.467     3262.442     81.16179     162.8447     326.2092      1.929     5.80     910.7022     57.52829     173.6863        22     1.547     1.013 -36.05   0
       552    311.5645     88.0133 307.8098467  +6.6352731      3121.11     5636.944     6314.173     81.29217     163.0397     326.1768      1.919     4.44     925.3666     57.52829     392.1534        31     1.672     1.084 -35.35   0
       553    711.2378     82.7796 307.6439050  +6.6508584     795.7513      1476.97     1623.683     81.42234     162.9747     326.1118      1.990     4.58     908.1514     57.52829     106.7759         8     1.160     0.515 -34.80   0
       554    589.5040   1015.5423 307.6629243  +6.2617438     149281.1     243621.1     258384.2     81.68207     163.2344     326.5337      1.811     4.85      945.492     57.52829     17680.87       101     1.800     1.184 -37.67  19
       555    682.4704     81.4796 307.6559061  +6.6504306      1164.33     2145.649     1807.792     82.07011     163.4937     326.3391      1.836     6.27     908.7296     57.52829     151.0336        15     1.532     0.720 -30.66   0
       556    696.8611     78.3986 307.6500289  +6.6521848     2856.565      4791.44      4686.24     81.16179     163.0397     326.0793      1.783     4.51     908.2615     57.52829     341.1959        23     1.475     0.961 -41.65   0
       557    438.5178     69.4099 307.7577126  +6.6472224     3527.374     6201.993     6013.624     81.42235     162.8447     326.2092      1.854     4.66       913.03     57.52829     401.5625        30     1.635     1.046 -42.30   0
       558    892.8219     65.7198 307.5690051  +6.6639815     1993.717     3159.884     3398.183     81.42234     162.9097     326.3391      1.733     5.71     903.4107     57.52829     257.6525        19     1.491     0.897 -38.15   0
       559    911.0762     64.7693 307.5614495  +6.6649845     3372.475     5372.986     5437.602     81.68207     163.2993     326.3391      1.681     4.96     903.0688     57.52829     435.9109        23     1.522     0.863 -37.38   0
       560    603.5264     63.1763 307.6893390  +6.6553376     1507.833     2931.838     2687.714     81.42235     163.0397     326.3066      1.903     7.58     909.3981     57.52829     179.2953        25     1.914     1.027 -41.00   0
       561    249.5957     62.1079 307.8364830  +6.6438795     721.2101     1537.488     2555.915     81.42234     162.9097     326.1443      2.761     6.16     927.9124     57.52829     91.58459        10     1.186     0.899  11.65   0
       562    401.9209     61.0554 307.7732072  +6.6494404     1571.064     2871.031     2623.249     81.94096     163.2344      326.404      1.897     5.03     915.7413     57.52829     231.1669        21     1.501     0.981 -25.19   0
       563    150.0457     58.0363 307.8779970  +6.6422055      2732.09     4926.204     5243.605     81.55231     163.2344     326.2741      1.878     4.81     928.9441     57.52829     312.0779        31     1.657     1.136 -41.16   0
       564     31.7588     55.8283 307.9272343  +6.6391263     10705.88      19459.1     20925.79     81.42234     163.1695     326.2092      1.921     4.58      934.157     57.52829     1278.466        44     1.715     1.217 -39.04   0
       565    298.3301     56.3836 307.8164220  +6.6478834     1273.814     2386.365     3144.614     81.29218     163.1046     326.2741      2.093     6.20     926.2151     57.52829     171.7204        18     1.631     0.900 -24.13   0
       566    559.0292     55.5200 307.7080937  +6.6570044     763.7491     1156.169     414.5284     81.68206     163.2344     326.3391      1.489     5.46     909.7869     57.52829     106.8697         9     1.314     0.640  -4.00   0
       567    778.5979     50.8550 307.6169863  +6.6662935      2895.17     4856.081     5386.042     81.16179     162.9747     326.0468      1.802     4.69      905.301     57.52829     356.1017        27     1.598     1.028 -38.42   0
       568    423.7607     51.5784 307.7644514  +6.6540867     944.7352     1642.735     1641.953     81.42235     163.0397     326.1443      1.791     6.38     913.6346     57.52829     140.3469        16     1.495     1.017 -43.03   0
       569    833.4135     50.4651 307.5942146  +6.6682901     5669.732     9476.657      9849.57     81.29218     163.0397     326.2741      1.800     4.62     904.2664     57.52829     666.6071        33     1.598     1.046 -38.83   0
       570    766.0446     48.8285 307.6222728  +6.6667095     488.8613     1100.788     2246.527     81.42234     163.2993     326.2741      4.148     6.47     905.3301     57.52829     100.1912         7     1.645     0.713 -77.95   0
       571    540.9273     48.8847 307.7158427  +6.6591355     1070.072     1838.928     1918.151     81.94096     163.5585      326.404      1.860     6.50     909.9395     57.52829      130.186        15     1.465     0.808 -41.03   0
       572     56.6508     48.6732 307.9171325  +6.6429198     903.6133     1523.663     1593.755     81.81161     163.2993      326.404      1.808     6.70     932.2607     57.52829     101.0219        14     1.463     0.862 -37.75   0
       573     72.0348     47.6265 307.9107743  +6.6438710     2839.752     5153.355     5091.369     81.16179     163.0397     326.1443      1.897     4.84     931.2925     57.52829     361.0077        27     1.539     1.063 -36.05   0
       574    433.4172     47.3022 307.7605828  +6.6561764     848.7611     1342.849     1020.012     81.81161     163.0397     326.1443      1.735     5.67     913.1672     57.52829     106.4044         9     1.234     0.734 -31.42   0
       575    596.0018     44.3688 307.6931038  +6.6628485     1150.646     1740.461     1549.636     81.16179     163.0397     326.1768      1.689     5.79     908.8931     57.52829     169.0043        18     1.498     0.915 -25.59   0
       576     14.5407     43.2612 307.9348186  +6.6437322     2241.262     3941.198     4772.951     81.81161     163.1695      326.404      1.957     5.10     934.5424     57.52829      289.889        23     1.500     0.990 -36.83   0
       577     86.4802     39.2504 307.9050557  +6.6478157     708.0367     906.0959     608.0022     81.81161     163.2993     326.3715      1.357     5.04      930.134     57.52829     107.8173         8     1.167     0.616 -76.01   0
       578    772.9916     38.2919 307.6197416  +6.6712915     1795.359     3135.361     3525.983     81.42234     162.9097     326.1768      1.820     5.49     904.6794     57.52829     215.4231        18     1.392     0.837 -36.14   0
       579    413.9869     38.0085 307.7689744  +6.6593593     897.8004     1538.401     1751.853     81.42234     162.9747     326.2741      1.941     5.50     914.2891     57.52829     146.4064        10     1.153     0.837 -23.55   0
       580    110.9385     37.3593 307.8949546  +6.6494214     746.7627     1481.008     1308.706     81.81161     163.2344     326.4364      2.030     6.32      929.207     57.52829     100.2243        11     1.536     0.730 -18.60   0
       581     99.8774     32.0331 307.8997332  +6.6512467     7870.996     14499.79     15556.75     81.68207     163.2344     326.3391      1.949     4.69     929.2367     57.52829     896.7623        45     1.785     1.185 -38.02   0
       582    429.1020     31.6621 307.7629072  +6.6624871     2205.573     3755.815     3988.284     81.55231     163.2993     326.4364      1.739     4.46     913.2879     57.52829     296.9982        24     1.565     0.978 -38.95   0
       583    591.2343   1008.4160 307.6624467  +6.2647435      68854.6     114345.3     122268.3     81.42235     162.9747     326.2092      1.807     4.92     945.2777     57.52829     8281.608        78     1.843     1.142 -39.05   3
       584    266.5972     25.7587 307.8306521  +6.6594559     1257.899     2133.356     3191.429     81.16179     162.9097     326.1118      2.042     4.86     927.1098     57.52829     157.3136        16     1.284     0.883 -46.77   0
       585    698.7285     24.2267 307.6510863  +6.6746085      439.884     555.2003     1484.257     81.42235     163.1046     326.3066      1.540     3.77     905.9872     57.52829     79.16296         5     1.340     0.305 -30.30   0
       586    542.3956     20.1984 307.7162048  +6.6710257     4515.369     7973.319       8340.8     81.16179     162.7796     326.1118      1.839     4.55     909.5032     57.52829     539.8711        34     1.651     1.115 -30.93   0
       587    260.8558     20.2634 307.8332253  +6.6615308     1609.125     2994.488     4049.263     81.94096     163.2344     326.3715      2.015     5.37     927.2212     57.52829     212.1642        20     1.670     0.840 -33.58   3
       588    223.4657   1018.3380 307.8148533  +6.2482919     3556.405      6155.81     6654.284     81.81161     163.2344     315.7837      1.879     5.11     950.3746     57.52829     394.1035        29     1.679     0.971 -41.74  16
       589      9.8295     18.3494 307.9376255  +6.6538557     956.0854     1687.513      1802.03     81.42234     163.3641     326.2741      1.757     6.36     933.4466     57.52829     126.8935        12     1.524     0.745 -41.45  16
       590    778.8386     18.9289 307.6179660  +6.6794800     483.3811     810.0035     459.7027     81.68207     163.2344     326.4364      1.751     5.57     903.6403     57.52829      93.1712         6     1.156     0.756 -18.98   0
       591    765.4539   1017.6515 307.5897745  +6.2667690     569.4829     1088.045     912.0544     81.94096     163.1695     321.0717      1.814     4.69     941.9389     57.52829       90.091         6     1.267     0.492 -43.32  16
       592    971.6097   1014.6644 307.5042493  +6.2748972     555.4026     1092.779     927.5176     81.29218     163.0397     326.2092      2.143     5.62     936.5869     57.52829     87.49512         6     1.359     0.655 -52.95   0
       593    898.3652   1009.2179 307.5348550  +6.2746973     1339.184     2271.942     2423.742     81.29218     163.0397     326.1443      1.874     6.76     938.4628     57.52829     169.1207        21     1.692     0.857 -34.30   0
       594    328.3893     16.4117 307.8052862  +6.6653943     855.9179     1390.925     1899.998     81.55231     163.0397     326.3715      1.969     5.62     923.3266     57.52829     121.2607        10     1.202     0.740 -43.90   0
       595    800.4963   1012.4166 307.5753966  +6.2701030     6529.437     10661.57     11474.82     81.68207     163.0397     326.2092      1.787     4.90     941.1921     57.52829      777.269        31     1.629     0.985 -34.00   0
       596    532.4010     15.8486 307.7205067  +6.6724856     587.2786     1003.877     993.1792     81.16179     162.8447     325.9169      1.668     4.39     909.5823     57.52829     114.0416         5     1.128     0.485 -32.47   0
       597    221.0055   1007.7917 307.8162331  +6.2525623     2098.296     3337.635     3600.487     81.16179     163.0397     326.2092      1.723     4.84     950.1704     57.52829     267.1346        22     1.563     0.895 -36.90   0
       598    756.4980   1006.7787 307.5938615  +6.2709574     778.4066     1622.606      2157.25     81.68207     163.0397     326.1118      2.367     7.45     941.8485     57.52829     119.3892        12     1.694     0.917   3.52   0
       599    724.1437   1004.8821 307.6073637  +6.2706568     6718.436      11311.3     12717.94     81.81161     163.2344     326.4364      1.819     4.88     942.7575     57.52829     810.7122        36     1.659     1.025 -36.14   0
       600    439.1540   1005.0436 307.7257247  +6.2610314     3713.693     6073.892     6755.127     81.81161     163.2344     326.3066      1.734     4.64      947.113     57.52829     456.2194        26     1.631     0.918 -39.85   0
