#   1 NUMBER                 Running object number                                     
#   2 X_IMAGE                Object position along x                                    [pixel]
#   3 Y_IMAGE                Object position along y                                    [pixel]
#   4 ALPHA_J2000            Right ascension of barycenter (J2000)                      [deg]
#   5 DELTA_J2000            Declination of barycenter (J2000)                          [deg]
#   6 FLUX_APER              Flux vector within fixed circular aperture(s)              [count]
#   9 FLUXERR_APER           RMS error vector for aperture flux(es)                     [count]
#  12 FLUX_RADIUS            Fraction-of-light radii                                    [pixel]
#  13 FWHM_IMAGE             FWHM assuming a gaussian core                              [pixel]
#  14 BACKGROUND             Background at centroid position                            [count]
#  15 THRESHOLD              Detection threshold above background                       [count]
#  16 FLUX_MAX               Peak flux above background                                 [count]
#  17 ISOAREA_IMAGE          Isophotal area above Analysis threshold                    [pixel**2]
#  18 A_IMAGE                Profile RMS along major axis                               [pixel]
#  19 B_IMAGE                Profile RMS along minor axis                               [pixel]
#  20 THETA_IMAGE            Position angle (CCW/x)                                     [deg]
#  21 FLAGS                  Extraction flags                                          
         1     10.7751     86.3343 307.9359504  +6.6319726     733071.1      1660107      1837634     77.73064     155.8333     311.4498      2.264     6.17     838.0043     54.91994     61545.28       489     2.309     1.957  50.11  28
         2    265.0486     15.2653 307.8326934  +6.6698480     674.1996     1227.029      1769.24     77.97859     155.7094     311.5738      2.162     5.60     833.0291     54.91994     106.0024        10     1.509     0.585  53.38   0
         3    187.6160     13.2088 307.8649385  +6.6681001     10006.21     16223.87     16921.98     77.85471     155.5854     311.4189      1.753     4.18     832.2149     54.91994     1369.074        38     1.575     1.090  43.10   0
         4      1.6820     13.2841 307.9421959  +6.6618247     399.2291      740.747     488.7616     71.92626     129.0701     240.2056      1.699     4.46     831.7338     54.91994     93.71942         6     1.806     0.313  63.28  24
         5    531.7518     11.3145 307.7219994  +6.6804077      2899.49     4448.291     4359.617     78.10226     155.7714     311.5738      1.654     4.11     822.4218     54.91994     387.5908        24     1.472     0.951  49.24   0
         6    933.3325     10.9258 307.5551307  +6.6939656      3820.55     5993.182     6840.384     78.22575     155.9572     311.5428      1.733     4.37     820.9926     54.91994     552.4497        27     1.509     0.954  41.02   0
         7    734.1213      9.5358 307.6379629  +6.6879005     1867.812     2967.069     3173.898     78.34904     155.8953     311.5428      1.683     4.78     820.7654     54.91994     236.1904        16     1.460     0.762  44.47  16
         8    470.1662      9.7727 307.7476432  +6.6789847     1715.654     2726.053     3076.065     77.60637     155.5854     311.3568      1.639     4.83     822.6896     54.91994     222.2025        17     1.554     0.764  47.38  16
         9    997.9192      7.3335 307.5284104  +6.6975981     1884.226     3269.008     3419.072     78.22575     156.0809     306.4513      1.883     4.33     815.0306     54.91994     250.2924        22     1.440     1.008  53.91  16
        10    717.4164      3.7797 307.6450979  +6.6897196     6907.314     10950.83     11276.82     77.85471     152.1352     270.3757      1.726     4.43     820.9433     54.91994     1053.181        35     1.590     1.024  45.93  24
        11    637.6207      2.9678 307.6782852  +6.6873911      3588.93     5463.631     5525.795     77.60637     144.7888     259.2966      1.613     4.63     822.0192     54.91994     520.8846        23     1.476     0.918  45.06  24
        12    339.5496      2.1392 307.8021774  +6.6777636     817.3898     1147.748     1074.885     76.22604     135.1343     247.1764      1.483     4.13     831.0578     54.91994     108.9879         8     0.888     0.677  36.62  24
        13     39.7739      1.2464 307.9267745  +6.6680745      1331.91     1709.611     1625.473     66.77687     122.6278     232.9435      1.202     3.66     830.7616     54.91994     369.7844         9     1.271     0.455  11.43  24
        14    438.6620      1.2266 307.7610221  +6.6814589     1472.261      1897.57     1932.251     66.34184     122.3914     232.7362      1.292     3.79     823.7169     54.91994     361.2963        10     1.295     0.419  -0.07  24
        15    981.9491   1001.0471 307.5018323  +6.2867929     468.6777     1017.917     1302.796     78.22575     155.7094     311.6357      2.737     4.80     849.0342     54.91994     76.33008         5     1.087     0.602 -74.45   2
        16    988.7316   1022.9843 307.4982833  +6.2779613     489.6028     1028.565     1643.683      75.0778     133.8425     245.3736      2.314     3.78     849.0125     54.91994     91.04169         5     0.819     0.501  33.39  24
        17    899.6990   1023.5780 307.5352327  +6.2747540       867.83     1008.286     722.2904     69.05077     125.1982     235.9488      1.042     3.68     851.8859     54.91994      180.746         8     1.063     0.632  12.92  24
        18    592.8598   1022.8094 307.6626655  +6.2648427     59870.25      83910.6     87569.48     76.09931     135.7756     247.7614      1.525     4.06     856.3088     54.91994     7603.144        60     1.546     1.108  13.27  24
        19    222.6877   1022.4917 307.8163745  +6.2525931     1966.417     2854.237     2659.357     78.10226     140.1826     252.8132      1.620     3.74     855.5085     54.91994     241.1533        21     1.266     1.027  26.07  24
        20    554.3829    995.2925 307.6795647  +6.2749185     3892.851     6630.453     7312.448     77.85471     155.6474     311.4498      1.869     4.23     856.7632     54.91994     486.7317        33     1.639     1.118  62.23   1
        21    758.8702    994.6052 307.5946784  +6.2820251     6792.382     12051.85     12912.01     77.60638     155.4613     311.4498      1.893     4.25     853.8165     54.91994     791.5375        44     1.669     1.222  48.34   0
        22    524.5662    996.0247 307.6919207  +6.2736203     849.3625     1445.512     1259.963     77.60637     155.6474     311.3568      1.501     5.10     857.1021     54.91994      160.946        12     1.531     0.740  37.44   0
        23    304.7326    993.7816 307.7832749  +6.2671941     13140.97     23201.72     26749.08     77.73064     155.7714     311.4808      1.964    10.51     854.8658     54.91994     1733.776        62     1.956     1.575 -32.33   0
        24    429.0388    994.5475 307.7316353  +6.2710372     953.9653     1661.876     1550.174     77.97858     155.8333     311.5738      1.837     5.97     855.5496     54.91994     165.0803        14     1.539     0.747  48.60   0
        25      1.7875    994.6083 307.9090304  +6.2566952     507.7043     647.1581     777.9885     72.59412      130.261     241.5279      1.477     5.84     852.0092     54.91994     87.28149         7     1.175     0.817  29.86  24
        26    819.8763    993.7725 307.5693744  +6.2844017     996.9039     1699.005     1828.423     77.97858     155.8333     311.5428      1.740     4.12      852.551     54.91994     149.4549        12     1.008     0.870  74.10   0
        27    275.8867    991.6882 307.7953224  +6.2670925     1029.074      1838.66     2093.822     77.85471     156.2045     311.6977      1.916     5.82     854.7441     54.91994     153.1214        13     1.201     0.846  64.31   0
        28    920.2000    988.1513 307.5279039  +6.2900629     7137.588     13190.69     13685.38     77.35723     155.4613     311.1088      1.930     4.46     851.1186     54.91994     807.8901        42     1.691     1.239  46.87   0
        29    551.5114    987.4655 307.6810195  +6.2780542     7753.003     12845.84     14344.11     78.10226     156.0191     311.6048      1.825     4.12     856.4925     54.91994     1054.175        42     1.594     1.230  37.25   0
        30    893.8720    984.3459 307.5389636  +6.2907577     10181.03     19210.63     21396.37     77.97858     155.7094     311.5118      2.036     4.46      851.116     54.91994     1189.124        57     1.840     1.368  33.72   0
        31   1015.5267    983.5776 307.4884727  +6.2951221     3860.644     7331.811      7151.37     77.73064     155.6474     311.5118      1.967     4.63     847.3481     54.91994     453.7355        38     1.763     1.215  46.33  16
        32    606.6381    984.7139 307.6582216  +6.2810309     1346.619      2176.58      2498.67     78.10226     155.7714     311.5738      1.916     5.54     854.7772     54.91994     153.2266        20     1.447     1.120  34.12   0
        33    538.0906    983.2420 307.6867339  +6.2793495     3826.177     6645.959      7518.12     78.10226     155.8333     311.6357      1.961     4.25     856.5278     54.91994     542.7883        35     1.790     1.126  39.20   0
        34    647.7125    982.7121 307.6412333  +6.2832282     1275.857     2213.314     2507.926     77.85471     156.3281     311.6667      2.007     4.54     854.5628     54.91994     163.0883        15     1.230     0.905  33.49   0
        35     72.3885    982.0256 307.8801413  +6.2642598     842.5027     1686.878     1793.132     77.73064     155.6474     311.5118      1.915     7.20     851.7559     54.91994     102.7136        16     1.334     1.088  57.83   0
        36    491.1533    979.9388 307.7063344  +6.2791450     1858.318     3060.598     3213.145     77.97859     155.7094     311.6357      1.673     5.19     856.3952     54.91994     244.9863        21     1.565     0.898  49.51   0
        37    925.5557    971.8632 307.5262243  +6.2969660        36661     67036.56     72917.68     78.10226     155.7714     311.6048      1.964     4.41      850.613     54.91994     4084.668        76     1.842     1.373  43.28   0
        38    232.9841    970.2818 307.8138563  +6.2744931     1575.458     2661.489     2274.945     77.73064     155.5234     311.4498      1.726     5.01     854.1927     54.91994     211.0559        21     1.482     1.010  41.62   0
        39    631.8766    968.1140 307.6482981  +6.2887268     766.0167     1108.823     1120.402     78.10226     156.1427     311.6357      1.902     5.27      854.238     54.91994     118.2129         9     1.437     0.546  59.85   0
        40    120.5435    969.6426 307.8605644  +6.2709876     622.0983       805.98     931.8593     77.97859     155.7714     311.5738      1.656     4.03     852.1527     54.91994     84.80249         6     0.969     0.479   0.56   0
        41    823.5588    965.8426 307.5687796  +6.2960558     2049.967     3457.169      3716.02     77.85471     155.8333     311.4498      1.825     4.48     851.9489     54.91994     234.0909        19     1.370     0.928  40.90   0
        42    771.7662    963.4722 307.5903656  +6.2953087     6036.301     10426.86     11227.06     77.97859     155.7714     311.5428      1.864     4.12     852.8109     54.91994     679.1083        39     1.630     1.199  46.73   0
        43    240.9406    962.3831 307.8108184  +6.2780207     1329.323     2334.719     2308.329     77.73064     155.7094     311.3259      1.896     5.30     854.0848     54.91994     186.9327        21     1.447     1.181  84.71   0
        44    558.2593    962.6721 307.6790492  +6.2885157     624.8689     1135.571     998.9904     78.22575     155.8333     311.5428      1.800     4.06     855.3467     54.91994     114.0948         6     1.242     0.486  51.44   0
        45    205.0783    962.5547 307.8257032  +6.2767481      704.913     1337.548     1483.176     77.97858     155.8333     311.5738      2.139     6.05     853.6373     54.91994     131.3311         8     1.243     0.828  43.35   0
        46     66.1336    960.5950 307.8834607  +6.2728974     2448.533     4253.331     4490.785     77.60638     155.5234     311.3878      1.854     4.41     851.3483     54.91994     310.7527        27     1.517     1.072  51.53   0
        47    960.0114    958.6561 307.5123578  +6.3035652       5562.7     10256.99     10767.64      77.4819     155.7714     311.2639      1.950     4.45     849.1139     54.91994     616.9194        42     1.835     1.188  39.74   0
        48    933.6880    950.0632 307.5235759  +6.3062372     1874.808     3256.947     3412.549     77.97858      156.019     311.6048      1.799     4.51     849.7274     54.91994     254.4481        18     1.423     0.840  60.16   0
        49    793.2554    946.7158 307.5820030  +6.3029430     1309.681     2191.923     2437.899     78.10226     155.8333     311.6977      1.917     5.79      852.072     54.91994     140.4084        18     1.295     0.987  56.44   0
        50    654.3879    946.2597 307.6396829  +6.2985009     4187.066     6680.634     6517.604      77.4819     155.7094     311.2949      1.707     3.98     853.6338     54.91994      522.622        30     1.472     1.092  36.28   0
        51    266.6594    946.3914 307.8006774  +6.2854844     3980.561     6700.094      7161.88      77.4819     155.7094     311.2949      1.798     4.22     854.1694     54.91994     555.9337        30     1.575     1.023  39.06   0
        52   1003.7755    945.6934 307.4946175  +6.3103727     663.4743     1071.032     1489.617     78.22575     155.5854     311.4189      1.814     6.06     847.4913     54.91994       84.974         8     1.418     0.728  32.99   0
        53    476.6334    944.6675 307.7135475  +6.2932219     1202.447     1738.433     2356.233     77.97859     155.8953     311.6357      1.690     6.00     854.8336     54.91994     163.6581        13     1.271     0.796  39.44   0
        54     35.4011    943.5946 307.8967942  +6.2788845      2079.75     3578.111     3780.503      77.4819     155.5234     311.3878      1.843     4.14     850.9567     54.91994     299.1322        23     1.405     1.197 -83.93   0
        55    886.5324    942.0104 307.5434267  +6.3079924     692.2777     1097.711     533.2552     77.60637     155.6474     311.4189      1.724     5.18     850.5362     54.91994     97.68475         8     1.342     0.564  39.29   0
        56    978.6307    940.4359 307.5052347  +6.3117072     604.5933     1108.761     646.5356     77.73064     155.5854     311.3878      1.735     5.10     848.1453     54.91994     93.85999         8     1.529     0.482  43.42   0
        57    578.9897    938.4645 307.6712530  +6.2992025      1746.92     2984.061     2945.411     77.60637     155.6474     311.4808      1.839     4.90     854.0239     54.91994     216.3237        23     1.483     1.130  36.64   0
        58   1010.0217    938.8480 307.4922522  +6.3134067     767.4108     1384.588     1292.148     77.73064     155.8333     311.4498      2.000     5.18     847.2571     54.91994     93.97046        10     1.128     0.672   4.68   0
        59    618.4395    935.0585 307.6549858  +6.3019257      1121.71     1997.583     2271.413     78.10226     155.8953     311.6667      1.906     7.23     853.4689     54.91994     141.2312        17     1.753     0.835  37.14   0
        60     68.2286    935.7646 307.8834278  +6.2832189     636.3779      991.452     1131.972     77.73064     155.5854     311.3878      1.854     4.83      850.871     54.91994     110.0453         9     1.139     0.704  36.10   0
        61    297.8975    932.7543 307.7881651  +6.2921607     1355.033     2101.934     1649.472     78.10226     155.7094     311.7286      1.591     4.62     854.4756     54.91994     188.2054        16     1.414     0.835  42.54   0
        62    302.7639    939.5682 307.7859153  +6.2895105     694.2479     1061.626      1083.78     77.73064     155.5854     311.3259      1.720     5.01     854.5207     54.91994      94.2193         8     1.195     0.595  63.05   0
        63    764.8348    928.8181 307.5944038  +6.3093852     795.1132     1421.296     1269.741     77.60637     155.6474     311.3568      1.798     5.90       852.09     54.91994     108.1957        10     1.427     0.686  60.22   0
        64    902.6106    925.5472 307.5373004  +6.3153248     6149.398     10852.59     11354.72      77.4819     155.7714     311.3259      1.898     4.37     849.8505     54.91994     787.4912        43     1.695     1.220  45.66   0
        65    438.4466    922.7151 307.7301413  +6.3010085     1887.978     2985.556     3364.297     78.10226     155.7714     311.5738      1.759     5.05     854.2065     54.91994     220.2408        20     1.439     0.983  45.57   0
        66    340.2275    921.0429 307.7709820  +6.2984129     8600.305     14556.58     15577.62     77.73064     155.8953     311.4498      1.813     4.33     854.2864     54.91994     1110.455        41     1.590     1.182  43.37   0
        67    260.2819    919.9109 307.8042164  +6.2962034     6480.766     10483.73     11342.89     77.85471      156.019     311.6357      1.715     4.03     853.6833     54.91994     848.9955        35     1.527     1.115  46.25   0
        68    588.3431    914.5764 307.6681701  +6.3093773     1057.853     1934.144     1979.541     77.73064     155.8333     311.3878      1.887     6.11     853.3188     54.91994      145.851        14     1.650     0.637  28.79   0
        69    918.1926    910.4719 307.5313337  +6.3220676     1099.098     1789.607     2410.644     77.60638     155.3371     311.4808      1.839     5.44     849.0606     54.91994     151.6223        17     1.531     0.859  52.91   0
        70    874.0922    909.0464 307.5496948  +6.3211881     736.9132     1117.502     782.5244     78.10226     155.7714     311.6977      1.488     5.17     850.3323     54.91994     95.72644        10     1.073     0.705 -82.52   0
        71    754.5139    903.6537 307.5995321  +6.3194308     1502.691     2579.313      2264.66     78.10226     155.7714     311.6977      1.817     5.61     851.8539     54.91994     211.2141        22     1.645     0.980  43.67   0
        72      5.2572    900.6350 307.9107592  +6.2956081     859.3818     1479.488     1177.482     77.97859     155.8333     288.1073      1.707     4.80      849.596     54.91994     116.1504         8     1.177     0.554  63.53  16
        73    986.0923    899.3151 307.5035097  +6.3289329     1014.413     1733.553     2392.873     77.85471     156.2663     311.6667      2.255     5.51     846.6788     54.91994     153.1501        13     1.260     1.014  67.11   0
        74    539.7903    899.7609 307.6888289  +6.3138725     1054.598     1785.939     1905.442      77.4819     155.6474     311.2949      1.711     5.12     853.2998     54.91994     161.8489        12     1.268     0.827  54.46   0
        75    618.3766    900.2708 307.6561782  +6.3162863     805.2112     1316.575     1517.497     77.73064     155.7094     311.5428      1.806     4.99     852.8164     54.91994     120.8076         9     0.949     0.743  12.16   0
        76    629.6723    898.8298 307.6515358  +6.3172582     619.1788     796.0997     519.5435     77.97859     155.8333     311.5428      1.529     3.75     852.7324     54.91994     127.6247         5     1.055     0.383  74.01   0
        77    673.1816    897.0547 307.6335275  +6.3194430     2315.316     3817.197      4279.15     77.60638     155.8333     311.3568      1.812     4.90     852.4496     54.91994     281.0847        21     1.425     0.955  45.10   0
        78    833.7236    893.2136 307.5669882  +6.3263806     712.9033     1326.392      1548.23     77.73064     155.5854     311.3878      1.714     5.00     850.6311     54.91994     105.9669         7     1.511     0.467  52.12   0
        79    213.4224    892.1989 307.8246067  +6.3060743     1950.266     3285.594     3290.158     77.73064     155.5234     311.2949      1.756     5.02      852.662     54.91994     266.3577        22     1.570     0.972  43.41   0
        80     69.8685    892.9342 307.8841906  +6.3009564      2754.95     4751.017     5061.768     78.10226     155.8953     311.6047      1.920     4.45     850.2454     54.91994     343.6929        25     1.450     1.086  58.66   0
        81     87.2841    892.3931 307.8769773  +6.3017642     1858.911     2896.538     3329.864     77.73064     155.5234     311.4189      1.744     4.65     850.4795     54.91994     233.2101        20     1.326     0.953  36.21   0
        82    951.4438    892.3647 307.5181305  +6.3306500     725.9808     1087.057     886.3905     77.85471     155.7714     311.4498      1.514     4.41     847.5663     54.91994     112.3439         7     0.971     0.569  32.57   0
        83    247.2628    888.9316 307.8106648  +6.3085572      734.725     1124.177     1241.458     78.10226     155.7714     311.6357      1.805     6.34     853.1266     54.91994     97.97632        11     1.367     0.825  41.67   0
        84    667.9139    886.1865 307.6360792  +6.3237543     6334.881     10750.08     11882.72     77.73064     155.6474     311.4808      1.836     4.20     852.2395     54.91994     807.1074        39     1.579     1.185  45.19   0
        85    352.0226    887.8107 307.7672013  +6.3125278     835.7723     1565.466     2476.478     77.73064     155.6474     311.4498      2.455     5.40     853.5987     54.91994     115.1431        12     1.219     0.915  17.86   0
        86    805.2145    887.0236 307.5790344  +6.3279865     767.8042     955.9847     871.2305     77.85471     155.6474     311.4808      1.494     5.23     850.8282     54.91994     111.4557         9     1.115     0.777  10.99   0
        87     27.9327    884.4977 307.9018880  +6.3030317     1061.727     1883.541     1556.345     78.10226     155.8953     311.6048      1.833     7.12     849.4008     54.91994     125.4245        15     1.270     1.119  32.70   0
        88    905.6383    882.3972 307.5374856  +6.3332409     2406.533     4359.042     4647.562     77.23237     155.5854     311.3568      1.938     4.62     848.7893     54.91994      320.635        25     1.462     1.113  45.35   0
        89     40.8243    882.7917 307.8965925  +6.3041688     882.4792     1480.047     1324.731     77.73064     155.6474     311.4189      1.894     4.83     849.6006     54.91994     123.6727         9     1.005     0.905  54.87   0
        90    350.8885    879.2814 307.7679590  +6.3160113     15271.85      24765.8     26031.12     77.85471      156.019     311.6667      1.719     4.02     853.4111     54.91994     2061.835        47     1.577     1.170  43.43   0
        91     85.4189    880.1560 307.8781642  +6.3067537     1243.127     2079.875     1946.981     77.60638     155.7094     311.3568      1.823     4.44     850.3426     54.91994     175.9532        14     1.231     0.781  45.64   0
        92    221.6807    878.6241 307.8216345  +6.3119555     1394.302     2171.186     2113.897     77.85471     155.5854     311.5118      1.709     6.16     852.7736     54.91994      176.323        15     1.324     0.806  42.52   0
        93    401.7292    878.3123 307.7468797  +6.3181125     741.1632     1004.693     416.1033     78.22575     156.0809     311.5738      1.522     5.28      853.585     54.91994     99.19299         9     1.131     0.695  -2.64   0
        94    679.9380    871.3512 307.6315830  +6.3302805     572.0638     1010.929     1455.246     78.10226     155.7714     311.6357      1.747     5.73     851.8444     54.91994     85.38977         6     1.409     0.655  16.38   0
        95    428.5877    869.9966 307.7360059  +6.3224441      959.491     1520.964     1427.348     77.73064     155.5234     311.4498      1.702     5.79     853.3209     54.91994     149.3976        14     1.314     0.862  35.14   0
        96    114.2209    869.9205 307.8665495  +6.3119458     1458.778     2605.129     2516.667     77.73064     155.5234     311.5738      1.871     5.56     850.7716     54.91994     183.8641        18     1.428     0.881  53.08   0
        97    682.2651    866.0602 307.6307940  +6.3325426     792.9795     1667.707     2091.894     78.10226     155.7714     311.6048      2.212     5.80     851.7292     54.91994     117.5567        10     1.576     0.600  57.77   0
        98    508.9637    866.6254 307.7027419  +6.3265229      638.538     912.3014     1056.296     77.73064     155.6474     311.3568      1.615     4.70     852.3481     54.91994     106.3786         7     0.971     0.645  56.58   0
        99    895.9632    864.1082 307.5421149  +6.3404699     1709.176     3107.575     3258.055     78.22575     155.7714     311.6047      1.913     5.27     848.7426     54.91994     200.8188        21     1.531     0.939  40.66   0
       100    866.7040    863.5838 307.5542833  +6.3397122     1920.682     3138.254     2903.862     77.97859     155.6474     311.4498      1.668     4.03     849.7528     54.91994     240.4691        20     1.422     0.869  45.26   0
       101    830.0569    863.0211 307.5695210  +6.3387240     2521.637     4545.127     5183.535     77.73064     155.7714     311.3878      1.910     4.60     850.1877     54.91994     317.0709        27     1.589     1.041  49.57   0
       102     97.7989    863.2448 307.8735935  +6.3141509     2321.445     3800.956     4424.531      77.4819     155.4613     311.1708      1.748     4.44     850.4392     54.91994     292.5888        23     1.442     1.044  44.83   0
       103    565.9798    854.4971 307.6794718  +6.3334351     315770.5     507038.1     538874.4     77.97858     155.6474     311.3568      1.767     4.10     852.1101     54.91994     41316.43       197     1.830     1.400  45.30   0
       104    410.2177    857.0339 307.7440697  +6.3271815     7116.997     11782.29     12409.61     77.73064     155.6474     311.3878      1.769     4.24     853.2333     54.91994     900.1762        35     1.530     1.098  47.85   0
       105    653.7556    857.6810 307.6429140  +6.3350508     1182.505      1746.54     1859.897     78.10226     155.8333     311.5428      1.633     6.05     851.8336     54.91994     152.4913        14     1.266     0.860  38.14   0
       106    353.4071    855.4249 307.7677150  +6.3259449      11998.3     18978.96     20087.25     77.60638     155.7094     311.4189      1.739     4.22     852.9586     54.91994     1589.835        42     1.549     1.138  40.50   0
       107    671.8192    851.8031 307.6356096  +6.3380803      3256.94     5245.073     5682.928     77.73064     155.3992     311.3878      1.737     4.75     851.6462     54.91994     400.8223        24     1.546     0.920  48.89   0
       108    904.2753    850.6064 307.5391145  +6.3463211     4669.321     8111.878     9067.274     77.73064     155.3371     311.4189      1.889     4.13     848.2449     54.91994     627.9756        36     1.552     1.202  35.88   2
       109    898.0656    850.7249 307.5416893  +6.3460654     490.6515     799.3475     805.2457     78.22575     155.8333     311.5118      1.611     4.34     848.4487     54.91994     87.77539         5     1.353     0.397   0.15   3
       110    743.0759    847.7118 307.6061551  +6.3421461     702.9434     1024.394     1080.933     78.10226     156.1427     311.6667      1.500     5.06     851.1556     54.91994     132.8179         8     1.096     0.659  45.87   0
       111    646.5741    845.8541 307.6462928  +6.3396941     3278.813     5291.146     6150.263     77.73064     155.9572     311.4189      1.836     4.32     851.7622     54.91994     471.4644        25     1.384     1.107  51.65   0
       112    835.1005    844.8091 307.5680358  +6.3464112     1461.469     2345.883     2248.178     77.85471     155.4613     311.3878      1.650     4.76     849.8193     54.91994     198.2728        18     1.333     0.964  56.29   0
       113    960.6269    844.4070 307.5159194  +6.3507559     531.9539     1070.578     1477.205     77.60638     155.7094     311.3878      1.632     3.92      846.062     54.91994     87.15051         5     1.040     0.423 -75.73   0
       114    636.8197    844.3994 307.6503923  +6.3399692     1044.464     1702.287     2506.944     77.73064     155.3992     311.2639      1.916     4.27     851.8049     54.91994     141.6716        14     1.154     0.867  31.14   3
       115    639.5040    840.1320 307.6494206  +6.3418206     1971.927     3341.743     3957.415     77.97858     155.9572     311.6048      1.942     3.94     851.7411     54.91994     296.4666        19     1.323     0.965  38.24   3
       116    923.0156    838.4228 307.5317391  +6.3519751     2909.733     5102.732     5835.429     77.85471     155.6474     311.4808      1.898     4.19     847.3973     54.91994     352.3438        31     1.671     1.108  40.74   0
       117    332.8920    839.0747 307.7767839  +6.3320085     922.4291     1481.288     1402.536     78.10226     155.9572     311.5738      1.617     4.49      852.704     54.91994     125.4043         9     0.961     0.863  62.54   0
       118    381.2130    834.2746 307.7568791  +6.3356075     2682.188     4181.743     4191.329     77.60638     155.5234     311.3878      1.673     4.35     852.6685     54.91994     354.5405        23     1.489     0.932  44.02   0
       119    517.5386    824.1498 307.7006066  +6.3443461     2966.943     4630.109     4758.545     78.10226     155.7714     311.6357      1.670     4.03     851.7466     54.91994      464.051        25     1.400     1.018  44.78   0
       120    862.2294    823.1221 307.5574949  +6.3562686     862.6912     1457.378     1828.224     77.97858     155.8953     311.6047      1.728     5.66     849.0656     54.91994     116.9131        14     1.369     0.760  54.12   0
       121    582.8998    821.7565 307.6735435  +6.3475175     761.7313     1016.284      1064.65     78.10226     155.7094     311.7906      1.406     3.96     851.6331     54.91994     140.8877         6     0.997     0.449  36.99   0
       122    564.3406    820.2637 307.6813010  +6.3475140     5602.446     9031.501     9925.792     78.22575     155.7714     311.6048      1.753     4.09     851.5751     54.91994     721.7186        31     1.469     1.088  45.52   0
       123    275.6439    820.7884 307.8011721  +6.3376412      698.754     1093.893     925.9885     77.60638     155.7094     311.2949      1.745     5.86     852.3363     54.91994     124.8808        10     1.362     0.710  52.35   0
       124    571.2084    819.9713 307.6784587  +6.3478641     1168.545     2528.148     2831.588     77.73064     155.6474     311.3878      2.294     6.66     851.5853     54.91994     157.3382        20     1.444     1.181  40.01   1
       125    900.1768    818.4910 307.5418903  +6.3594442       1333.5     2041.341     1980.136     78.10226     155.6474     311.4189      1.688     4.80      847.816     54.91994     176.5759        15     1.331     0.832  56.60   0
       126    481.9827    819.1527 307.7155400  +6.3452208     1402.517     2218.061     2262.802     77.60638     155.7714     311.3568      1.712     4.04     851.8801     54.91994     213.1309        16     1.312     0.814  49.47   0
       127    123.5764    818.3719 307.8644015  +6.3335414     1207.525     2036.218     2169.916     77.60638     155.7094     311.4189      1.846     4.84     849.7342     54.91994     141.8828        15     1.272     0.865  45.41   0
       128    535.1090    814.1747 307.6936447  +6.3490515     18327.61     29806.13     31697.79     78.22575     155.5854     311.4189      1.758     4.14     851.5105     54.91994     2235.715        52     1.665     1.171  43.44   0
       129    699.7631    816.6898 307.6251814  +6.3535096     734.3651      1086.73     1147.038     78.22575     155.7714     311.6048      1.694     4.32     851.1164     54.91994     125.5305         7     1.019     0.634  21.98   0
       130    376.4413    816.1235 307.7594707  +6.3429417     714.7613     1182.416     931.6619     77.97859     155.8333     311.6048      1.800     7.25     852.3244     54.91994      102.054        11     1.385     1.062  22.29   0
       131    948.7433    812.4998 307.5219208  +6.3635341     3229.154      5543.02     5490.128     77.85471     155.8333     311.7906      1.848     4.37     846.0344     54.91994     418.9854        29     1.560     1.047  44.38   0
       132     68.3807    810.2195 307.8875967  +6.3350551     604.2686     973.5154     1049.453     77.85471     155.7714     311.5118      1.663     5.02     848.5061     54.91994       104.17         7     1.062     0.672  81.08   0
       133     45.4670    804.4093 307.8973077  +6.3366847     1433.596     2519.558     2184.369     77.60638     155.6474     311.5118      1.836     5.72      848.209     54.91994     193.7429        16     1.362     0.918  48.79   0
       134    327.5947    802.9290 307.7801992  +6.3467542     3171.775     5155.323     5373.209     77.60637     155.4613     311.4498      1.746     4.26     852.1305     54.91994     474.0492        27     1.469     1.103  52.57   0
       135    174.7960    805.2612 307.8435736  +6.3406720     455.4016     567.0696     164.1159      77.4819     155.5854     311.2949      1.235     4.24     850.7966     54.91994      74.1261         6     0.770     0.667  72.57   0
       136    793.2772    798.7431 307.5869463  +6.3640370     50961.55     83590.56     88705.74     78.10226     155.7714     311.5428      1.763     4.43     849.6262     54.91994      6594.99        77     1.700     1.253  42.89   0
       137     27.6498    801.0544 307.9048196  +6.3374715     2049.659     3611.845     3949.055     78.10226     155.8333     311.6048      1.840     4.59      848.056     54.91994     320.1932        22     1.426     1.010  38.69   0
       138    731.9221    800.3096 307.6123747  +6.3613450     642.8072     864.9828     1224.268     77.85471     156.0809     311.6048      1.530     5.23     850.5581     54.91994     109.5659         7     1.217     0.635  41.73   0
       139    250.1123    775.2304 307.8133078  +6.3555947     774570.8      1843600      2075630     78.22575     155.6474     311.5118      2.351     6.65     850.8291     54.91994     63693.28       668     2.814     2.227  74.11   4
       140    436.5789    797.1512 307.7351343  +6.3527863     716.8486     1257.612     1195.419     77.60638     155.8953     311.4498      1.947     5.22     851.7194     54.91994     98.20856         8     1.235     0.624  49.45   0
       141    918.4665    793.9761 307.5351141  +6.3701744     7740.518     13224.44     14471.46     77.73064     155.8333     311.5118      1.866     4.31     846.7678     54.91994     975.6777        44     1.773     1.147  46.03   0
       142    721.3366    793.1917 307.6170092  +6.3639308     19917.16     33786.75     37184.35     77.60638     155.5854     311.3878      1.829     4.46      850.412     54.91994     2661.432        49     1.768     1.110  47.85   3
       143    715.1824    789.8006 307.6196787  +6.3651256     81399.57       132766     140909.9     77.73064     155.3992     311.2639      1.762     4.27     850.3406     54.91994     10625.23        90     1.727     1.260  50.76   3
       144    360.0578    790.6837 307.7671296  +6.3528964     19364.66     31564.78        33547     78.10226     155.8333     311.6357      1.776     4.15     851.6025     54.91994     2514.941        55     1.644     1.186  42.68   0
       145    409.3073    790.9435 307.7466684  +6.3544371     1380.422     2283.757     2048.873     77.97858     155.7714     311.7286      1.792     5.84     851.5214     54.91994      175.656        16     1.457     0.897  50.43   0
       146    421.9760    788.5148 307.7414888  +6.3558635     20935.92     33619.45     35702.98     78.10226     155.5854     311.4189      1.758     4.29     851.4074     54.91994     2755.414        57     1.680     1.167  44.10   0
       147    958.8694    787.4902 307.5185512  +6.3741967     1752.556     3036.625     3252.104     78.10226      156.019     311.5738      1.905     5.00     845.2474     54.91994     207.6939        21     1.423     1.033  67.64   0
       148    915.4634    785.3444 307.5366499  +6.3736383     6170.458     10343.55     11611.59     78.22575     155.8333     311.5738      1.881     4.32      846.595     54.91994     809.0229        37     1.608     1.153  43.88   0
       149    887.6458    785.9062 307.5481840  +6.3724803     775.5387     1046.238     712.3158     77.97858     155.7714     311.6977      1.451     5.47     847.4595     54.91994     106.3029         9     1.029     0.820  68.19   0
       150    655.9570    784.3906 307.6444563  +6.3653834     6068.967     9726.601     10190.61     77.60637     155.6474     311.3259      1.719     4.05     850.3795     54.91994     800.6128        34     1.542     1.060  40.38   0
       151    444.6624    782.5269 307.7322685  +6.3590944     1531.569     2550.273     2367.075     78.22575     155.8333     311.6357      1.764     5.42     851.1157     54.91994     200.2223        18     1.510     0.788  50.11   0
       152    169.4129    781.5471 307.8466077  +6.3502819     719.3583     1036.359     626.8041      77.4819     155.7714     311.3259      1.530     4.43     849.9825     54.91994     98.26263         7     1.137     0.492 -88.83   0
       153    883.5389    775.6207 307.5502337  +6.3765901     724.1155      886.691      495.428     77.73064     155.8333     311.5118      1.330     4.08     847.2955     54.91994     109.7408         7     1.196     0.397  74.53   0
       154    608.8526    776.1644 307.6642946  +6.3672075     767.0817     1172.458     1421.503     77.97858     155.8333     311.5738      1.780     5.37     850.2573     54.91994       111.79         7     1.283     0.633  44.17   0
       155    159.7914    774.8406 307.8508292  +6.3527280     978.7558     1527.589     1483.094      77.4819     155.6474     311.2949      1.748     4.00      849.639     54.91994     147.1905        15     1.129     0.963  89.98   0
       156    134.9606    775.0536 307.8611336  +6.3518073      949.084      1500.82     1547.554     77.97859     155.8953     311.5738      1.779     5.07     849.1116     54.91994     127.1344        12     1.140     0.842  47.12   0
       157    691.1440    774.3954 307.6301780  +6.3706841     2265.119     3601.668      3848.99      77.4819     155.6474     311.2949      1.769     4.35     849.7254     54.91994     280.3772        21     1.448     0.940  41.32   0
       158    424.8857    771.1736 307.7408630  +6.3631204      49839.7     81591.34     86881.05     78.22575     155.5854     311.4498      1.767     4.30     850.6026     54.91994     6707.506        83     1.693     1.286  44.05   0
       159    542.6664    770.1987 307.6919819  +6.3674600     6476.726      10350.2      10898.7      77.4819     155.4613     311.3568      1.727     4.33     850.3712     54.91994     842.3516        36     1.591     1.036  43.00   0
       160    459.4560    768.7673 307.7265870  +6.3652699     4261.451     6980.231     7865.727     77.97859     155.8953     311.5738      1.852     4.33     850.5534     54.91994     601.2015        31     1.549     1.077  47.01   1
       161    787.8326    766.8480 307.5902752  +6.3770240     10656.97     17533.79     18311.34     77.85471     155.8333     311.5118      1.750     4.31     848.6614     54.91994     1516.007        44     1.628     1.123  44.48   0
       162     17.2499    763.0220 307.9104211  +6.3528238      984.785     1749.914     1615.691     77.60638     155.8953     311.4498      1.880     6.33       848.02     54.91994     130.9501        13     1.492     0.754  47.29   0
       163    455.8487    762.1945 307.7283059  +6.3678629     2279.408     3675.085     3769.359      77.4819     155.6474     311.2639      1.673     4.39     850.2724     54.91994     316.2565        21     1.330     0.968  46.36   1
       164    145.5621    758.7887 307.8572790  +6.3588779     10726.29     17716.31      19424.3     77.60638     155.6474     311.2639      1.792     4.36     848.9318     54.91994      1449.61        45     1.640     1.149  44.49   3
       165    137.7528    756.1899 307.8606097  +6.3596889     2673.695     4584.864     5464.802     77.60638     155.7094     311.2328      1.863     5.54     848.7474     54.91994     363.2192        24     1.669     0.889  40.51   3
       166    809.2618    760.9362 307.5815733  +6.3801789     1144.764     1750.172      2169.42     78.10226     155.8333     311.6048      1.710     5.37       848.16     54.91994     173.1075        11     1.102     0.738  46.82   0
       167    153.7758    759.0479 307.8538594  +6.3590463     2756.914      4581.26      4603.54     77.73064     155.8333     311.4808      1.805     4.21     849.0488     54.91994     346.3112        25     1.462     1.022  33.35   0
       168    933.4023    755.4186 307.5302000  +6.3865908     5776.621     9413.855     10137.19     77.73064     155.3992     311.3259      1.794     4.43      845.195     54.91994     723.4495        35     1.656     1.047  44.01   0
       169    982.3517    755.1779 307.5098783  +6.3883187     1192.823     1922.275     2245.217     77.73064     155.8333     311.4498      1.712     5.18     844.2874     54.91994     145.0394        12     1.198     0.806  21.64   0
       170    688.7543    753.0137 307.6318870  +6.3794321     1593.505     2704.955     3108.998      77.4819     155.6474     311.3568      1.808     5.43     848.6888     54.91994     229.3091        18     1.412     0.879  38.93   0
       171    575.6472    752.2604 307.6788867  +6.3759678     2281.869     3488.485     3872.067     78.10226     155.8333     311.6357      1.714     4.98     849.5329     54.91994     315.0278        22     1.546     0.962  43.57   0
       172    423.7804    751.7111 307.7419760  +6.3711187     1071.358     1740.202     1995.938     77.97859     155.5854     311.4808      2.003     5.94     849.7553     54.91994     134.3792        12     1.455     0.682  53.34   0
       173    137.7346    749.7032 307.8608358  +6.3623663     1897.066     3260.719     3767.439     78.10226     155.8953     311.6048      1.925     5.17     848.6124     54.91994     230.1432        21     1.380     1.004  57.44   1
       174    956.9849    747.0124 307.5206866  +6.3908462     2558.203     4364.961     4545.516     77.97859     155.5234     311.5118      1.844     4.47       844.61     54.91994     331.2832        26     1.562     1.018  54.15   0
       175    927.3481    747.2521 307.5329874  +6.3897610     2777.616     4783.778      5224.08     78.34904     155.7094     311.5738      1.872     4.31     845.0946     54.91994     358.6763        29     1.509     1.167  41.98   0
       176    679.8989    746.6432 307.6357782  +6.3817669      1337.83      2155.97     2992.631     78.10226     155.7094     311.7906      1.965     5.40      848.309     54.91994     176.0333        18     1.484     0.834  38.14   0
       177    987.8555    746.3347 307.5078879  +6.3921529      1866.89     3060.717     3101.507     78.22575     155.7094     311.5738      1.743     4.32     844.1398     54.91994     236.8285        20     1.319     1.058  36.14   0
       178    826.8805    744.9531 307.5747908  +6.3873649     1057.265     1623.795     1504.985     78.10226     155.8333     311.5738      1.546     5.55     847.4399     54.91994     138.3963        11     1.303     0.667  69.32   0
       179    901.5772    742.2493 307.5438580  +6.3909688     778.2878     1435.255     1533.595     77.73064     155.8953     311.4808      1.868     5.76     845.7433     54.91994     99.00415        10     1.215     0.770 -81.57   0
       180    252.3823    741.3588 307.8135050  +6.3696548     1737.018     2790.916     3790.438     77.60638     155.6474     311.3568      1.853     3.87     849.6163     54.91994      223.484        16     1.167     0.923  48.11   0
       181    945.0698    737.0462 307.5259683  +6.3945645     987.7847     1430.363     1205.055     78.10226     155.7714     311.5738      1.442     3.99     844.5626     54.91994     148.5547        11     1.065     0.727  75.65   0
       182    272.4246    737.2637 307.8053194  +6.3720169     744.9036      999.983     762.2902     77.73064     155.8333     311.5118      1.464     4.98     850.2136     54.91994     143.5852         7     1.027     0.684  54.53   0
       183    167.5970    736.5465 307.8488776  +6.3687996     622.4026     938.1879     679.9845      77.4819     155.6474     311.2018      1.542     5.69     848.4526     54.91994     97.91412         9     1.140     0.800  88.00   0
       184    971.8485    734.5377 307.5149302  +6.3964911      2258.34     3554.608     4193.094     77.97859     155.7714     311.6357      1.694     4.22     844.2336     54.91994      307.189        20     1.431     0.875  45.85   0
       185    918.7081    735.7573 307.5369602  +6.3942193     1098.843     1710.193     2038.513     78.10226     155.8333     311.6667      1.699     4.25     845.0411     54.91994     173.8191         9     1.062     0.623  47.67   0
       186    691.3064    733.5817 307.6314782  +6.3875401     905.3127     1543.231     2145.851     77.97859     155.5854     311.4498      2.041     4.60     847.8739     54.91994      155.714        12     1.218     0.696  50.12   0
       187   1013.6603    728.3279 307.4977719  +6.4004456     1488.923     2443.295     1898.815     78.22575     155.8333     311.6357      1.742     5.58      843.542     54.91994     185.6313        18     1.356     0.953  57.00   0
       188    411.6875    728.7196 307.7477707  +6.3802064     610.9621     838.6744      662.022     77.85471     156.0809     311.6977      1.691     3.64     848.7463     54.91994     124.3986         5     0.827     0.530  44.07   0
       189    640.0322    727.7740 307.6529680  +6.3882270     622.4427     843.5356     713.9711     77.60637     155.5854     311.4189      1.442     4.72      847.991     54.91994      104.105         8     1.447     0.436  36.55   0
       190    815.0085    726.5083 307.5803388  +6.3945846     1176.143     1742.888     1381.086     77.73064     155.5234     311.3568      1.683     5.95      847.097     54.91994     152.0256        13     1.215     0.862  39.64   0
       191    901.1912    723.6547 307.5446401  +6.3986331     1425.508     2369.965     3079.396      77.4819     155.7714     311.2949      1.958     5.85     845.3831     54.91994     194.8289        16     1.418     0.788  48.95   0
       192    875.3992    718.4293 307.5555271  +6.3999317     879.4412     1379.726     1895.805      77.4819     155.6474     311.3878      1.914     6.27     845.9223     54.91994     130.6024        11     1.134     0.974  88.59   0
       193    660.9244    718.1257 307.6446145  +6.3929077     648.7174     787.6047      1040.12     78.34904     156.0809     311.6667      1.445     3.64     847.5966     54.91994     116.3539         5     1.203     0.318  63.22   0
       194    858.0779    715.2615 307.5628271  +6.4006628      1497.27     2181.859     2361.131     78.34904     155.8953     311.5738      1.685     5.02     846.1824     54.91994     178.0756        16     1.334     0.826  38.55   0
       195     57.2011    714.0743 307.8954811  +6.3743732     2260.634     3601.429      3910.11     77.35723     155.2749     311.4498      1.669     4.02     847.6522     54.91994      304.302        24     1.456     0.980  59.04   0
       196    121.2300    713.2503 307.8689183  +6.3768622     875.3538     1945.573     1951.138     77.73064     155.9572     311.4808      2.187     7.14     847.5445     54.91994     118.9202        17     1.924     0.743  56.58   0
       197    574.5606    708.8394 307.6807947  +6.3938584     572.5223     664.4399     878.9404     77.85471     155.8333     311.4498      1.216     3.45       848.28     54.91994     79.64685         5     0.788     0.436  68.80   0
       198    670.0139    702.7308 307.6413554  +6.3995670     5777.821     9207.407      10052.4     77.60637     155.7714     311.4808      1.737     4.64     847.2983     54.91994     759.7079        33     1.581     1.042  38.23   0
       199    616.7017    702.0021 307.6635219  +6.3980885     1442.717     2401.428     2646.168     77.60637     155.5854     311.2639      1.779     5.18     847.8805     54.91994     197.6696        17     1.381     0.919  42.17   0
       200    527.7145    702.0737 307.7004780  +6.3950867     765.1282     1297.677     1058.141     78.22575     156.1427     311.5738      1.739     5.84     848.2465     54.91994      106.217        10     1.396     0.687  59.71   0
       201   1006.8946    698.0908 307.5015920  +6.4127047     2197.759     3770.452     3801.531     78.10226     156.3281     311.5738      1.799     4.60     842.7442     54.91994     249.4736        24     1.463     1.013  53.63   0
       202    254.9460    697.9808 307.8139003  +6.3876495     723.9319     1311.244     1551.108     77.60638     155.8333     311.3878      1.847     3.73     847.4887     54.91994     99.83405         5     0.678     0.590 -89.47   2
       203    132.8866    698.5511 307.8645727  +6.3833218     3437.332     5659.335     5764.167     78.10226     155.7714     311.6048      1.793     4.44     847.1237     54.91994     455.0745        27     1.508     1.012  43.05   0
       204    643.7694    698.4017 307.6524006  +6.4004785      2023.07     3201.953     3782.753      77.4819     155.6474     311.3878      1.728     4.08     847.5215     54.91994     289.0653        19     1.337     0.993  32.97   0
       205    319.4987    698.2805 307.7870809  +6.3896880     717.8246     960.2509     1067.255     77.97859     156.2045     311.6357      1.335     5.07     847.8108     54.91994     105.9268         9     1.255     0.580  59.59   0
       206    786.8892    694.8443 307.5930776  +6.4067207     18699.25     30204.16     31688.76     78.10226     155.7714     311.6047      1.725     4.22     846.8026     54.91994     2690.962        48     1.611     1.132  43.14   0
       207    916.8209    694.6017 307.5391200  +6.4111485     3426.664     5476.437      5938.38     77.73064     155.5234     311.2949      1.739     4.54     844.5651     54.91994     462.3939        26     1.474     0.994  48.38   0
       208    514.0156    694.6859 307.7064154  +6.3976791     866.4244     1346.186     985.1882     77.73064     155.5854     311.4808      1.701     6.09     848.0436     54.91994     112.8001        13     1.323     0.788  57.45   0
       209    486.1400    695.0942 307.7179791  +6.3965788       1238.3     2067.639     2080.723     77.97858     155.8333     311.6357      1.637     5.87     848.1123     54.91994     180.4383        17     1.567     0.777  43.16   0
       210    331.4953    694.7303 307.7822180  +6.3915554     623.1373      612.429     667.1406     77.97859     155.8953     311.6048      1.196     4.40     847.5846     54.91994     104.1808         5     0.800     0.709  53.04   0
       211    667.3922    687.5988 307.6429515  +6.4057270     6590.208     10607.83     11621.59      77.4819     155.5234     311.3878      1.760     4.36     847.1399     54.91994      930.728        35     1.552     1.090  46.39   0
       212    260.2939    688.3945 307.8120019  +6.3917865      5800.38     9237.207     9473.022     77.73064     155.5234     311.3568      1.716     4.16     846.9999     54.91994     770.8602        31     1.529     1.030  45.73   0
       213    649.6447    688.2117 307.6503021  +6.4048817     879.3428     1530.517     1697.752     77.60638     155.7094     311.2949      1.745     4.67     847.3187     54.91994     124.7697         9     1.136     0.598  50.90   0
       214    362.8275    687.6430 307.7694435  +6.3955303     713.8071      1270.02     1269.984     77.73064     155.8953     311.4808      1.779     6.34      847.218     54.91994     113.2469        12     1.570     0.719  30.17   0
       215    927.2380    680.1150 307.5352777  +6.4174763     1417.672     2119.338     1756.031     78.10226     155.8333     311.5738      1.622     4.50     844.2543     54.91994     197.5296        16     1.305     0.889  64.72   0
       216    739.0028    676.0022 307.6135976  +6.4129036     3478.169      5569.71     5958.218      77.4819     155.3992     311.3259      1.662     4.28     846.8443     54.91994     430.6326        25     1.444     0.991  46.93   0
       217    694.4815    676.5182 307.6320717  +6.4112056      889.668     1481.653     1271.415     78.10226     156.0809     311.6667      1.810     3.75      846.923     54.91994     135.4952         8     0.994     0.582  48.80   0
       218   1005.4422    672.7506 307.5030418  +6.4231187     8178.752     13490.34     14597.85     78.10226     155.7714     311.5428      1.819     4.22     842.0587     54.91994      998.218        40     1.612     1.155  42.87   0
       219    943.7709    672.9685 307.5286497  +6.4209771     2311.642     3808.995     4010.585     77.60637     155.5854     311.3259      1.758     3.96     843.7533     54.91994     303.4449        25     1.465     0.979  49.31   0
       220     24.6692    672.3421 307.9103990  +6.3905099      1679.28     3006.344     3637.656     78.22575     155.7714     311.5118      2.089     4.87     847.1699     54.91994     225.6011        21     1.514     0.976  45.95   0
       221     82.6987    667.4657 307.8864637  +6.3944714     24143.42     39095.14     41766.74     78.10226     155.8953     311.5738      1.782     4.26     846.6102     54.91994     3319.625        61     1.683     1.219  42.72   0
       222    543.8497    668.2768 307.6949110  +6.4095793     1969.765     3358.761     3481.167     77.97859     155.8953     311.5738      1.783     4.39     847.0288     54.91994     255.2552        23     1.415     1.049  58.71   0
       223    440.4571    669.7638 307.7378032  +6.4055092     428.5531     550.6288     622.8483     77.97859     155.8333     311.6048      1.159     3.40     846.8554     54.91994     83.55768         5     0.763     0.439 -67.82   0
       224    933.5782    664.6431 307.5331615  +6.4240753     844.2582     1343.186     1416.564     77.60638     155.7094     311.3878      1.802     5.99     843.8597     54.91994     113.3577        11     1.269     0.796  50.37   0
       225    512.6053    665.2758 307.7079885  +6.4097743     1209.741     2062.431     1978.333     77.73064     155.3371     311.4498      1.962     5.43     847.0256     54.91994     156.9617        15     1.356     0.861  52.48   0
       226    553.0281    662.2057 307.6913026  +6.4123925     1110.033     1680.324     2106.951     77.60638     155.6474     311.3878      1.811     5.16     846.8488     54.91994     155.9133        10     1.108     0.679  45.19   0
       227    728.5828    659.5815 307.6184755  +6.4193357     3349.047     5333.718     5624.063     77.85471     155.5854     311.5118      1.726     4.56     846.4061     54.91994     495.3067        25     1.475     1.084  51.41   0
       228    750.7652    657.9834 307.6093157  +6.4207352      3830.01     6267.287     6088.045     77.73064     155.5854     311.4189      1.716     4.45     846.1851     54.91994      535.985        29     1.509     1.051  53.69   0
       229    582.1713    655.8062 307.6794131  +6.4160081     2905.829     4729.123     4812.891     77.60637     155.6474     311.3878      1.648     4.42     846.7406     54.91994     414.2147        24     1.591     0.891  41.67   0
       230    418.2448    656.1752 307.7474851  +6.4103764     1140.429     2023.299     2321.104     77.60638     155.8333     311.4498      2.005     5.07      846.293     54.91994     164.0427        12     1.246     0.729  43.97   0
       231    242.9579    655.5229 307.8203083  +6.4047767      1621.98     2557.049     2422.358     77.97858     155.8333     311.6048      1.735     4.24     845.5888     54.91994     249.2848        19     1.353     0.910  37.81   0
       232   1023.0310    653.8415 307.4963679  +6.4315106     4122.342     5414.114     5566.264     74.56179     132.7564     244.4277      1.415     3.52     840.8915     54.91994     574.1313        21     1.341     0.840  78.94  24
       233    326.3474    654.8107 307.7856986  +6.4078641     1282.967      2102.01     1958.689      77.4819     155.7714     311.3259      1.739     5.13     845.7582     54.91994     184.1049        15     1.309     0.817  51.30   0
       234    988.9738    652.9728 307.5105428  +6.4307366     7128.238     12107.38     12564.99     77.60638     155.6474     311.4189      1.803     4.49     841.9056     54.91994      878.839        38     1.593     1.112  49.06   0
       235    542.7543    653.2566 307.6958700  +6.4157440      558.699     918.8696     1032.493     78.10226     155.8333     311.6048      1.859     6.26     846.5079     54.91994     91.52527         9     1.518     0.725  40.96   0
       236    708.8739    651.5914 307.6269293  +6.4219772     1075.081     1627.679      1988.27     77.73064     155.3992     311.4189      1.585     4.43     846.0986     54.91994     176.1973        15     1.325     0.878  63.07   0
       237    100.6952    649.6894 307.8795889  +6.4024143     691.5887     1143.834     1120.816     78.10226     156.2045     311.6357      1.772     4.05     846.1548     54.91994     122.9832         6     1.137     0.520  28.51   0
       238    434.3069    647.1445 307.7411175  +6.4146422     2616.902      4488.46     4927.236     77.97859     155.8333     311.7596      1.905     4.37     846.1799     54.91994     347.6886        27     1.443     1.218  57.74   0
       239    147.4813    646.3776 307.8602695  +6.4053513     22905.14     36800.02     38058.98     77.85471     155.5234     311.5118      1.765     4.37     845.5536     54.91994      3049.02        52     1.604     1.191  44.60   0
       240    816.0377    646.7861 307.5825797  +6.4275338     1088.378     1774.002     2132.738     77.73064     155.6474     311.2949      1.781     4.33     844.8704     54.91994     192.3079        13     1.260     0.815  50.57   0
       241    366.7126    641.2343 307.7693904  +6.4148206     776.9194     1191.413     1607.465     78.10226     155.7094     311.5738      1.590     4.45     845.3316     54.91994     106.9896         9     1.105     0.703  53.49   0
       242    983.9984    635.9659 307.5131777  +6.4375928     6127.752     10816.82     12039.59     77.23236     155.6474     311.3568      1.914     4.35     841.5651     54.91994     779.5694        42     1.882     1.097  39.31   0
       243    577.4913    631.2292 307.6821815  +6.4259988     45875.02     71996.54     76171.98     78.22575     155.5854     311.5118      1.724     4.26     845.7902     54.91994     6363.738        73     1.669     1.204  43.84   0
       244    942.3990    633.3232 307.5305449  +6.4372999     612.2039     877.4871     495.0244     77.35724     155.2749     311.3568      1.681     5.83      842.903     54.91994     81.84454         7     1.215     0.787  43.32   0
       245    536.3443    631.3241 307.6992686  +6.4245850     706.5136     1236.396     1546.332     78.10226     155.7714     311.5118      1.856     3.92     845.7477     54.91994     105.2043         8     0.830     0.795  74.78   0
       246    801.5256    630.2099 307.5891623  +6.4338940     523.4517     752.5765     497.1071     77.73064     155.4613     311.4498      1.805     4.11     844.3289     54.91994     80.25079         6     1.057     0.455  31.44   0
       247    185.0074    627.8465 307.8453084  +6.4142605     2467.817     3869.943     3897.951     77.60638     155.6474     311.2328      1.699     4.54     844.7916     54.91994     310.6964        21     1.408     0.939  46.53   0
       248    507.0523    627.6296 307.7115589  +6.4251314      547.624     969.7798     770.9933     77.85471     155.9572     311.4808      1.698     4.54     845.6738     54.91994     89.24945         6     0.867     0.675  37.45   0
       249     28.4602    635.2045 307.9100774  +6.4059694     1129.454     1932.803      1852.91      77.4819     155.7094     311.3568      1.796     4.64      846.676     54.91994     175.4357        14     1.284     0.885  39.66   0
       250     77.6145    621.8757 307.8901124  +6.4131225     1237.824     1985.415     2033.422     77.60638     155.5854     311.4189      1.622     5.39     845.9365     54.91994     181.8408        13     1.364     0.763  42.98   0
       251    474.7609    615.0314 307.7253941  +6.4292532     59212.73     94957.08     100278.3     77.73064     155.6474     311.4189      1.718     4.13     845.2183     54.91994     8389.662        78     1.674     1.228  40.86   0
       252     18.1011    616.6474 307.9150058  +6.4132827     1507.219     2575.455     3170.478     78.10226     155.7094     311.7596      2.088     5.34      846.566     54.91994     204.9473        19     1.424     0.939  46.02   0
       253    660.2969    611.9526 307.6484345  +6.4367220     784.8696     1390.349     1329.904     78.10226     155.7094     311.7286      1.800     6.20     844.4094     54.91994     133.1236        11     1.581     0.737  47.58   0
       254    148.8835    609.8503 307.8609180  +6.4204787     1587.314      2400.05     2141.994     78.10226     155.8333     311.6667      1.582     4.70     844.6304     54.91994      217.245        14     1.233     0.811  58.41   0
       255    427.9146    608.0251 307.7450870  +6.4305791     629.3665     1094.808     886.9622     78.22575     155.5854     311.4189      1.786     6.97     845.1533     54.91994     93.73883        10     1.233     1.105 -29.04   0
       256    620.7960    606.8517 307.6650126  +6.4375094     839.5662     1338.863     1259.684      77.4819     155.6474     311.1708      1.691     5.93     844.7568     54.91994     142.0345        11     1.227     0.838  50.60   0
       257    943.2417    606.8146 307.5310811  +6.4482726      553.931     478.8946     181.8453      77.4819     155.6474     311.3259      1.159     3.97     842.2515     54.91994     114.9733         6     0.775     0.581 -32.97   0
       258    320.2115    604.4564 307.7899409  +6.4284478     1902.657     3566.464     3459.143      77.4819     155.7714     311.2639      1.941     4.73     843.8692     54.91994     264.5607        25     1.551     1.122  47.84   0
       259    328.9306    605.7678 307.7862754  +6.4281983     650.8223     994.5545     1269.377     77.97858     155.8333     311.6048      1.753     5.94     843.8369     54.91994     90.39197        10     1.267     0.785  31.86   0
       260     20.8848    606.2302 307.9142012  +6.4176769     563.8081     625.4663     997.4203     78.10226     155.6474     311.4498      1.290     4.90     846.4299     54.91994     84.64148         7     0.959     0.710 -15.36   0
       261    472.3561    602.5887 307.7268109  +6.4343099     861.7773     1239.759     1898.254     77.60638     155.7094     311.2949      1.588     5.18      844.762     54.91994     120.5463         9     1.203     0.630  46.72   0
       262    746.6830    598.5360 307.6130025  +6.4451430     5149.707     8166.558     7938.801     78.22575     155.8953     311.6048      1.701     4.33       844.46     54.91994     737.1708        31     1.559     1.005  46.37   0
       263    800.3500    593.8078 307.5908693  +6.4488841     13035.35     20897.54     22091.38     77.60638     155.5854     311.2639      1.717     4.31     843.3223     54.91994     1900.565        43     1.583     1.100  41.41   0
       264   1017.4810    594.1801 307.5006662  +6.4559586     845.7975     1319.237      771.731     77.85471     155.5234     307.4889      1.564     5.20     839.1293     54.91994     138.5135        10     1.228     0.622  36.62  16
       265    542.3510    593.9313 307.6980288  +6.4402238     1088.227     2017.075     2512.369     78.10226     155.7714     311.5738      2.171     6.33     844.4568     54.91994     128.7561        13     1.251     0.900  78.69   0
       266    624.1993    591.8362 307.6641025  +6.4438224     2804.738     4496.293      4798.66     77.23236     155.6474     311.3878      1.735     4.49     844.3461     54.91994     426.0309        22     1.465     0.907  47.07   0
       267     45.7849    592.8320 307.9043115  +6.4240445      491.292     871.9504     854.7351     77.73064     155.5854     311.4808      1.891     3.91     845.9874     54.91994     84.02063         5     1.347     0.326  59.50   0
       268    941.0938    587.8766 307.5326064  +6.4560200     972.5226     1621.002     2079.438     77.85471      156.019     311.5738      1.899     3.83     841.6537     54.91994      181.486        10     1.138     0.691  67.26   0
       269    382.7085    585.6174 307.7646165  +6.4383178      975.267      1475.78     1415.068     77.85471     155.5854     311.4808      1.639     4.69     843.4891     54.91994     129.9273        12     1.226     0.750  41.09   0
       270    236.8328    585.6738 307.8252038  +6.4334090     1312.249     2173.377      3070.03     77.97859     155.8333     311.5428      2.024     5.60     843.4424     54.91994      149.521        15     1.274     0.916  27.73   0
       271    200.2017    585.6687 307.8404184  +6.4321831       726.97     1102.979      1903.15      77.4819     155.3992     311.4189      1.721     5.17     843.6652     54.91994     133.2805         7     1.220     0.620  77.70   0
       272    876.3698    577.0366 307.5598539  +6.4583409     2625.872     4203.314      4942.05     77.73064     155.5854     311.4189      1.785     4.18     842.8701     54.91994     409.6457        23     1.456     0.938  40.43   0
       273    171.6041    577.2355 307.8525802  +6.4347058     628.4983     1316.569     2429.592     77.23237     155.7094     311.3568      2.890     4.92     843.7761     54.91994     104.9941         6     0.988     0.695  72.22   0
       274    835.1686    574.4864 307.5770534  +6.4580215     2405.828     3743.791     3916.065     78.10226     155.6474     311.5118      1.682     4.21     843.1148     54.91994      333.996        21     1.482     0.879  44.21   0
       275    805.9793    570.6865 307.5893052  +6.4586178      2430.41     3979.051     4659.898     77.97858     155.5854     311.4498      1.856     4.57     843.1147     54.91994     333.5616        25     1.413     1.117  53.14   0
       276    815.7350    565.6867 307.5854202  +6.4610071     149518.9     236317.5     250580.8     78.10226      156.019     311.6048      1.730     4.37     843.0638     54.91994     21948.82       124     1.743     1.294  43.24   0
       277    748.1757    570.6302 307.6133173  +6.4567141     714.3238     1240.774     1909.414     77.60638     155.7094     311.3878      2.679     5.19     843.6468     54.91994     95.03613         8     1.243     0.613  52.11   0
       278    263.0825    569.4183 307.8148483  +6.4409998     7252.719     11710.49     12120.99     77.73064     155.5234     311.5428      1.746     4.19     842.9202     54.91994     905.4606        34     1.563     1.041  46.18   0
       279    197.3459    563.9666 307.8423355  +6.4410471     54420.77     89055.48     96229.65     77.97858     155.8333     311.5118      1.773     4.13     843.2584     54.91994     7486.934        92     1.735     1.331  42.01   0
       280    121.3326    560.1752 307.8740351  +6.4400627     5679.419     9409.491     10159.24     77.73064     155.7094     311.4808      1.806     4.15      844.054     54.91994     703.6981        32     1.521     1.100  46.58   0
       281    986.4051    557.3683 307.5148047  +6.4701236     1323.694     2190.464     2525.148      77.4819     155.7094     311.3568      1.797     4.54     839.1154     54.91994     176.5381        18     1.317     0.963  42.23   0
       282   1007.1634    556.2491 307.5062193  +6.4712761     684.3146     942.9507       464.55     77.85471     155.7714     311.4498      1.592     3.93     838.4147     54.91994       105.53         6     0.916     0.597 -66.50   0
       283    852.3450    553.0804 307.5706350  +6.4674316     4201.508     6661.115       7075.5     78.10226     155.8333     311.6048      1.720     4.48     842.9067     54.91994     608.1704        31     1.611     1.020  40.53   0
       284    234.9655    554.9933 307.8270124  +6.4460129     691.3134      830.676     922.1368      77.4819     155.5854     311.3568      1.383     1.80      842.655     54.91994     149.3614         5     0.575     0.568  -1.50   0
       285    370.7458    551.1296 307.7707449  +6.4521560     15777.06     25707.35     26949.24     77.97859     155.7714     311.5428      1.747     4.20     842.0566     54.91994      2199.08        47     1.636     1.142  42.17   0
       286    172.4874    549.9328 307.8531333  +6.4460074     1837.737     2780.244     3253.104     78.22575      156.019     311.6048      1.610     4.20     843.3145     54.91994     274.7128        17     1.326     0.825  55.60   0
       287    460.6034    550.2542 307.7334506  +6.4555238     711.6947     1319.205     1658.198      77.4819     155.5854     311.2328      2.294     4.77     842.4938     54.91994      111.358         7     1.082     0.597  36.70   0
       288    806.2922    546.2734 307.5899926  +6.4687076     5522.405     8646.092     9344.136     77.97859     155.9572     311.6048      1.729     4.39     842.9114     54.91994     704.0491        28     1.484     0.998  42.39   0
       289    537.1069    546.0206 307.7018154  +6.4598291     6158.403      9612.44     9586.575     77.97859     155.6474     311.3878      1.645     4.05     842.7888     54.91994     768.6598        30     1.481     1.016  47.57   0
       290    247.5799    547.6751 307.8220194  +6.4494571     687.5466     972.5346      552.943     77.73064     155.6474     311.5118      1.692     5.36     842.3667     54.91994     97.67908         8     1.078     0.751  55.33   0
       291    109.7931    547.0424 307.8792707  +6.4450974     926.5899     1260.761      1357.54     77.60637     155.5854     311.2949      1.522     4.64     843.8816     54.91994     140.5955        10     1.196     0.731  36.05   0
       292    395.2546    542.6414 307.7608502  +6.4564807     1343.334     2096.433     2507.389     77.97859     155.8333     311.6048      1.631     5.09     841.8065     54.91994     199.4415        13     1.272     0.707  50.92   0
       293    184.0151    539.2062 307.8487066  +6.4508225     6271.125     10076.24      10731.3     77.73064     155.5854     311.4189      1.737     4.18     842.9582     54.91994      778.672        36     1.593     1.172  36.12   0
       294    823.1680    538.5878 307.5832399  +6.4724431     1252.473         1963     2214.399     77.60638     155.5854     311.4808      1.771     5.28     842.6976     54.91994     164.8898        17     1.400     1.017  37.51   0
       295    581.6901    538.9523 307.6835338  +6.4642368     2200.188      4044.93     4203.035     78.10226     155.7094     311.7286      1.925     4.74     842.7513     54.91994     263.8812        27     1.469     1.216   5.81   0
       296    279.3461    535.6322 307.8092304  +6.4554935     80644.91     130939.3     138679.4     77.97859     155.8953     311.5428      1.786     4.19     841.6576     54.91994      10868.1        92     1.722     1.288  41.88   0
       297     55.7475    537.9521 307.9020249  +6.4470361     4594.319     7914.319     8473.365     78.22575     155.7714     311.5738      1.870     4.70     845.1795     54.91994     645.1213        35     1.638     1.120  44.51   0
       298    568.8167    533.0949 307.6890777  +6.4662251     801.6212     1423.818     1683.429     77.97858     155.6474     311.4189      1.903     5.98     842.4125     54.91994     111.1659        11     1.421     0.709  41.26   0
       299    506.1313    526.5075 307.7153371  +6.4668500     38559.73     65104.33     70586.46     78.10226     155.9572     311.5738      1.867     4.23     841.8721     54.91994      5124.53        83     1.830     1.358  35.91   0
       300    263.0756    530.7813 307.8161518  +6.4569510     1469.616     2347.175     2911.439     77.60637     155.5854     311.5118      1.645     4.66     841.6921     54.91994     195.0433        17     1.370     0.848  50.07   0
       301    802.5063    528.0873 307.5921741  +6.4760899     15195.26     23730.73     24651.55     78.10226     156.2663     311.6357      1.688     4.16      842.449     54.91994     2256.519        47     1.572     1.125  45.30   0
       302    978.7958    529.3176 307.5189031  +6.4814519     1378.184     2277.529     2405.588     77.60638     155.4613     311.2949      1.780     5.86     838.8125     54.91994      200.603        16     1.485     0.807  39.61   0
       303    656.4750    524.9120 307.6529404  +6.4725305     849.5729     1596.506     1691.842     78.10226     156.1427     311.6667      1.876     5.20     842.3569     54.91994     120.9228        12     1.227     0.821  43.37   0
       304    266.6891    523.0316 307.8149117  +6.4602716     729.1613     1153.039      957.262     78.22575     155.6474     311.5118      1.634     5.10     841.3701     54.91994     122.0441         7     1.274     0.577  42.66   0
       305    218.3255    522.7668 307.8350092  +6.4587600     1678.891     2781.726     2805.562     77.97859     155.8333     311.5738      1.734     4.95     842.1631     54.91994     220.2824        23     1.454     1.203  26.39   0
       306    728.3568    520.6276 307.6232251  +6.4766976     1327.221     2344.091     2595.888     77.73064     155.8953     311.4808      1.927     6.68      842.127     54.91994     183.6389        19     1.675     0.791  59.08   0
       307    676.2747    521.5027 307.6448302  +6.4745988     1252.791     1945.772     1871.211     77.73064     155.9572     311.6048      1.686     4.84     842.2676     54.91994      177.093        13     1.460     0.601  47.34   0
       308    666.0078    521.4124 307.6490980  +6.4742935     2833.756     4522.488     4876.881     77.73064     155.6474     311.4808      1.726     4.07     842.2168     54.91994      385.382        22     1.373     0.941  40.57   0
       309     54.0127    522.8169 307.9032561  +6.4532263      1231.85     1782.085     1964.107     77.73064     155.4613     311.4498      1.595     6.06     845.0839     54.91994      163.369        14     1.276     0.810  34.15   0
       310     83.6377    518.2194 307.8911063  +6.4561190     740.7142      1668.17     1939.168     77.73064     155.5854     311.2949      2.422     8.93     843.8923     54.91994     102.1516        14     2.193     1.014  15.32   0
       311    403.7158    517.2231 307.7581902  +6.4672580     1677.468     2589.541     2409.898     77.97859     155.5854     311.4808      1.657     4.67     840.9838     54.91994     220.8341        19     1.433     0.872  46.90   0
       312    335.2244    515.3085 307.7867042  +6.4657558     3708.262     5692.388     5677.148     78.22575     155.6474     311.4189      1.669     4.08     840.6579     54.91994     475.8162        25     1.441     0.972  44.66   0
       313    150.4820    514.0034 307.8634841  +6.4601028     23601.65     38909.12      40910.2      77.4819     155.4613     311.2949      1.777     4.28     842.9589     54.91994     3289.156        56     1.665     1.186  39.84   0
       314    515.0422    514.8303 307.7120278  +6.4719689      1976.99     3386.853     3832.186     77.73064     155.7714     311.4189      1.878     4.41     841.4232     54.91994     270.3153        20     1.362     0.960  38.70   0
       315    878.5472    514.1149 307.5610547  +6.4843919     1421.003     2054.451     1894.002     78.10226     155.7714     311.7286      1.648     4.32     841.2047     54.91994     218.7486        15     1.285     0.839  46.35   0
       316    115.5392    512.3175 307.8780548  +6.4596264     2503.916      4262.35     4457.673     78.22575     155.8333     311.6048      1.817     4.78     843.1506     54.91994     344.1892        24     1.476     1.046  52.69   0
       317    352.3470    510.6671 307.7797480  +6.4682453     1057.007     1400.488      1277.33     78.10226     155.7714     311.4808      1.524     3.85     840.4901     54.91994     140.0816        12     1.152     0.692  42.07   0
       318    976.0539    508.5331 307.5207368  +6.4899419     4925.943     8046.677     8694.454     78.10226     155.7714     311.4808      1.784     4.34     838.6637     54.91994     606.1405        32     1.595     1.025  46.98   0
       319    549.2167    500.9491 307.6982983  +6.4788420      1330.32     2229.832     2092.499     77.60637     155.8953     311.2949      1.792     6.39     840.9246     54.91994     196.3493        15     1.385     0.827  45.21   0
       320     14.7146    498.3314 307.9204049  +6.4620152      23087.9     37517.96     39715.02     78.22575     156.0809     311.6048      1.783     4.26     846.4673     54.91994     3135.026        57     1.660     1.197  37.21   0
       321    447.4607    495.1526 307.7407612  +6.4778334     39894.66     63231.12     66633.98     78.10226     155.7714     311.6357      1.730     4.10     840.4727     54.91994     5422.235        71     1.657     1.227  43.24   0
       322    655.4766    494.8696 307.6543626  +6.4849006      11413.3     17894.66     18455.99     78.22575     155.9572     311.5738      1.697     4.49     841.1142     54.91994      1666.22        37     1.558     1.056  46.55   0
       323    988.8795    493.5015 307.5159114  +6.4965747     936.6992     1603.153     1794.121     77.97858     156.2045     311.6048      1.889     8.25     838.4191     54.91994     129.3906        16     1.794     1.227 -77.27   0
       324      1.5880    493.2613 307.9260282  +6.4636674     6376.381     9155.166     10733.26     70.70823     127.4143      238.431      1.522     3.59     847.0231     54.91994     1547.301        37     1.967     0.904  89.61  24
       325    212.6337    492.7605 307.8383840  +6.4709573     17625.97     29534.73     31610.18     77.85471     155.7094     311.3878      1.809     4.08     841.6638     54.91994     2326.106        56     1.745     1.194  38.44   0
       326    295.3004    494.8964 307.8039744  +6.4728459     838.7303     1304.038     941.1392     78.10226     156.3281     311.4189      1.334     5.17      839.877     54.91994     115.7609         9     1.435     0.527  22.61   0
       327    177.9366    493.6229 307.8527672  +6.4694378     1508.072     2353.071     2086.117     77.73064     155.8333     311.4498      1.606     4.07     842.2758     54.91994      218.338        16     1.278     0.820  32.78   0
       328    918.2881    492.2301 307.5452782  +6.4947506     676.6003      943.554     538.4264     78.22575     155.6474     311.5118      1.588     4.53     839.0997     54.91994     106.1326         7     1.289     0.452  49.97   0
       329    829.4952    492.6192 307.5821504  +6.4916329     739.6717     1251.977     638.8244     77.97859     155.6474     311.3878      1.621     4.68     841.2649     54.91994     112.6278         7     1.069     0.581  65.96   0
       330    577.2076    491.5299 307.6869873  +6.4836660     2662.275     4247.575     4292.351     77.60638     155.4613     311.4808      1.714     4.53     840.6303     54.91994     354.2263        24     1.531     0.892  45.21   0
       331    951.1711    488.7892 307.5317334  +6.4972657     4160.709     6927.236     7282.672     77.60637     155.6474     311.4189      1.761     4.21     838.5417     54.91994     587.7237        32     1.615     1.045  48.00   0
       332    624.3031    487.1843 307.6675698  +6.4870330     6045.713     9516.368     9958.133     77.97859     155.5854     311.3878      1.733     4.12      840.597     54.91994     802.9795        32     1.564     1.008  43.35   0
       333    111.8378    487.5233 307.8804281  +6.4697384     916.5679     1655.592     2230.967     77.97859     155.8953     311.5738      1.947     6.07     842.7103     54.91994      141.795        12     1.394     0.799  63.54   0
       334    973.7901    481.1165 307.5225937  +6.5011861     3126.602      4898.98      5205.48     77.73064     155.5234     311.4189      1.669     5.07     838.3586     54.91994     451.2894        22     1.461     0.874  47.89   0
       335    536.5198    478.5221 307.7043254  +6.4876770     7107.797     11133.54     11889.11     78.34904     156.0809     311.7286      1.751     4.62     839.9501     54.91994     955.0801        35     1.590     1.039  40.37   0
       336    412.1093    479.8444 307.7559603  +6.4829709     676.4333     1117.079     1497.938     78.10226     155.7714     311.6977      2.217     5.16     839.8652     54.91994     102.2659         7     1.196     0.775  54.93   0
       337    382.4262    478.4987 307.7683355  +6.4825332     2455.035     3900.112     4185.424     78.22575     155.5854     311.5118      1.758     4.67     839.4608     54.91994     300.9019        22     1.558     0.874  43.16   0
       338    837.4097    479.4150 307.5793047  +6.4973482     385.7096     338.4592     8.175535     77.85471     155.5854     311.4808      1.494     5.34     840.6879     54.91994     65.84833         5     1.094     0.734  23.38   0
       339    546.2275    476.0289 307.7003766  +6.4890307     596.4517     1158.116     1182.116     77.60637     155.6474     311.3878      1.869     6.42     839.7953     54.91994     79.93939        10     1.717     0.675  36.18   0
       340    893.0508    474.2674 307.5563630  +6.5013267     3055.329     4910.208     6024.413     77.97859     155.7094     311.5118      1.792     4.46     839.1921     54.91994     383.0645        25     1.528     0.953  37.65   0
       341    900.4791    468.7450 307.5534619  +6.5038540     2168.267     3363.669     3691.292     78.22575     155.8333     311.6048      1.718     4.50     838.7216     54.91994     279.8346        20     1.375     0.888  41.48   0
       342    939.2488    467.7582 307.5373893  +6.5055520     1027.976      1268.89      1593.04     78.10226     155.7714     311.5428      1.403     4.57     837.7999     54.91994     173.8032        11     1.053     0.830  34.12   0
       343    119.2943    467.8684 307.8779936  +6.4781032      750.858     1066.995     797.9986     77.97859      156.019     311.6048      1.527     4.37     842.2838     54.91994     120.2886         9     1.196     0.703  44.46   0
       344    724.3881    464.5969 307.6267514  +6.4996985     2845.987     4214.968     4279.639     77.73064     155.5234     311.4498      1.639     4.50      839.931     54.91994     400.5657        20     1.380     0.857  48.64   0
       345     86.0809    463.7280 307.8919292  +6.4786977     1749.788     3046.164     3307.829     78.34904     156.1427     311.6048      1.806     5.80     842.8283     54.91994     208.6528        19     1.566     0.874  30.58   0
       346    435.6353    463.0507 307.7467522  +6.4906914     844.9622     1748.318     1892.505     77.97858     155.7714     311.5118      2.180     6.07     839.2498     54.91994      126.954        12     1.438     0.720  42.51   0
       347    395.2104    462.8517 307.7635512  +6.4894210     3264.674     5284.808     5124.723      77.4819     155.7094     311.3259      1.727     4.41     838.9224     54.91994     425.6333        23     1.414     1.006  44.93   0
       348    622.9355    459.3942 307.6690701  +6.4984608     9172.612     14629.58     15244.35      77.4819     155.5854     311.3568      1.720     4.44     839.1018     54.91994     1222.384        37     1.571     1.026  39.37   0
       349    785.6687    455.9789 307.6015833  +6.5052999     15042.34     23866.03     25305.17     77.73064     155.7714     311.4808      1.699     4.15     839.7465     54.91994     2385.011        48     1.605     1.128  42.02   2
       350    789.2265    451.0436 307.6002707  +6.5074561      1351.99     2120.844     2460.922     77.73064     155.8953     311.5118      1.936     5.28     839.4861     54.91994      219.124        14     1.414     0.774  41.27   2
       351    305.2821    456.2201 307.8011298  +6.4891480     2382.708     3888.341     4062.243     77.85471     155.5234     311.5118      1.772     4.33     837.9558     54.91994     335.8691        26     1.570     1.047  42.37   0
       352    429.1987    455.5589 307.7496778  +6.4935692     603.6708     1135.243     882.1896      77.4819     155.5234     311.2639      1.879     5.93     838.9576     54.91994     96.41144         9     1.468     0.673  41.59   0
       353    736.9952    454.2220 307.6218619  +6.5044024     481.0972     798.0563     375.5352     77.73064     155.5854     311.3568      1.689     5.40     839.4483     54.91994     81.97351         6     1.228     0.671  60.59   0
       354    814.3099    452.8782 307.5897891  +6.5075347     1366.848     2068.294     2431.006     77.85471     156.0809     311.6357      1.606     4.10     839.4591     54.91994     202.5654        17     1.289     0.892  41.79   0
       355    388.3981    452.7351 307.7667212  +6.4933697     1491.953     2422.749     2841.616      77.4819     155.5854     311.3568      1.798     5.18     838.3577     54.91994     196.4779        17     1.373     0.939  46.64   0
       356    971.0579    450.8732 307.5247397  +6.5135818     1729.311     2749.327     2887.677     78.22575     155.8333     311.5428      1.676     4.85     836.8488     54.91994     250.8999        20     1.544     0.898  43.92   0
       357    122.9967    447.7834 307.8771329  +6.4865195     4116.282      6938.64     7946.609     77.73064     155.4613     311.4189      1.790     4.42     841.8141     54.91994     521.9521        29     1.546     1.015  47.74   0
       358    761.2170    446.7497 307.6120501  +6.5082952     2095.454     3365.954     3359.053     77.60638     155.8953     311.3259      1.640     4.57     839.1801     54.91994     278.0637        18     1.430     0.834  39.15   0
       359   1023.3655    444.9866 307.5032065  +6.5177521      2359.25     2941.117     3035.542     71.38748     128.1696     239.0778      1.247     3.50     836.1168     54.91994     406.2524        16     1.279     0.749  81.66  24
       360    280.8785    444.9345 307.8116467  +6.4929897     1478.881     2307.667     2548.383     78.22575     155.8953     311.5428      1.598     4.15     837.6402     54.91994     201.1423        16     1.296     0.813  46.88   0
       361    359.0489    442.6669 307.7792514  +6.4965440     2944.002     4660.352     5377.719     77.97858     155.7714     311.6048      1.738     3.82       837.36     54.91994     381.1862        24     1.422     1.008  39.89   0
       362    715.0981    440.3531 307.6314231  +6.5093980     1539.083     2331.164     2145.396     78.10226     155.6474     311.7596      1.594     4.47      838.577     54.91994     192.0365        19     1.410     0.895  32.07   0
       363    988.8888    438.8692 307.5177336  +6.5191311     695.3181     1059.276      1446.72     78.22575     156.0809     311.5428      1.517     5.66     836.0712     54.91994     104.7623         7     1.491     0.606  44.73   0
       364    246.5127    437.8940 307.8261591  +6.4947448     649.3839     1071.932     832.2408     78.10226     156.2663     311.6357      1.490     5.08     838.5001     54.91994     101.4753         8     1.206     0.604  60.43   0
       365    456.5974    433.8142 307.7390271  +6.5034631     433.4581     625.0278     244.6436     77.73064     155.5234     311.4189      1.471     4.17     838.0735     54.91994     67.08069         5     1.203     0.413 -76.45   0
       366    556.0719    433.0582 307.6977298  +6.5071007     941.0974      1326.22      1117.78     78.22575     155.8333     311.5738      1.457     4.30     837.5789     54.91994      156.527         9     1.017     0.654  34.46   0
       367    478.5996    431.4013 307.7299683  +6.5051952     1218.359     1825.384     1708.719      77.4819     155.3992     311.2639      1.602     5.50     837.9565     54.91994     181.6565        16     1.441     0.782  49.90   0
       368    841.2031    430.5493 307.5793647  +6.5176496     1401.553     1988.563     1768.499      77.4819     155.5854     311.1708      1.555     4.31      837.762     54.91994     224.5254        14     1.354     0.789  51.10   0
       369    826.8362    429.6308 307.5853638  +6.5175502     1748.708     2738.935     2535.762     77.73064     155.5854     311.3878      1.642     5.09     837.9313     54.91994     281.0087        17     1.402     0.829  42.06   0
       370    723.9578    427.4937 307.6281736  +6.5150028     14220.82     22248.36     23671.63     78.22575     155.7714     311.6977      1.729     4.43     837.9874     54.91994     1923.967        54     2.143     1.095  38.99   0
       371    625.8472    429.6988 307.6688568  +6.5108182     756.9656     866.8092     898.2435     78.10226     155.7094     311.7596      1.538     4.67     837.5005     54.91994     102.4974         7     1.079     0.574  67.30   0
       372    644.5715    423.6766 307.6612804  +6.5139297     2491.464     4157.592     5196.829     77.97859     155.8333     311.5738      1.997     5.41     837.2112     54.91994     389.8245        27     1.872     1.041  21.02   0
       373    617.6309    418.8341 307.6726345  +6.5150294     11552.84     25620.37     30356.62     77.60638     155.5854     311.3259      2.358     8.00     836.8715     54.91994     1916.248        67     2.562     1.119  35.72   0
       374    949.4880    417.6479 307.5348114  +6.5265818      3644.51     5427.341     5785.383     78.10226     155.7094     311.6357      1.660     4.44     835.5063     54.91994     536.7885        27     1.509     0.953  42.28   0
       375    388.5394    413.5048 307.7679817  +6.5095710      27217.7      43496.3     45735.88     77.97859     155.8333     311.6667      1.781     4.44     836.5863     54.91994     3617.474        60     1.664     1.192  45.62   0
       376    134.6567    413.0211 307.8734614  +6.5012623     2111.974     3584.205     3651.161     77.73064     155.8333     311.3878      1.792     5.32     840.6724     54.91994     317.6907        21     1.598     0.892  46.56   0
       377    905.1145    413.2186 307.5533939  +6.5269335     1356.348     2352.342     3761.825     77.73064     155.5854     311.4808      2.461     6.43     835.9459     54.91994     176.9352        19     1.832     0.732  33.96   2
       378    918.3777    408.0271 307.5480576  +6.5295185     4619.988     7378.946     8314.859     77.60637     155.6474     311.5118      1.776     4.33     835.6819     54.91994      658.801        30     1.628     0.999  34.74   0
       379     67.7637    408.5002 307.9014007  +6.5008834     1381.209     2182.001     2464.378     78.10226     155.7094     311.7596      1.797     5.46     841.7703     54.91994     155.4246        15     1.238     0.906  58.60   0
       380    973.7368    405.7069 307.5251368  +6.5323187     686.0242     1091.691     534.1216     78.10226     155.8953     311.6357      1.699     3.59     834.7571     54.91994     133.0034         7     1.082     0.663  81.42   0
       381    246.0233    404.0580 307.8275018  +6.5086976     12511.69     20787.67     22209.14     77.73064     155.8333     311.4189      1.765     4.17     837.1664     54.91994     1617.333        44     1.579     1.177  39.78   0
       382    740.6257    397.6777 307.6222486  +6.5278687       790.66     1027.476     1501.148     77.85471     155.7714     311.5428      1.558     5.57     837.1155     54.91994      101.622        11     1.089     0.804  64.35   0
       383     81.6905    398.0534 307.8959680  +6.5056639     722.2728      1338.11     1919.292     77.97858     155.6474     311.6977      2.071     4.95     841.3468     54.91994     111.9033         8     1.083     0.641  65.47   0
       384    969.4394    396.1856 307.5272405  +6.5361068     840.2823     1441.758     1854.011     77.73064     155.6474     311.3568      1.801     5.94     834.5429     54.91994      122.648        10     1.421     0.698  48.82   0
       385    708.7598    396.6328 307.6355217  +6.5272371     824.7721     1027.453     890.1644     77.85471     155.6474     311.4189      1.554     3.27     836.5086     54.91994     143.2469         7     1.096     0.551  54.54   0
       386    146.2356    392.7107 307.8693363  +6.5100360     4778.587     7682.259     8448.415     78.22575     155.7714     311.5738      1.784     4.41     839.8768     54.91994     591.4589        31     1.521     1.098  53.89   0
       387    192.2062    394.1213 307.8501924  +6.5109957     875.0413     1447.348     1375.661     77.73064     155.3371     311.3568      1.798     6.29     838.6249     54.91994      118.824        13     1.308     0.849  37.82   0
       388    358.7825    393.5169 307.7810154  +6.5168270      1076.64     1916.568     1795.841     77.73064     155.5234     311.5118      1.780     4.67     835.3636     54.91994     156.8167        14     1.270     0.802  55.70   0
       389    639.5220    391.5337 307.6644563  +6.5270317      516.125     875.0245     710.5519     78.22575     155.8953     311.5428      1.661     4.20     835.1985     54.91994     70.05634         5     1.213     0.416  35.28   0
       390    251.2033    391.5443 307.8257714  +6.5140376     1192.463     1905.121     1945.307      77.4819     155.6474     311.2639      1.724     5.31     836.6562     54.91994     187.4904        14     1.355     0.851  45.09   0
       391    168.3363    388.3621 307.8603022  +6.5125727     2266.895     3998.512     4483.741     78.10226     155.7714     311.6357      1.974     4.94     839.2321     54.91994     332.3407        27     1.614     1.158  70.60   0
       392    831.9473    388.7299 307.5846099  +6.5346071     788.6686     964.9296     947.8398     77.97859     155.7094     311.5118      1.203     2.86     836.4195     54.91994      138.363         8     0.907     0.598  64.17   0
       393    563.9169    387.5074 307.6960000  +6.5261689     971.6696     1602.017     1648.697     77.85471     156.1427     311.6977      1.725     4.60     834.6354     54.91994     142.9172        10     1.234     0.794  46.66   0
       394    391.8291    383.2448 307.7676327  +6.5221741     1856.668     3066.612     2813.798     77.73064     155.8953     311.4808      1.752     5.02     835.4378     54.91994     260.1818        21     1.437     0.922  43.08   0
       395    280.2960    383.6980 307.8139502  +6.5182519     817.7782     1346.723     1512.601     78.10226     156.3898     311.4189      1.941     5.05     835.4741     54.91994     130.8667         9     1.142     0.633  55.86   0
       396     10.6110    383.4465 307.9259870  +6.5093070     659.5693     1071.955     875.0272     77.60638     155.6474     311.2639      1.659     5.21      842.434     54.91994     116.4229         8     1.211     0.633  46.08   0
       397    980.2316    382.3496 307.5232195  +6.5421784      728.932      1121.92     1188.794     77.97859     155.8953     311.5118      1.620     5.31     833.8983     54.91994     133.7871         8     1.051     0.757  48.01   0
       398    325.3660    380.4839 307.7953356  +6.5210887     602.1064     727.2548     1150.157     78.10226     155.7094     311.5428      1.302     3.48     834.9996     54.91994     81.31622         5     1.054     0.331 -69.56   0
       399    598.8416    379.9930 307.6817435  +6.5304380     438.3466     538.2149     488.8153      77.4819     155.5234     311.2949      1.624     5.05     834.0535     54.91994     87.29364         6     1.317     0.548   0.24   0
       400     41.9393    377.8032 307.9131638  +6.5126892     2899.376      5144.26     5083.256      77.4819     155.5854     311.2949      1.830     4.37     841.7228     54.91994     375.9329        29     1.496     1.203  69.81   0
       401    445.6596    376.8777 307.7454844  +6.5266040     6738.583     11135.29     12187.18     78.22575     155.8333     311.5428      1.802     4.20     834.9136     54.91994     894.9813        38     1.545     1.174  45.05   0
       402    778.3146    375.7419 307.6073261  +6.5381819     1879.676     2719.632     3008.711     78.10226     155.8333     311.6977      1.599     4.46     836.5171     54.91994     279.4424        15     1.325     0.759  58.66   0
       403    786.2668    374.2491 307.6040724  +6.5390634     12104.38     19042.65     20144.33     77.97859     155.7714     311.5738      1.696     4.17     836.4627     54.91994     1681.174        42     1.576     1.090  39.33   0
       404    349.5153    372.6314 307.7855678  +6.5251394     1103.403     1692.017     1705.822     78.10226     155.6474     311.4498      1.800     5.13     834.7629     54.91994     133.7419        13     1.193     0.824  38.83   0
       405      1.3746    364.6938 307.9304568  +6.5167386     421.4822     925.4021      1723.91     68.48938     124.4249     234.8417      2.997     6.10     843.0038     54.91994     90.89746         6     1.322     0.791  59.43  26
       406      1.2876    361.3333 307.9306064  +6.5181230     506.8383      1030.44     1872.874     67.35255     123.2558     233.6881      3.260     5.30     843.0817     54.91994     95.97864         5     1.161     0.684  60.27  27
       407    960.9073    365.1806 307.5318218  +6.5486240     523.3194     780.4327     1121.929     77.97858     155.5854     311.4189      1.504     4.95     833.8115     54.91994      75.1701         6     1.078     0.643  15.13   0
       408    194.2703    364.6677 307.8503274  +6.5232248     657.3379     944.1104     744.1849     78.10226     155.9572     311.5428      1.390     2.22     837.8242     54.91994     122.0113         5     0.699     0.450 -15.14   0
       409    493.7274    360.5029 307.7260658  +6.5349720     2934.162     4836.429     5384.542     77.73064     155.9572     311.5428      1.782     4.81     832.9841     54.91994     382.0537        25     1.568     0.936  54.37   0
       410    465.9176    361.0993 307.7375989  +6.5337959     2008.917     3201.289     3590.176     78.10226     156.3281     311.6667      1.682     4.25     833.4352     54.91994     268.9454        21     1.350     1.062  39.68   0
       411    922.4283    360.0992 307.5479780  +6.5494412     768.3309     1092.067     789.6153     78.10226     155.5854     311.5428      1.551     4.92     834.5563     54.91994     116.6581        10     1.227     0.737  34.45   0
       412    851.6877    357.1761 307.5774652  +6.5482923     30414.15     50288.51     53322.65     78.10226     155.6474     311.4498      1.784     4.09     835.4453     54.91994     4258.213        64     1.675     1.252  50.95   0
       413    344.2197    352.9565 307.7884296  +6.5330849     628.2067      1046.16     1100.475     77.60637     155.7094     311.4189      1.604     4.03     834.3009     54.91994     119.7497         7     1.162     0.400  33.07   0
       414     69.5694    352.6737 307.9025340  +6.5239917     551.4478     1025.476     1434.596     77.97859     155.8333     311.5738      2.361     4.64     840.4253     54.91994     110.4606         7     1.182     0.575 -39.07   0
       415    623.3936    349.6683 307.6725612  +6.5437779     2483.961     4019.078     4603.085     77.60638     155.5234     311.4189      1.912     4.47     832.2649     54.91994     400.8353        24     1.446     1.018  48.03   0
       416     31.7209    349.7725 307.9183545  +6.5239183     968.2368      1666.91      1660.76     77.97859     155.7714     311.5738      1.786     6.42     841.8502     54.91994     130.3888        13     1.405     0.825  28.55   0
       417    154.6222    347.7060 307.8673695  +6.5288975     485.0186     742.7413     772.3148     78.10226     155.6474     311.4189      1.468     4.10     838.7452     54.91994     81.05634         5     1.000     0.480  85.55   0
       418    708.1339    343.1232 307.6375756  +6.5493085     74850.16       118057     124931.4     78.22575     155.8953     311.5428      1.695     4.28     834.2347     54.91994     9737.015        93     1.715     1.221  43.18   0
       419    866.0068    344.3628 307.5719452  +6.5540595     1187.161     1726.446     1570.673     77.35723     155.5854     311.3259      1.642     5.69     834.9185     54.91994     151.7196        13     1.231     0.900  53.52   0
       420     87.0959    342.5536 307.8955947  +6.5287583     1346.063     2239.138     2313.684     78.10226     155.7714     311.7286      1.771     3.83     839.5992     54.91994     194.2695        15     1.192     0.834  41.22   0
       421    570.5050    339.8622 307.6948626  +6.5460599     2330.099     3686.242     3902.647     77.97858     155.8953     311.6048      1.704     4.14     831.6937     54.91994     364.8212        22     1.369     0.999  48.34   0
       422    949.4261    339.9253 307.5374364  +6.5586690      733.194     933.7513     1000.448     77.73064     155.7714     311.5428      1.301     3.52      833.238     54.91994     154.6059         8     0.887     0.656  48.40   0
       423    107.6992    338.5909 307.8871695  +6.5310859     5764.318      9314.62     9689.878     77.85471     155.4613     311.3878      1.744     4.24     839.0868     54.91994     815.3613        32     1.495     1.088  48.93   0
       424    553.7990    335.9893 307.7019330  +6.5471006     6751.601     10633.36     10932.48     77.73064     155.5234     311.3878      1.674     4.20     831.5618     54.91994     931.2889        33     1.542     1.020  47.11   0
       425    283.0042    333.6192 307.8145111  +6.5390178     2447.863     4122.411     4252.176     77.73064     155.4613     311.3878      1.764     5.12     834.4343     54.91994     349.6624        25     1.536     1.019  38.18   0
       426    416.7814    331.1811 307.7590175  +6.5445040     23881.88     38989.83     41033.63     77.85471     155.7714     311.5118      1.736     4.25     833.3038     54.91994     3182.738        54     1.647     1.165  43.83   0
       427    595.1898    330.7668 307.6849127  +6.5506396     549.2985     871.5087     415.0061     77.60637     155.6474     311.4189      1.387     3.48     831.4377     54.91994     72.01392         5     1.001     0.349  45.57   0
       428    524.2215    329.7501 307.7144304  +6.5486880     1219.831     2123.486     2055.946     77.60638     155.8953     311.4498      1.854     5.15     831.4438     54.91994     170.8573        14     1.323     0.788  60.18   0
       429    396.7713    329.3351 307.7673926  +6.5445965     1166.384      1863.35     2801.776     77.85471     155.8333     311.5118      2.229     5.65     833.2948     54.91994     194.1622        11     1.275     0.706  38.57   0
       430    811.2311    323.2285 307.5954099  +6.5609601     817.9136     1358.639     668.7604     77.60638     155.5854     311.3568      1.638     4.65     834.2986     54.91994     116.3571         9     1.095     0.720  66.28   0
       431    647.5790    323.5869 307.6633884  +6.5553534     554.9986     990.2612     1091.678     77.85471     155.5234     311.4808      2.067     4.75      831.691     54.91994     86.39319         7     1.299     0.492  39.58   0
       432    505.8595    321.6336 307.7223315  +6.5514252     7932.001     12878.99     13194.17     77.97858     155.8953     311.5118      1.734     4.42     831.2302     54.91994     1160.321        35     1.594     1.058  39.36   0
       433    495.9550    326.5444 307.7262813  +6.5490666     1336.442     1978.678     2526.158     78.10226     155.8333     311.5738      1.665     4.69     831.4373     54.91994     169.7562        15     1.294     0.835  42.99   0
       434    774.9888    320.4044 307.6105618  +6.5609180     2984.818     4692.496     5160.173     77.73064     155.5234     311.4808      1.731     4.52     834.1473     54.91994     423.6136        25     1.486     0.958  41.80   0
       435    930.0251    319.7453 307.5461718  +6.5663549     713.6816     963.4132     949.5206     77.73064     155.8953     311.3878      1.775     4.80     832.7656     54.91994     129.0722         7     1.297     0.504  43.21   0
       436    722.5715    319.3514 307.6323743  +6.5596046     747.7272       1069.9     1188.467     77.73064     155.8953     311.4808      1.636     4.00     833.5798     54.91994     120.5325         6     0.835     0.549  48.94   0
       437    332.2745    318.2391 307.7945603  +6.5470181     1036.414     1388.735     962.0009     77.97859     155.8333     311.6048      1.466     5.17     833.4082     54.91994     158.0917        10     1.189     0.636  51.97   0
       438    267.8330    312.2051 307.8215348  +6.5473503     676.9421     1137.076     1090.769      77.4819     155.7094     311.3878      1.835     4.86     834.5128     54.91994     105.8007         7     1.194     0.561  56.48   0
       439    167.9037    312.0490 307.8630540  +6.5440640     927.0449     1547.952      1525.48     77.97859     155.7714     311.7286      1.837     6.00     837.6677     54.91994     123.9606        13     1.350     0.789  41.26   0
       440    395.7066    305.8671 307.7686241  +6.5542497      6913.35     11456.96     12321.68     77.97859      156.019     311.6048      1.770     4.52     832.3774     54.91994     986.5132        36     1.610     1.065  45.36   0
       441    251.4906    306.4998 307.8285162  +6.5491580     1913.017     3237.458     3447.189     78.10226     156.2045     311.5428      1.852     4.50     834.8793     54.91994     269.9377        24     1.505     1.071  49.09   0
       442    763.6017    301.6958 307.6159196  +6.5682624     50836.38     80010.81     83936.23     77.60638     155.5854     311.2018      1.717     4.38     833.1959     54.91994     7734.578        73     1.664     1.189  43.74   0
       443    749.3046    305.7056 307.6217251  +6.5661301     860.4231     1403.989     1689.573     78.10226     156.4515     311.5118      1.936     5.83     833.4073     54.91994     132.3613        11     1.510     0.634  31.06   0
       444    435.1619    301.0459 307.7523946  +6.5575605     2230.327      3547.34     3128.536     77.85471     155.7714     311.4808      1.673     4.29     831.5854     54.91994     286.9657        20     1.439     0.867  40.92   0
       445    998.3030    298.7920 307.5185050  +6.5772779     1503.122     2207.199     2038.431     77.85471     155.4613     311.3878      1.591     4.35     830.7955     54.91994     212.0419        15     1.234     0.816  54.33   0
       446    939.3954    297.9905 307.5430064  +6.5756487     2242.655     3247.339     3190.174      77.4819     155.5854     311.4189      1.559     4.66     831.6293     54.91994      330.293        20     1.420     0.933  49.89   0
       447    581.1876    298.3761 307.6918172  +6.5635447     1106.114     1667.993     1897.762     77.73064     155.6474     311.5118      1.648     4.17      830.433     54.91994     166.9753        12     1.186     0.783  63.72   0
       448    421.8122    296.7703 307.7580845  +6.5588791     1818.752     3273.531     3141.743     77.60637     155.5854     311.4808      1.854     5.16      831.713     54.91994      235.164        24     1.622     0.968  52.35   0
       449    472.3430    297.3780 307.7370709  +6.5603186     1091.421     1855.259     2276.679     77.73064     155.7714     311.3878      1.674     5.05     830.5818     54.91994     143.8287        10     1.210     0.616  44.46   0
       450    843.0273    291.2256 307.5832713  +6.5752325     1130.808     1811.268     2020.294     77.60637     155.6474     311.4189      1.701     4.80      833.019     54.91994     160.6318        13     1.328     0.755  56.37   0
       451    198.1721    287.9629 307.8512912  +6.5550232     2107.892     3478.783     4208.465     77.60638     155.5234     311.3568      1.785     4.73      836.186     54.91994     306.6366        21     1.399     0.959  51.72   0
       452    762.0539    286.2711 307.6170795  +6.5745791     5763.595     9014.312     9753.653     77.97859     155.7714     311.4808      1.686     4.38     832.3559     54.91994     731.8873        30     1.567     0.927  43.75   0
       453    452.0761    287.7607 307.7458141  +6.5636112     1099.287     1539.929     1708.433     77.97858     155.8333     311.6357      1.480     3.43      830.676     54.91994      157.663         9     0.904     0.676  66.84   0
       454    778.5181    284.3312 307.6103041  +6.5759290     2492.559     4075.695     4286.475     78.34904     156.0809     311.6048      1.780     4.67      832.259     54.91994     346.0379        22     1.571     0.878  48.10   0
       455    352.6438    286.3044 307.7871726  +6.5608846     609.6865     1064.387      1092.34     78.10226     155.7714     311.6977      2.020     4.89     832.1118     54.91994     74.80731         6     1.186     0.572  63.34   0
       456    233.8725    286.2883 307.8365163  +6.5569117     645.4755     920.1437     740.8034     78.10226     156.0809     311.6048      1.522     4.25     835.0623     54.91994     84.70044         7     0.900     0.572  33.09   0
       457     94.1076    285.0574 307.8946214  +6.5527307     1149.863     1735.648     1825.009     77.97859     155.7714     311.6977      1.579     4.20     838.7581     54.91994     161.5254        11     0.991     0.828  17.78   0
       458    367.9199    278.8358 307.7810774  +6.5644795      1570.69     3167.788     3437.641     77.97858     155.8953     311.6047      2.093     7.31     831.8295     54.91994     202.1097        23     1.773     0.964  10.77   0
       459     81.0640    279.3089 307.9002341  +6.5546660     1179.574     2039.961     1923.313     78.10226      156.019     311.6357      1.793     6.04     838.7534     54.91994     177.9785        15     1.334     0.861  37.44   0
       460   1016.6459    275.1824 307.5116731  +6.5876356     5492.845     8623.288     8783.907     77.60638     155.7094     311.0467      1.687     4.01     829.1993     54.91994      780.828        27     1.461     0.968  42.86  16
       461    494.7280    274.9522 307.7285245  +6.5703258     1934.724     3004.395     3107.469     78.10226     155.8953     311.6048      1.656     6.29     829.4752     54.91994     267.6835        16     1.355     0.821  47.41   0
       462    257.2559    270.5070 307.8273332  +6.5642109     5552.337     9168.454      10365.9     77.97859     155.8333     311.7596      1.790     4.34     834.4269     54.91994     695.4947        36     1.598     1.112  42.34   0
       463    925.0054    268.9213 307.5499577  +6.5871714     601.4962      752.942     618.3405     77.73064     155.3371     311.3568      1.433     4.94     830.8261     54.91994     115.3406         6     1.234     0.560  51.59   0
       464    821.6534    268.3834 307.5929166  +6.5839511     707.9328     853.3664      932.131     77.60638     155.8953     311.2949      1.350     3.09     831.6344     54.91994     136.4523         7     0.839     0.669 -19.45   0
       465    776.2997    263.7525 307.6119153  +6.5843512     670.0912     981.3465     1070.422     78.10226     155.7094     311.7906      1.666     5.22     831.2556     54.91994     141.1919         7     1.111     0.692  58.51   0
       466    391.4097    261.3098 307.7719079  +6.5725016     1436.141     2494.618     2686.395     77.85471     155.5234     311.3878      1.786     5.46     831.0763     54.91994     203.8292        17     1.483     0.808  59.02   0
       467    233.2774    263.1446 307.8375431  +6.5664466     676.2558     1009.588     990.4573     78.10226     155.8333     311.5738      1.660     4.39      835.016     54.91994     93.49207         5     0.812     0.675 -59.00   0
       468    978.0475    260.2893 307.5282081  +6.5925005     900.2701     1554.837     1564.756     78.10226     155.7094     311.7286      1.927     6.09     829.1465     54.91994     115.5864        12     1.349     0.773  50.08   0
       469    198.4270    259.3398 307.8521499  +6.5668488     561.4678     996.2863     1409.164     77.73064     155.8953     311.4498      1.856     5.10      835.798     54.91994     91.59125         7     1.277     0.575  50.89   0
       470    313.2208    257.3112 307.8045267  +6.5715341     1177.289     1729.001     1229.505     77.97859     155.5854     311.4498      1.525     3.52     832.9338     54.91994     176.5236        12     0.970     0.886  56.38   0
       471    160.9579    257.0211 307.8677945  +6.5665491     1676.566     2598.341     3322.098     77.73064     155.6474     311.4189      1.731     4.34     836.5603     54.91994      239.074        16     1.407     0.768  41.86   0
       472    570.7783    252.9253 307.6976678  +6.5819617     2035.733         3320      3501.09     77.73064     155.7094     311.5118      1.739     4.36     828.7738     54.91994     269.6429        20     1.491     0.873  48.32   0
       473    914.7056    252.1655 307.5547978  +6.5937464      1626.22     2516.496     2633.997     78.22575     155.7094     311.6667      1.729     4.73     830.3945     54.91994     251.5148        15     1.402     0.705  43.68   0
       474    734.4443    250.3648 307.6297541  +6.5884827      5035.26     7671.388     7571.365     77.85471     155.7714     311.4498      1.667     4.37     830.4194     54.91994     677.8894        29     1.450     0.988  49.43   0
       475    675.2257    250.2607 307.6543618  +6.5865498     2053.776     3188.108     2941.735     77.73064     155.8333     311.4808      1.608     4.09     829.5476     54.91994     262.1531        20     1.365     0.913  50.66   0
       476    971.9883    250.0570 307.5310679  +6.5965235     716.0592     948.5181     729.6035      77.4819     155.7714     311.2639      1.387     5.70     828.7908     54.91994     96.19678         9     1.207     0.758  70.66   0
       477    389.6358    244.3987 307.7732137  +6.5794240     754.3169     1246.688     1382.324     77.23237     155.6474     311.3878      1.707     5.29     830.6948     54.91994     124.4092        10     1.195     0.786   2.91   0
       478    930.4427    242.6383 307.5485779  +6.5982038     1133.739     1673.951     1762.158     77.85471     155.8333     311.4498      1.661     4.69     829.9133     54.91994     157.4472        13     1.293     0.694  38.83   0
       479    233.8670    235.5961 307.8382263  +6.5778397     2065.432     3430.071     3372.383      77.4819     155.5234     311.3568      1.733     4.34     834.9069     54.91994     303.0273        20     1.447     0.882  50.71   0
       480    876.6985    234.6283 307.5711763  +6.5997213     1688.029     2499.753     2340.428     78.22575     155.5854     311.5428      1.637     4.93     829.9461     54.91994     252.4666        16     1.393     0.778  42.13   0
       481    766.9197    233.8487 307.6168146  +6.5963846     1631.959     2731.397     2677.437     78.10226     155.8953     311.5738      1.633     4.07     829.7224     54.91994     260.1133        21     1.460     0.939  40.94   0
       482    467.8831    225.5165 307.7413391  +6.5898379     21695.04     34766.65     36112.63     77.85471     156.0809     311.6667      1.748     4.38      827.747     54.91994     2880.186        56     1.658     1.163  41.85   0
       483    793.8948    224.7029 307.6059131  +6.6010600     12576.27     20152.89        22395     78.10226     156.3898     311.4189      1.768     4.20     829.3685     54.91994     1944.985        55     1.685     1.237  30.68   0
       484    328.7365    226.5727 307.7991152  +6.5847443     578.2512     883.4018     161.1086     77.73064     155.8333     311.4808      1.573     3.75     832.2899     54.91994     112.4751         5     0.961     0.420 -81.22   0
       485    731.9042    219.7916 307.6318344  +6.6010205     709.1955     1159.674     1320.361     77.85471     155.4613     311.3878      1.485     5.00     829.0526     54.91994     107.5565         8     1.152     0.613  67.72   0
       486    473.5020    220.0178 307.7391893  +6.5922960     1463.912     2200.793     2978.109     78.10226     155.6474     311.3259      1.685     4.05      827.387     54.91994     220.5823        16     1.209     0.925  50.61   0
       487    156.0804    218.8089 307.8711092  +6.5821612     2117.778     3736.894     3807.726     77.73064     155.4613     311.4189      1.827     4.56     835.7902     54.91994     298.1683        23     1.580     0.889  47.48   0
       488    130.7010    217.8654 307.8816851  +6.5816990     1008.356      1480.22      1626.98     78.10226     155.9572     311.5738      1.762     6.39     836.5356     54.91994     138.6788        14     1.252     0.916  47.85   0
       489    785.0000    215.9378 307.6099025  +6.6043822     417.3116     905.3597     1225.494     77.35724     155.5854     311.2328      2.422     4.43     829.0288     54.91994     105.5044         5     1.396     0.400  52.06   2
       490    930.4519    214.8769 307.5495029  +6.6096658     1512.789     2492.381     2994.272     78.22575     155.8953     311.5738      1.821     4.83     828.8159     54.91994     242.3457        19     1.564     0.853  47.26   0
       491    591.9264    211.2016 307.6902821  +6.5998943     4384.452       7038.5     7670.923     77.60637     155.2749     311.4498      1.724     4.16     827.6588     54.91994     611.5793        30     1.479     1.037  50.58   0
       492    554.5878    211.3897 307.7057895  +6.5985691     1914.976     3086.527     3489.585     77.85471     155.6474     311.5118      1.798     4.82     827.1486     54.91994     268.1255        18     1.436     0.890  50.64   0
       493    312.2601    212.0805 307.8064485  +6.5901755     1080.656     1745.393     1554.587     78.22575     155.8333     311.5428      1.608     6.22     832.5095     54.91994     170.8525        13     1.319     0.871  35.63   0
       494    396.2727    210.4370 307.7715986  +6.5936674         1453     2166.044     2093.188     77.97859     155.8333     311.6357      1.705     4.63     829.5715     54.91994     180.4438        17     1.322     0.927  45.73   0
       495    952.8824    208.3972 307.5403997  +6.6130877     2602.738     3855.569     4099.611      77.4819     155.4613     311.2639      1.693     4.47      827.555     54.91994      355.845        21     1.389     0.880  46.87   0
       496    898.9762    207.8898 307.5628149  +6.6115026     10565.67     16449.47     16992.54     78.10226     155.6474     311.4189      1.645     4.10     828.5762     54.91994     1527.052        38     1.540     1.030  43.68   0
       497    574.1432    208.1840 307.6977721  +6.6005460     786.6819     1406.213     1733.522      77.4819     155.7714     311.3259      1.938     6.01     827.3378     54.91994     110.8819        11     1.185     0.857  46.98   0
       498    218.1212    208.1283 307.8456935  +6.5886518     678.5397     1063.056     798.6298     78.34904     156.0809     311.5428      1.662     6.20     835.1049     54.91994     105.9355        10     1.434     0.754  39.80   0
       499    985.7010    205.7524 307.5268518  +6.6152716     9067.281     14432.66     15326.67     78.10226     155.7094     311.7596      1.731     4.19     826.2131     54.91994     1383.882        40     1.581     1.096  43.24   0
       500    326.6608    208.1174 307.8005988  +6.5922941     906.0327     1377.417     1282.563     78.22575     155.8333     311.6048      1.555     4.64     831.8777     54.91994     155.9609        11     1.113     0.872  23.65   0
       501    696.9690    205.7272 307.6468213  +6.6056616     2654.309     4268.895     4652.542     77.97858     155.8333     311.5738      1.707     4.42      828.746     54.91994     375.4834        22     1.506     0.882  49.60   0
       502    271.5472    205.4541 307.8235867  +6.5915470     966.1746     1689.086     1033.957     78.34904     155.7714     311.5428      1.847     7.31     833.6548     54.91994     108.8983        17     1.777     0.842  49.34   0
       503     25.1121    204.4252 307.9260063  +6.5837018     23671.07     39018.56     42033.31     78.22575     155.6474     311.4498      1.810     4.14     837.9173     54.91994     2975.999        63     1.711     1.247  44.18   0
       504    505.5168    200.5889 307.7265407  +6.6013879     1796.949     2715.771     2504.711     77.73064     155.5854     311.4189      1.658     3.87     826.7234     54.91994     276.4353        20     1.348     0.934  45.13   0
       505    837.5054    197.2311 307.5887132  +6.6138555     1892.069      2913.03     3530.421     78.22575     155.6474     311.6048      1.841     4.02     828.2465     54.91994     294.6709        18     1.402     0.837  48.76   0
       506    749.2104    193.8658 307.6255128  +6.6123015     37794.48     59751.47      62594.3     77.60637     155.6474     311.4498      1.687     4.19     828.5201     54.91994      5411.02        66     1.660     1.142  44.02   0
       507    517.5973    196.3749 307.7216629  +6.6035316     2431.533     3918.802     4170.141     77.73064     155.5234     311.3878      1.793     4.12     826.6057     54.91994     368.6342        22     1.393     0.935  45.96   0
       508    889.8002    196.2012 307.5670188  +6.6160228     1989.976     3142.016     3680.336      77.4819     155.3992     311.2639      1.672     4.07     828.0382     54.91994     290.3906        19     1.368     0.892  44.77   0
       509    352.1835    193.1342 307.7904989  +6.5993347     5330.421     12141.15     13558.28     77.60637     155.7094     311.4498      2.301     6.38       830.54     54.91994     619.8169        54     1.934     1.506  82.41   0
       510    982.9608    192.5869 307.5284307  +6.6206161     2771.955     4269.377      4192.91     77.60637     155.6474     311.3568      1.687     4.24     825.8593     54.91994     390.2571        25     1.522     0.991  41.30   0
       511   1021.3781    191.3033 307.5125107  +6.6224240      1618.24     2432.885     2752.756     77.97859     151.0528     268.4411      1.712     4.63     824.5363     54.91994     219.7039        20     1.493     0.920  51.50  24
       512    917.0843    190.8880 307.5558599  +6.6191250     7175.643     11462.67     11909.68     77.85471      156.019     311.6357      1.676     4.27     827.6379     54.91994     971.7956        37     1.550     1.082  43.84   0
       513    460.5105    190.0685 307.7455938  +6.6042261     4600.821     7476.237     7613.903     78.22575      156.019     311.5738      1.761     4.14     826.9958     54.91994     683.4598        30     1.534     1.050  46.85   0
       514    235.2188    186.4722 307.8393196  +6.5981658     742.4864     1365.994     1440.851     77.73064     155.7714     311.5118      1.713     4.48      834.662     54.91994      116.483         8     1.316     0.434  50.18   0
       515    117.9286    181.3303 307.8882239  +6.5963536     4571.634     7446.193     7856.107     78.10226     155.9572     311.5118      1.745     4.39     835.9813     54.91994      581.672        30     1.563     1.033  45.13   0
       516    937.4049    180.3492 307.5477691  +6.6241526     883.0742     1304.708     1831.829      77.4819     155.6474     311.2018      1.916     5.63     826.7388     54.91994     119.2352        12     1.233     0.724  44.54   0
       517    288.3017    178.0066 307.8175499  +6.6034401      31331.7        51834     55296.61     77.85471     155.4613     311.3568      1.785     4.16     832.5707     54.91994     4366.618        68     1.729     1.221  40.63   0
       518    263.4982    179.0882 307.8278189  +6.6021623     6239.655      10116.2     10551.52     78.10226     156.2663     311.6048      1.790     4.21     833.5532     54.91994        799.8        37     1.630     1.111  39.88   0
       519    614.0026    179.0381 307.6821892  +6.6139106     625.4355     1177.862     1226.868     77.23236     155.5854     311.3568      2.041     2.17     827.2695     54.91994     105.3121         5     0.611     0.570 -89.89   0
       520    716.7982    176.5469 307.6395608  +6.6183706     771.5541     1092.633     1683.895      77.4819     155.5854     311.1708      1.168     2.63     828.2841     54.91994     161.0286         5     0.708     0.477  15.94   0
       521    412.3243    173.4924 307.7661721  +6.6094574     47731.79     76226.67     80650.19     77.97859     155.9572     311.5738      1.750     4.16     827.8467     54.91994     6321.103        69     1.701     1.197  40.90   0
       522    168.2783    174.7482 307.8675269  +6.6007608     3798.969     6434.294     6453.577     78.10226     155.8953     311.5738      1.809     4.20     835.1281     54.91994     507.3679        28     1.478     1.062  43.30   0
       523    429.5501    173.7048 307.7590078  +6.6099461       1242.5      2097.02     2231.746     77.97859     155.7094     311.7286      1.765     4.91     827.3695     54.91994     181.3393        14     1.309     0.745  43.10   0
       524    316.3281    171.1803 307.8061352  +6.6071974     17061.37     27781.18      29991.8     77.73064     155.7094     311.5118      1.765     4.21     831.3005     54.91994       2380.3        53     1.658     1.177  41.11   2
       525    323.7793    171.2150 307.8030382  +6.6074327     1976.866     3658.073     4881.357     77.85471     155.5854     311.4808      2.231     5.01      830.983     54.91994     281.9729        23     1.581     1.059  39.07   3
       526    751.6563    169.7407 307.6253052  +6.6223434     31579.34     49600.04     51928.41     78.22575     155.8333     311.6048      1.730     4.52      827.951     54.91994     4853.239        57     1.634     1.131  42.17   0
       527    699.5954    171.5800 307.6468753  +6.6198472     907.6078     1460.044     1327.795     77.73064     155.5234     311.3878      1.731     4.58     828.1916     54.91994     181.2134        14     1.260     1.068  26.43   0
       528    799.8550    170.2044 307.6052625  +6.6237590     1150.026     1821.911     2378.811      77.4819     155.6474     311.2639      1.675     4.90     827.2463     54.91994     175.4152        12     1.316     0.653  48.74   0
       529     38.1170    169.1659 307.9217936  +6.5986952     643.7602     909.4214      1420.09     78.10226     155.8333     311.5428      1.646     4.11     837.6821     54.91994     110.0969         6     0.974     0.592  78.67   0
       530     68.4284    166.9512 307.9092749  +6.6006278     8547.422      14157.2     14900.45     77.73064     155.8953     311.4808      1.783     4.22     836.7736     54.91994     1184.779        38     1.606     1.106  38.76   0
       531   1010.4608    164.2405 307.5179518  +6.6332342     1034.304     1753.883     2044.529     78.10226     155.8333     311.6357      1.760     6.64     824.1686     54.91994     162.2076        14     1.582     0.783  43.60   0
       532    102.2082    164.7574 307.8953143  +6.6026678     1442.064     2388.221     2231.603     77.60638     155.6474     311.3259      1.768     5.01     835.7721     54.91994      183.168        18     1.373     0.967  35.04   0
       533    977.5109    163.5612 307.5316659  +6.6324185     559.3964     890.6742     1243.078     78.10226     155.8333     311.6048      1.441     3.77     824.9363     54.91994     73.68256         6     0.997     0.410 -71.64   0
       534    584.7618    153.8455 307.6951846  +6.6233349     815.6568     1087.133     1277.211     77.85471     155.7714     311.4808      1.402     3.29     826.1698     54.91994     123.5717         7     0.839     0.594 -64.95   0
       535      1.8452    152.2301 307.9374352  +6.6044681     949.1616     1246.322     1151.216     73.51892     131.4412     242.6045      1.479     5.48     838.9346     54.91994     154.7636        11     1.326     0.638  67.03  24
       536   1010.8632    150.2465 307.5182525  +6.6390252     2038.566     3152.988     3635.405     77.97859     155.7094     311.6357      1.638     4.35     823.7125     54.91994     257.7358        17     1.363     0.831  45.27   0
       537    594.0511    147.9097 307.6915241  +6.6260958     947.5834     1531.514     2399.297     78.10226     155.6474     311.6977      1.788     6.04     826.1241     54.91994     131.2267        13     1.296     0.791  35.84   0
       538    602.2637    146.0041 307.6881757  +6.6271569     1967.816     2783.937      3308.34     77.35723     155.5854     311.3568      1.542     4.10     826.1804     54.91994     302.0151        15     1.251     0.803  66.86   0
       539    346.4043    146.3024 307.7944763  +6.6184758     1047.309     1857.151     2117.078     77.85471     155.5234     311.2639      1.868     5.56     829.9722     54.91994     169.4785        11     1.403     0.622  37.29   0
       540    287.1906    144.2690 307.8191478  +6.6173315     28632.49     47013.88     50610.89     77.60638     155.6474     311.4498      1.760     4.14     832.4937     54.91994     3599.474        64     1.681     1.214  40.35   0
       541     32.4300    142.7130 307.9250494  +6.6094250      4304.59       6951.8     7008.486     78.22575     155.5854     311.4808      1.765     4.19     837.8658     54.91994     596.2468        31     1.513     1.083  50.30   0
       542    718.8787    140.8738 307.6398925  +6.6331680     7642.539      11966.3      12297.7     78.34904     156.0809     311.6047      1.670     4.10     827.0323     54.91994     1123.034        35     1.505     1.066  42.71   0
       543    196.0063    142.2205 307.8571030  +6.6151199     798.8488     1364.444     1338.701     77.73064     155.5854     311.3878      1.852     6.15     834.6724     54.91994     105.9439        11     1.221     0.872  68.25   0
       544    129.5575    137.9600 307.8848552  +6.6146491     4620.853     7701.479     7799.958     77.85471     155.8333     311.4498      1.772     4.15     834.7974     54.91994     679.7326        31     1.537     1.081  44.62   0
       545    272.6135    138.6437 307.8253939  +6.6191653     804.1898     1259.776     1285.661      77.4819     155.6474     311.3259      1.783     4.95     833.0826     54.91994     121.7101         9     1.204     0.575  47.56   0
       546    591.9145    136.2960 307.6928018  +6.6308192      687.869     1158.133     1558.325     78.10226     156.2045     311.6667      1.816     4.40     825.7198     54.91994     98.44586         7     1.055     0.523  63.19   0
       547    468.5849    135.2689 307.7440811  +6.6271205      1249.76     1849.802     1597.389     77.60638     155.7714     311.4808      1.619     4.76     825.5938     54.91994     204.0474        15     1.323     0.811  41.62   0
       548    400.2603    134.0850 307.7725102  +6.6253230     3811.113     6482.072     6807.356     78.22575     155.8953     311.6667      1.798     4.39     827.4728     54.91994     512.0914        32     1.624     1.062  48.17   0
       549    657.4985    134.7462 307.6656027  +6.6336493     727.2276     1038.697     1203.684     77.97859     155.8333     311.7906      1.731     4.82     826.2932     54.91994     88.91406         8     1.173     0.562  21.21   0
       550    364.6365    132.8842 307.7873524  +6.6246260     3040.927     5080.043      5239.89     78.10226     155.8333     311.5428      1.771     4.66     829.2052     54.91994     498.6388        25     1.555     0.998  45.60   0
       551    118.9487    132.8400 307.8894357  +6.6164068     1541.703     2456.627     2043.014     78.10226     155.8333     311.5738      1.639     4.22     834.8538     54.91994      250.902        17     1.367     0.871  40.05   0
       552    576.9413    132.5870 307.6991479  +6.6318503     701.1906     1326.726      1148.68      77.4819     155.7714     311.2639      1.870     6.95     825.4273     54.91994     89.50415        12     1.406     0.964  -9.04   0
       553    754.6308    130.7685 307.6253756  +6.6385327     607.4655     614.4897      362.617     77.60638     155.5854     311.3259      1.202     4.57     826.3385     54.91994     92.02271         7     1.028     0.577  15.76   0
       554    680.5097    131.0151 307.6561663  +6.6359579     762.9621     883.8737     787.4282     77.85471     155.6474     311.4498      1.302     3.72     826.2375     54.91994     128.4598         7     1.012     0.771  24.86   0
       555   1011.6588    127.1727 307.5186933  +6.6485780      1354.26     2063.791     2429.611     77.73064     155.8953     311.4498      1.720     5.46     822.9604     54.91994     189.7789        19     1.517     0.958  45.97   0
       556    678.4122    120.6636 307.6573851  +6.6401616     5885.967     9373.608     9735.099     77.60638     155.6474     311.3878      1.731     4.44     825.6143     54.91994     847.3028        34     1.517     1.076  42.45   0
       557    216.5345    121.7240 307.8492645  +6.6242703     5186.279     8304.918      8446.47     78.22575     155.8333     311.5428      1.737     4.30     834.6185     54.91994      759.569        28     1.529     1.005  45.71   0
       558     99.3626    121.7818 307.8979466  +6.6203144     1892.973     3229.193     3554.288     77.73064     155.7094     311.3259      1.804     4.70     834.9664     54.91994     265.5263        23     1.491     0.970  38.25   0
       559    854.6402    121.0415 307.5841449  +6.6458823     590.0812      714.324     771.8982     77.85471     155.8333     311.4498      1.506     4.01     824.7839     54.91994     90.45789         6     1.053     0.437  78.10   0
       560    826.6562    120.3912 307.5957948  +6.6452183     1056.531     1695.704     1707.525      77.4819     155.7094     311.2949      1.787     5.22     824.8314     54.91994     158.2414        14     1.322     0.753  45.00   0
       561    630.5803    117.9384 307.6773518  +6.6396898     9061.782     14299.31     15114.29     77.73064     155.8333     311.4808      1.706     4.26      825.361     54.91994     1362.444        37     1.602     1.017  44.48   0
       562    264.6497    118.2310 307.8293904  +6.6273257     704.5572     915.9944     941.8136     77.85471     155.8953     311.5118      1.359     3.27     833.5339     54.91994     112.8589         5     0.725     0.462 -77.62   0
       563    567.8813    116.7044 307.7034459  +6.6381047     709.5861     1155.709     1506.672     77.85471     156.1427     311.6667      2.321     3.88     824.8569     54.91994     104.9949         8     0.914     0.733  76.50   0
       564     28.7405    116.6972 307.9274607  +6.6200414     946.0526     1786.466     2103.682     77.85471     155.8333     311.6977      2.201     6.37     838.0098     54.91994     137.8207        12     1.213     1.062  50.95   0
       565    357.8070    113.5525 307.7908407  +6.6323784     3270.705      6148.73     7122.278     77.60638     155.6474     311.2018      2.014     4.48      829.692     54.91994     508.8286        36     1.520     1.483  33.30   0
       566   1003.6606    112.5687 307.5225052  +6.6543415     777.9644     1212.713     1413.322     77.85471     155.8953     311.5428      1.841     6.62     822.6205     54.91994     97.56958        12     1.425     0.864  56.62   0
       567    634.1049    109.4281 307.6761728  +6.6433210     51219.32     80862.58     86115.06     78.22575     155.5854     311.5118      1.735     4.17     824.9643     54.91994     6698.559        81     1.703     1.224  43.68   0
       568    539.5185    112.8144 307.7153619  +6.6387628     1578.577     2663.062     2604.277     77.73064     155.5854     311.3878      1.787     4.82     824.5369     54.91994     229.2401        16     1.383     0.837  42.57   0
       569    757.8062   1021.3984 307.5942234  +6.2709277     536.4603     931.7817     1184.559      77.4819      150.797     267.9373      1.888     3.66     854.4752     54.91994     100.2965         5     1.000     0.386  84.77  17
       570    313.1648    103.0283 307.8097441  +6.6352280     3262.721     5425.439     5968.027     77.73064     155.5854     311.3878      1.766     4.31     831.9616     54.91994     462.2798        25     1.547     0.954  46.04   0
       571    508.2157    100.8179 307.7287719  +6.6426691     545.7412     1047.089     1094.253     77.85471     155.5234     311.5118      2.070     6.65      824.567     54.91994     74.37244         9     1.422     0.871  76.48   0
       572    712.9785     97.3670 307.6438032  +6.6509333     918.5371     1493.447      1275.71     77.60637     155.6474     311.3878      1.704     5.47     824.7772     54.91994     144.8997        13     1.294     0.950  65.07   0
       573    684.3641     96.5506 307.6557208  +6.6503155     1332.961     1966.517     1998.064     77.85471     155.8333     311.5118      1.617     4.57     824.2794     54.91994     214.7643        15     1.391     0.914  57.56   0
       574    698.4440     93.3314 307.6499782  +6.6521145     2967.274     4591.044     4622.099     78.10226     155.7714     311.6357      1.725     4.24      824.389     54.91994     446.8033        23     1.470     0.898  54.69   0
       575    440.1625     84.3663 307.7576025  +6.6471849     4119.195     6555.048     6639.686     77.85471     155.6474     311.3568      1.706     4.22     825.1606     54.91994     534.0248        30     1.550     1.051  46.21   0
       576    894.8027     80.7732 307.5688041  +6.6638454     1987.517     2883.238     2661.333     77.60637     155.5854     311.3878      1.579     4.66     822.8584     54.91994     330.9142        20     1.515     0.787  42.72   0
       577    912.7635     79.7303 307.5613755  +6.6648741     3560.186     5611.692     5808.652     77.97859     155.8953     311.6667      1.705     4.05     822.6744     54.91994     523.2827        24     1.495     0.922  45.37   0
       578    592.7916     79.8142 307.6943339  +6.6541674     677.2888     1020.256     628.8439     77.73064     155.5854     311.4189      1.481     4.82     824.0586     54.91994     126.1757         7     1.159     0.567  51.34   0
       579    625.1437     78.1426 307.6809466  +6.6559382     597.0856     896.7288     983.8832     78.22575     155.8953     311.6357      1.426     4.70     823.9982     54.91994      93.8963         6     1.411     0.444  45.02   0
       580    604.7727     78.2193 307.6894089  +6.6552261      1619.87     2657.914     2982.974     77.73064     155.6474     311.4808      1.681     4.15     824.0742     54.91994     256.5788        17     1.382     0.837  53.34   0
       581    250.2556     77.5469 307.8367419  +6.6436394     766.5303     1006.841     934.8242     78.22575     155.8333     311.5428      1.632     4.96     833.7664     54.91994      96.5238         9     1.111     0.770  52.48   0
       582    403.4504     76.2144 307.7731315  +6.6493217     1935.064     2811.672     2545.839      77.4819     155.8333     311.3259      1.563     4.01     826.5293     54.91994     254.3408        18     1.210     0.987  46.16   0
       583    151.4591     73.0874 307.8779432  +6.6421664     3232.526     5199.667     5214.887     78.10226     155.8953     311.6667      1.732     4.02     832.9247     54.91994      456.232        27     1.491     1.004  41.08   0
       584    299.5540     71.5435 307.8164598  +6.6477703     1208.315     2135.207     2867.535     78.10226     155.8333     311.6357      2.045     4.92     832.6728     54.91994     190.9255        16     1.456     0.849  58.93   0
       585     33.4283     70.9419 307.9270579  +6.6390884     11728.44     19323.35     21047.44     77.73064     155.8953     311.4808      1.790     4.14     835.9076     54.91994     1632.681        45     1.663     1.124  39.65   0
       586    768.2562     70.5132 307.6217336  +6.6638640     613.4318     1011.407     2133.047     78.10226     155.8333     311.6977      3.767     5.73     823.4199     54.91994     117.0945         9     1.634     0.565  62.24   2
       587    953.9764     69.7175 307.5445845  +6.6703800     638.8627     895.0614     1041.722     77.97858     155.5854     311.5118      1.451     4.29     821.5082     54.91994     85.52551         7     0.741     0.708   3.18   0
       588    990.5399     68.3594 307.5294359  +6.6721574     504.1835     774.3403     180.3134     78.10226     155.8333     311.6357      1.533     4.11     820.1031     54.91994     87.37134         5     0.968     0.497 -87.64   0
       589    901.6352     66.7785 307.5664334  +6.6698508     708.4321      1050.17     574.2362     77.60638     155.6474     311.3259      1.497     5.62     822.4813     54.91994     112.0057        11     1.346     0.661  61.09   0
       590    835.1230     65.5882 307.5941124  +6.6681265     5658.778     9126.763     9962.356     77.73064     155.4613     311.4189      1.747     4.43     822.7435     54.91994     810.2526        32     1.585     0.997  44.79   0
       591    780.1990     65.7934 307.6169290  +6.6662109      3149.38     5003.148     5139.373      77.4819     155.5234     311.3878      1.693     4.25     823.0604     54.91994     450.5494        25     1.482     0.976  50.82   0
       592    425.1062     66.4279 307.7644621  +6.6540869     1062.433     1732.529     1721.398     78.22575     155.5854     311.4808      1.730     6.16     825.1873     54.91994     129.5813        15     1.480     0.749  42.21   0
       593    542.4959     63.7206 307.7157740  +6.6591309     1115.155     1956.038     2080.221     77.85471     156.0809     311.6048      1.844     5.01     823.4796     54.91994     154.1108        15     1.332     0.932  49.82   0
       594     73.6778     62.6278 307.9106148  +6.6438730     3094.871     4776.958     4918.185     77.97859     155.7714     311.5738      1.677     4.13     834.0089     54.91994     443.3141        24     1.461     0.954  50.24   0
       595     57.9971     63.8727 307.9170881  +6.6428323     1100.022     1641.398     1629.227     77.60638     155.3992     311.4189      1.534     4.04      834.579     54.91994     169.1943        12     1.158     0.791  35.55   0
       596    434.9453     62.3484 307.7605109  +6.6561004     901.6146     1526.297     1759.498     78.10226     155.8333     311.6048      1.953     5.53     824.8887     54.91994     130.3774        11     1.390     0.656  40.14   0
       597     16.1740     58.3392 307.9346526  +6.6437114     2515.505     4210.407     4924.907     77.73064     155.8333     311.4498      1.883     4.50     835.4417     54.91994     324.7683        26     1.557     1.030  46.98   0
       598    597.5328     59.4075 307.6930489  +6.6627508      1237.65     1769.875      1714.48     77.60638     155.5854     311.4189      1.581     4.38     823.5107     54.91994     189.4785        11     1.117     0.678  57.93   0
       599    774.7977     53.4414 307.6195876  +6.6711305     1974.154      3040.95     2808.876      77.4819     155.5854     311.2949      1.624     4.76     822.5948     54.91994     286.3974        18     1.463     0.806  51.74   0
       600    415.4769     53.5007 307.7688982  +6.6591016     1067.316     1711.243     1698.363     77.73064     155.9572     311.6048      1.746     4.71     825.3917     54.91994     168.1072        11     1.117     0.750  49.79   0
       601     88.6386     53.7422 307.9046983  +6.6480438     790.7457     1171.784     835.4666     78.10226     155.8953     311.5738      1.619     4.72     833.1519     54.91994     127.4034         8     1.210     0.521  48.91   0
       602    112.0288     52.1173 307.8950343  +6.6495001     730.7408     1064.151       1392.7     77.97859     155.6474     311.5118      1.509     4.24     832.7668     54.91994     111.4359         7     0.939     0.603 -13.63   0
       603    101.5335     47.1125 307.8995641  +6.6512138     8715.554     14191.48     14874.75     78.10226      156.019     311.5738      1.790     4.25     832.6514     54.91994     1216.695        42     1.655     1.140  39.95   0
       604    430.6039     46.8420 307.7628364  +6.6623569     2374.882      3718.65      3883.65      77.4819     155.5234     311.3259      1.688     4.67     824.7539     54.91994     371.9333        21     1.478     0.881  49.04   0
       605    251.1170     46.4365 307.8374321  +6.6565120     538.5944     969.7027     1282.711     78.10226     155.7714     311.5118      1.796     6.12     833.3412     54.91994     80.65192         8     1.420     0.741  34.51   0
       606    267.9171     41.0657 307.8306322  +6.6592926     1466.108     2545.374     3543.572     78.34904     156.0809     311.6357      2.341     5.41     833.2313     54.91994     180.5213        19     1.523     0.903  64.08   0
       607    644.2604     39.1397 307.6743120  +6.6726791     17594.44     27578.59     29228.48     78.10226     155.8333     311.6048      1.699     4.14     822.9255     54.91994     2451.635        44     1.600     1.076  43.77   0
       608    674.0117     40.1642 307.6619144  +6.6732494     477.6795     553.8521     996.4385     77.60638     155.6474     311.3259      1.346     4.32     822.9115     54.91994     73.71887         6     1.240     0.429  53.56   0
       609    544.0073     35.0984 307.7161076  +6.6709982     4940.736     7964.461     8111.096     77.85471     155.4613     311.3878      1.716     4.10     822.9116     54.91994     605.0567        33     1.569     1.044  50.82   0
       610    630.5550     29.4602 307.6803322  +6.6762177     2892.218     5309.362     6837.922     77.97859     155.7714     311.6667      2.264     6.36     822.6735     54.91994     494.4027        31     2.071     0.985  60.61   0
       611    449.6012     30.8049 307.7554817  +6.6696135      21196.1     34501.62     36597.24      77.4819     155.3992     311.3568      1.748     4.30     823.8865     54.91994      3188.77        57     1.684     1.162  43.33   0
       612     11.4823     33.5392 307.9374396  +6.6537921     1188.992     1830.202     2160.333     78.22575     155.8333     311.6048      1.749     5.16     833.5151     54.91994     158.3519        17     1.369     0.892  26.29   0
       613    270.1474     31.1684 307.8300389  +6.6634534     8812.303     14034.35     15371.64     77.97858     155.8953     311.4808      1.708     4.09     833.1619     54.91994     1144.987        34     1.585     1.010  46.75   0
       614    927.0784     30.6714 307.5570689  +6.6856052     1881.448     2860.362     3033.503     78.34904     156.0809     311.5428      1.587     3.64     821.6848     54.91994     266.9845        18     1.207     0.972  52.26   0
       615    329.9777     31.2000 307.8051764  +6.6654454     955.8798     1548.253     1309.557     77.60638     155.4613     311.2639      1.614     4.53     831.4029     54.91994     145.3182        11     1.143     0.811  62.63   0
       616     35.4975     30.9221 307.9275494  +6.6556796     2246.748     3493.012     3905.068     77.73064      156.019     311.6048      1.696     4.27     832.9264     54.91994     326.7631        20     1.448     0.857  46.20   0
       617    563.2646     30.5816 307.7082569  +6.6735066     543.7103     717.6992      224.338     77.73064     155.8333     311.4189      1.522     5.15     822.8021     54.91994      86.9079         7     1.340     0.560  56.41   0
       618    262.0889     35.4641 307.8332427  +6.6614098     1926.534     3088.679     4450.793     77.97858     156.0809     311.6048      1.963     4.36     833.1929     54.91994     295.7962        19     1.400     0.926  32.16   1
       619    257.9923     27.6459 307.8352084  +6.6645001     2821.544     4477.955     5243.953     77.60637     155.7094     311.2328      1.687     4.19     833.1224     54.91994     386.8104        24     1.427     0.961  45.88   0
       620    311.1283     25.6566 307.8131957  +6.6671024     945.9005     1371.865     1345.105     78.22575     155.7714     311.5428      1.499     5.48     832.2305     54.91994     166.8801        12     1.297     0.744  25.42   0
       621    947.9197     20.6955 307.5487418  +6.6904176     933.6461     1312.787     1102.255     77.85471     156.0809     311.6667      1.499     4.41     820.0325     54.91994     135.6455        10     1.234     0.542  63.55   0
       622    699.1483     20.3125 307.6521349  +6.6822843     1677.839     2663.324     2698.302     78.10226     155.7094     311.6667      1.670     4.61     821.9818     54.91994      233.004        18     1.376     0.937  51.33   0
       623    726.0951   1020.0189 307.6074368  +6.2704401     6221.477     11177.93     12209.87     77.97859     155.6474     284.7375      1.933     4.24     854.9135     54.91994     707.1122        40     1.642     1.201  44.39  16
       624    209.6826     15.7041 307.8556850  +6.6678102     658.2695     916.5687     505.5768     77.97859     156.2045     311.6667      1.607     4.00     832.5898     54.91994     143.1107         6     0.966     0.591 -26.16   0
       625    440.8764   1020.2193 307.7258581  +6.2608342     3473.536     5789.766     6545.889     77.73064     155.5234     282.6622      1.841     4.51     856.4985     54.91994     422.6819        25     1.474     0.980  46.54  16
       626    582.3063   1019.0994 307.6671719  +6.2660221      3724.59      6835.14     7850.303     78.10226     156.3281     294.5676      2.003     4.85     856.6329     54.91994     426.8513        36     1.750     1.163  37.94  16
       627    718.3103   1019.1718 307.6106976  +6.2705302     1066.064     1867.404     2766.365     78.22575     155.5854     294.0757      1.992     4.77     854.9637     54.91994     143.7249        13     1.276     0.723  50.28  16
       628    758.4224   1015.5781 307.5941624  +6.2733512     1006.023     1977.132     2473.937     77.85471     155.7094     311.5428      2.067     6.25     854.3517     54.91994     129.6668        16     1.601     0.904  45.34  16
       629    965.7484   1009.5814 307.5082744  +6.2827305     5342.287     10341.84     10841.83     77.60638     155.8953     311.3259      2.068     5.13     849.9684     54.91994     544.7242        45     1.910     1.274  45.85   0
       630    720.0657   1009.8292 307.6102816  +6.2744460     990.0703     1779.208      2664.68     77.85471     155.8333     311.5118      2.277     5.90     854.7213     54.91994     115.3694        14     1.330     0.836  25.04   3
       631    725.3218   1007.4508 307.6081788  +6.2756032     2358.682     4360.025     4817.558     78.10226     155.8953     311.5738      1.892     4.73     854.5997     54.91994     271.2048        27     1.512     1.136  46.75   2
       632    249.8213   1009.1615 307.8055572  +6.2590055     1243.482     2029.589     2226.999     77.73064     155.5854     311.3568      1.691     4.68     855.0478     54.91994     147.2131        16     1.310     0.928  38.51   0
       633    447.7355   1008.1214 307.7234163  +6.2660583     780.5411     1296.499     995.7424     78.34904     155.8953     311.5428      1.816     4.28     856.4589     54.91994     134.5955         8     0.995     0.639  28.60   0
       634    740.9274   1006.5142 307.6017302  +6.2765102     960.7867     1341.181     1192.111     78.22575     156.1427     311.5738      1.459     5.11     854.4188     54.91994     135.1841        10     1.090     0.677  61.07   0
       635    371.9848   1005.0071 307.7549737  +6.2648105     1671.991     2930.807      2970.28     77.73064     155.5854     311.4189      1.847     5.40     855.3156     54.91994     212.0242        21     1.530     0.973  50.73   0
