#   1 NUMBER                 Running object number                                     
#   2 X_IMAGE                Object position along x                                    [pixel]
#   3 Y_IMAGE                Object position along y                                    [pixel]
#   4 ALPHA_J2000            Right ascension of barycenter (J2000)                      [deg]
#   5 DELTA_J2000            Declination of barycenter (J2000)                          [deg]
#   6 FLUX_APER              Flux vector within fixed circular aperture(s)              [count]
#   9 FLUXERR_APER           RMS error vector for aperture flux(es)                     [count]
#  12 FLUX_RADIUS            Fraction-of-light radii                                    [pixel]
#  13 FWHM_IMAGE             FWHM assuming a gaussian core                              [pixel]
#  14 BACKGROUND             Background at centroid position                            [count]
#  15 THRESHOLD              Detection threshold above background                       [count]
#  16 FLUX_MAX               Peak flux above background                                 [count]
#  17 ISOAREA_IMAGE          Isophotal area above Analysis threshold                    [pixel**2]
#  18 A_IMAGE                Profile RMS along major axis                               [pixel]
#  19 B_IMAGE                Profile RMS along minor axis                               [pixel]
#  20 THETA_IMAGE            Position angle (CCW/x)                                     [deg]
#  21 FLAGS                  Extraction flags                                          
         1    315.2673     21.8178 307.8046491  +6.6809872     15578.28     20560.76     21383.86      77.5178     155.5936     311.1563      1.371     2.89     828.5228     54.85726     2535.917        33     1.284     0.925  50.84   0
         2    642.2017     15.2363 307.6690198  +6.6945876     12732.11     16534.97     17299.55     77.14422     155.4698     311.0325      1.345     3.03     818.5012     54.85726     2281.957        26     1.224     0.851  48.10   0
         3    519.7622     14.8015 307.7199116  +6.6906956     1554.305     2156.711     2040.271     77.14422     155.4698     311.0015      1.392     3.27     819.0567     54.85726      252.719        12     1.043     0.792  73.96   0
         4    807.0272     14.5055 307.6005530  +6.7003620     1804.972     2570.322     2998.234     78.13647     155.4078     311.0634      1.480     3.93     818.0046     54.85726     271.8556        14     1.173     0.773  41.81   0
         5    877.1368     12.4902 307.5714865  +6.7035190     1700.484     2139.739     1699.066     78.01312     155.7792     311.2801      1.355     3.14      817.897     54.85726     306.0081        16     1.180     0.804  54.20   0
         6    242.1190     12.3159 307.8353608  +6.6824698     7657.354     10061.12     10272.82     77.76585     155.9028     311.2801      1.362     3.04       829.17     54.85726     1382.627        25     1.212     0.899  43.27   2
         7    245.9524     10.4308 307.8338311  +6.6833760     1036.315     1472.026     1554.037     77.64193     155.6555     311.1253      1.356     3.44     829.1774     54.85726     187.6469         8     0.993     0.616  30.98   3
         8    945.7375     11.7240 307.5430052  +6.7061086     466.6774     718.7918     464.4032     78.25961     155.6555     311.2182      1.194     3.88     816.4998     54.85726      83.0824         5     0.910     0.475  45.30   0
         9    663.5010      9.8181 307.6603498  +6.6975322     9566.566     12514.83     13421.17     78.01313     155.5317     310.9705      1.356     3.02     818.6646     54.85726     1488.089        26     1.272     0.855  46.21   3
        10    667.0739      7.3378 307.6589477  +6.6986749     15935.53     21030.53     21816.41     78.25961     155.6555     306.0701      1.391     3.11     818.6729     54.85726     2667.201        30     1.260     0.895  44.54  19
        11    633.8768     10.6241 307.6726328  +6.6962150     10942.11     14221.88     15616.74     77.64193     155.5317     311.1872      1.339     2.88     818.3867     54.85726     1646.725        28     1.230     0.876  46.70   0
        12    403.6313     10.7753 307.7683013  +6.6884912     9690.593      12585.6      12417.6      77.5178     155.5317     311.0325      1.346     2.94     825.1951     54.85726     1438.234        27     1.245     0.870  47.00   0
        13    719.2393      9.3271 307.6372048  +6.6995863      2250.05      2864.43     2165.911     77.88959     155.5936     311.2801      1.307     2.93     818.2225     54.85726     398.7728        15     1.060     0.841  54.59   0
        14    145.0212      9.5629 307.8757979  +6.6803645     593.3303     613.4176     557.7932     77.64193     155.4078     310.9705      1.293     4.53     828.5806     54.85726     85.57172         7     0.977     0.596  57.65   0
        15    182.2245      7.4993 307.8604088  +6.6824589     1312.735     1768.509     1489.489     78.13647     155.4078     306.9184      1.455     3.44     828.8163     54.85726     208.7515        13     1.064     0.892  82.13  16
        16    643.2478      6.4872 307.6688767  +6.6982344     3680.321     4711.912     5549.758     78.01313     155.5317     299.7115      1.346     2.80     818.4246     54.85726      665.559        19     1.132     0.882  61.46  16
        17     50.0221      3.9754 307.9154576  +6.6794961     3815.732     5114.805     5292.701      77.5178     153.2237     272.6577      1.426     3.00     827.1987     54.85726     587.5638        21     1.247     0.885  50.08  24
        18     31.0196      3.2645 307.9233770  +6.6791541     437.1175     635.0043     818.8019     77.64193     147.8503     263.0587      1.493     5.08     826.7099     54.85726     75.00549         5     1.191     0.613  79.24  16
        19    932.1469      2.9322 307.5489449  +6.7092881      949.006     1279.364     1509.529     77.88959     144.4237     258.5168      1.614     4.07     816.5737     54.85726     155.5887        11     1.067     0.935  58.67  24
        20    140.8037      1.7615 307.8778116  +6.6834442     5279.015     6480.499     6548.201     71.97808     129.7418     240.8528      1.225     3.21     828.4998     54.85726     981.7247        17     1.171     0.712  19.87  24
        21     71.9949      1.4456 307.9064126  +6.6812752     686.4921     804.1831     484.9291     69.11144     125.0553     235.6795      1.308     4.04     827.5934     54.85726     129.2903         7     1.056     0.534  24.47  24
        22    187.4684    989.6047 307.8253805  +6.2771761     851.8372     1334.108     1278.491      77.5178     155.2839     311.0325      1.804     5.43     847.4545     54.85726     135.9646        10     1.246     0.780 -50.34   0
        23    740.2810   1022.1254 307.5947728  +6.2821405     7605.137     11561.74     11891.49     78.25961      144.023     257.8828      1.624     3.50     850.3084     54.85726      972.061        35     1.436     1.145  29.49  24
        24    535.8120   1022.7070 307.6796482  +6.2751099      4151.89      5737.42     5899.716     76.89416     136.9631     249.0689      1.492     3.35     852.4524     54.85726      586.618        23     1.305     0.943  24.52  27
        25    533.0241   1015.1620 307.6810570  +6.2781322     8644.443     13323.64     14627.58     77.64193     155.4698     311.0325      1.644     3.40     852.2065     54.85726     1153.278        37     1.461     1.130  50.09  18
        26    505.9331   1023.5071 307.6920270  +6.2737862     851.7169     866.8152     743.8395     69.94247     126.2051     236.8208      1.152     4.38     852.3864     54.85726     124.9478         9     1.061     0.641  -1.04  24
        27    285.7571   1021.8234 307.7834967  +6.2671518     15220.77     22610.45     23795.07     77.64193       146.87     261.9214      1.591     3.24      850.012     54.85726     2037.628        40     1.381     1.167  36.13  26
        28    290.0368   1018.9550 307.7818157  +6.2684786     1021.736     1328.313     1690.131     77.76585     155.6555     295.6353      1.283     4.57     850.0552     54.85726     171.3409         8     0.986     0.645 -62.16  19
        29     47.4971    988.5947 307.8835273  +6.2729207     2738.764     4364.752     4548.857     77.76586     155.3459     310.9705      1.727     3.92     846.6456     54.85726     360.2526        24     1.417     1.000  36.07   0
        30    941.3141    986.2144 307.5124940  +6.3036299     6007.751     10534.49     11610.41     77.64193     155.4078     311.0944      1.901     4.18     845.0336     54.85726     685.8384        40     1.653     1.256  32.55   0
        31    196.9612    982.4614 307.8216780  +6.2804418     624.2874     973.8773     1257.708     78.01312     155.6555     311.2491      1.793     7.24     847.4872     54.85726     77.71741         9     1.570     0.935  78.73   0
        32    623.6520    980.3465 307.6445872  +6.2955177     679.8354     1191.175     961.5702     78.13647     155.5936     311.2491      1.735     4.83     849.7097     54.85726     98.49561         7     1.445     0.457  48.96   0
        33    915.1954    978.0585 307.5236096  +6.3061323     1940.295     3421.079      3924.51     77.39347     155.5317     311.0015      1.885     4.36     845.5538     54.85726     224.4009        26     1.433     1.137  51.19   0
        34    774.5363    974.3183 307.5821384  +6.3030146     1454.485     1889.568     1631.692     78.13647     155.7173     311.2182      1.481     3.92     848.6598     54.85726     196.7986        15     1.076     0.969  54.59   0
        35    635.8196    973.9242 307.6397488  +6.2985734     4725.396     7169.899     7243.056     77.64193     155.3459     311.1563      1.603     3.32     849.6675     54.85726     602.7449        29     1.323     1.107  39.73   0
        36    984.9481    972.9196 307.4948171  +6.3105634     729.6974     1184.944     1459.115     78.01313     155.6555     311.2182      1.736     4.64     843.4567     54.85726       97.427         7     0.911     0.672 -60.10   0
        37    457.9808    972.3470 307.7136415  +6.2933129     1194.617     1670.712     2334.466      77.5178     155.6555     311.0325      1.539     3.86     850.8028     54.85726     214.6848        10     1.069     0.617  65.81   0
        38     16.6075    971.8608 307.8969120  +6.2787971     2197.131     3232.178     3078.049     77.39347     155.4698     311.0015      1.592     3.82     845.4489     54.85726     266.2897        21     1.259     1.058  22.97   0
        39    667.6745    970.7918 307.6266264  +6.3009244     611.4185     880.6516     976.0511     77.64193     155.2218     311.0634      1.475     5.82     849.5961     54.85726     85.19366         6     1.243     0.766  53.77   0
        40    867.8587    970.0468 307.5435308  +6.3078719      826.558     1403.529      1905.73     78.01312     155.6555     311.3419      1.846     3.96      845.976     54.85726     121.9534         7     1.044     0.770  30.50   0
        41    283.7631    967.8033 307.7861283  +6.2893875      851.019     1238.377     1867.476     77.14422     155.4698     311.0325      1.456     4.52     848.7728     54.85726     128.7491         7     1.018     0.570  25.48   0
        42    560.4416    966.5134 307.6712933  +6.2991286     1759.477     2715.257     2865.726     78.01313     155.5936     311.2491      1.606     3.47     850.5048     54.85726     236.0997        19     1.210     0.967 -12.98   0
        43    992.0557    965.5410 307.4921104  +6.3138450     676.2843     1564.902      1798.76     78.13647     155.6555     311.2491      2.817     4.91     843.1741     54.85726     93.57983         6     1.254     0.545  24.72   0
        44    599.4631    962.6955 307.6552181  +6.3020015     1301.179      1941.46     2030.803      77.8896     155.7792     311.2491      1.604     3.46      849.827     54.85726      211.764        16     1.144     0.901  47.55   0
        45     49.0385    963.1181 307.8837400  +6.2834900     718.3475     1433.344     1638.105     78.01313     155.7173     311.1563      1.887     3.47      845.295     54.85726     122.0192         8     0.980     0.578 -66.37   2
        46    279.4720    960.6296 307.7881495  +6.2922062     1492.975     2278.494     2691.357      77.8896     155.6555     311.1872      1.767     3.64     848.5361     54.85726     209.2205        16     1.191     0.921 -27.18   0
        47    247.8738    974.3491 307.8008107  +6.2854888     4656.532     6854.168     6926.077     78.01312     155.7173     311.2491      1.575     3.21     848.2265     54.85726     681.4773        28     1.314     1.090  55.00   0
        48    746.0430    956.2217 307.5945707  +6.3095408     826.3545     1011.891     724.0388      77.5178     155.5317     311.0325      1.435     4.35     848.8255     54.85726      106.406         6     0.831     0.649   0.39   0
        49    883.9652    953.0858 307.5374059  +6.3154081     6763.324     10648.73     10901.24     78.01313     155.5317     311.2182      1.685     3.60     845.8161     54.85726     771.0543        35     1.435     1.175  36.98   0
        50    122.3198    954.4308 307.8536053  +6.2895235     606.7946     932.2429     940.5901      77.8896     155.6555     311.1872      1.413     3.48     846.0333     54.85726     86.88403         5     0.753     0.463  17.08   0
        51     92.4721    951.7678 307.8660868  +6.2896265     633.0682     777.0749    -167.6119     77.88959     155.6555     311.1872      1.405     4.25     845.5483     54.85726     97.52356         5     0.879     0.587  41.51   0
        52    419.7670    950.4535 307.7302380  +6.3010801     2306.687     3336.999     3522.439     77.88959     155.5936     311.1563      1.541     3.38     849.7343     54.85726     338.6215        20     1.288     0.911  21.23   0
        53    321.5276    948.8920 307.7710798  +6.2984535     10472.43     15153.49     15592.36     77.88959     155.7792     311.2491      1.546     3.20     848.9153     54.85726     1374.927        34     1.355     1.056  44.26   0
        54    241.6310    947.8210 307.8042888  +6.2962328     7603.156      10841.3     10870.12      77.5178     155.4698     311.0944      1.532     3.02     847.7297     54.85726     1003.232        32     1.376     1.026  33.64   0
        55    160.2495    945.4651 307.8381569  +6.2944909     504.0543     748.2395     381.4377     77.88959     155.5317     311.2182      1.313     3.05     846.3961     54.85726     98.87012         5     0.721     0.477  15.67   0
        56    569.6072    942.1276 307.6682995  +6.3095011     1313.516      1868.77     2050.077     77.64193     155.2218     311.1253      1.549     3.81     849.8417     54.85726     200.0618        15     1.278     0.796  35.83   0
        57    753.9545    941.5027 307.5917749  +6.3158802     757.3249     984.4586     1204.595     78.01312     155.5317     311.3728      1.581     5.60     848.3977     54.85726     101.6127         8     1.453     0.609  43.12   0
        58    899.8545    938.1110 307.5313052  +6.3221171     1042.531     1512.893     1281.332     78.01312     155.5317     311.3419      1.483     4.24     845.6395     54.85726     138.3342        14     1.172     0.867  73.65   0
        59    132.0084    938.7458 307.8501072  +6.2963224     566.5733     593.1064     365.0405      77.5178     155.5936     310.9396      1.306     4.92     845.8398     54.85726     83.92004         7     1.036     0.661  68.58   0
        60    855.2817    936.6412 307.5498621  +6.3212471     719.8793     1156.495     1322.445     78.01313     155.6555     311.1563      1.639     4.14     846.2357     54.85726     106.0198         6     0.713     0.685  58.96   0
        61    398.4088    936.1841 307.7395820  +6.3062604     742.9758     1048.008     1483.855     77.76586     155.4078     311.0944      1.622     5.07     849.1561     54.85726     87.74609         9     0.897     0.811 -55.37   0
        62    828.9399    932.0602 307.5609523  +6.3222653     442.1825     805.0355     260.4467     78.01313     155.6555     311.2491      1.229     3.78     846.7861     54.85726     83.91547         5     1.520     0.270 -68.00   0
        63    736.0124    931.1375 307.5995695  +6.3195644     1755.692     2513.214       2291.4      77.5178     155.4698     311.0015      1.513     3.44     848.4752     54.85726     243.5826        18     1.206     0.911  42.16   0
        64    559.8883    931.8378 307.6726777  +6.3134263     693.2147     1127.778     1237.786     78.01312     155.5317     311.2182      1.645     3.74     849.6562     54.85726      108.301         6     0.916     0.459  33.52   0
        65    967.5235    926.8846 307.5035789  +6.3289929     1239.539       2068.1      2886.49     78.13647     155.9645      311.311      1.850     4.14     843.8469     54.85726     168.8459        16     1.203     0.903  61.88   0
        66    600.3122    927.9130 307.6560234  +6.3163901     941.3428     1334.703     1057.542     77.76585     156.0262      311.311      1.495     3.58     849.5659     54.85726     164.7553        11     1.129     0.643  23.81   0
        67    521.0765    926.8636 307.6889589  +6.3141897     1316.237     1999.925     2172.761     78.25961     155.6555     311.1872      1.485     3.64     849.7094     54.85726     223.3475        12     1.166     0.698  58.73   0
        68    611.5547    926.7582 307.6513936  +6.3172403      706.968      943.036     925.8463     77.88959     155.6555     311.0634      1.363     5.15     849.5321     54.85726     93.89954         7     1.126     0.665  54.19   0
        69    654.5552    924.5174 307.6336132  +6.3195937     2845.346     4058.857     3935.149     78.01313     155.6555     311.2182      1.527     3.11     849.2867     54.85726     380.5266        21     1.254     0.932  38.60   0
        70    944.5795    922.0256 307.5132674  +6.3302394      612.744     1052.398     1064.333     77.64193     155.4698     311.1253      1.829     4.87     844.6406     54.85726     93.98358         7     0.917     0.732  34.99   0
        71    815.5157    921.1967 307.5668873  +6.3263054     795.6445     1000.905     920.0676     77.39347     155.2839     310.9396      1.502     4.73     846.9284     54.85726     116.1724        10     1.234     0.746  77.65   0
        72    194.5337    920.0076 307.8247731  +6.3061448     2415.618     3281.333     3056.671      77.5178     155.4078     311.0634      1.464     3.49      846.591     54.85726     336.2576        19     1.206     0.937  51.55   0
        73     51.0999    920.9789 307.8842945  +6.3009557     2980.023     4673.251     4438.297     78.01313     155.4078     311.0015      1.608     3.34     843.5116     54.85726     461.8161        23     1.243     1.026  56.78   0
        74     68.6798    920.3700 307.8770158  +6.3017943      2267.33      3026.54     3114.267     77.88959     155.6555     311.1872      1.434     2.84     843.9686     54.85726     328.2217        16     1.071     0.872  41.20   0
        75    932.4213    919.4006 307.5184031  +6.3309206     601.8176     823.0698     653.4356     77.64193     155.3459     310.9396      1.145     3.41       845.08     54.85726     101.3006         5     1.031     0.327 -21.92   0
        76    333.4996    916.2255 307.7671992  +6.3123388     995.9135     1650.803     2097.061     78.13647     155.4078     311.1253      1.810     4.69      848.209     54.85726      164.868        12     1.224     0.801  46.56   0
        77    228.2890    916.3026 307.8108815  +6.3088002     880.9604     1381.378     1737.303     78.01313      156.088     311.2182      1.706     3.96     847.0874     54.85726     139.7953         9     1.037     0.731  53.76   0
        78    649.2824    913.7776 307.6361599  +6.3238527     7538.897     10780.68     11250.16     77.76586     155.3459     311.1253      1.524     3.07     849.1456     54.85726      1019.59        32     1.367     1.012  52.20   0
        79    786.9678    914.4643 307.5789651  +6.3281384     730.8071     1070.525     833.7112     77.76585     155.7173     311.1872      1.434     2.47     847.3565     54.85726     139.9231         6     0.763     0.498  -2.29   0
        80      9.4194    912.2596 307.9018920  +6.3031628     1248.026     1706.157     1662.189     77.64193     155.5317     311.0944      1.483     3.76     842.4951     54.85726     186.5181        15     1.131     0.899  62.26   0
        81     22.2546    910.7014 307.8966150  +6.3042350     1216.667     1906.755     2041.551     77.88959     155.6555     311.4347      1.667     3.64     842.7886     54.85726     159.5397        14     1.141     0.823  60.72   0
        82    886.9214    909.9478 307.5376102  +6.3333163     2647.202     4068.326      4009.22     78.01313     155.6555     311.2182      1.649     3.72     845.6052     54.85726     314.2386        25     1.354     1.080  27.83   0
        83    438.7881    911.3231 307.7236449  +6.3178684     599.9482     723.1636     519.2947     77.64193     155.2839     311.0634      1.383     3.38     848.9875     54.85726     91.65588         6     0.722     0.648  53.44   0
        84    332.2108    907.0871 307.7680394  +6.3160687     18138.29     25385.14     26639.33     77.64193     155.4078     311.0634      1.489     3.07     848.0553     54.85726     2706.304        38     1.331     1.043  43.40   0
        85     66.5514    908.2950 307.8783036  +6.3067083     1421.932     1806.278     2247.536      77.8896     155.5317     311.3728      1.442     3.41     843.7207     54.85726     180.2852        14     1.059     0.847  49.45   0
        86    202.9183    906.7146 307.8217360  +6.3119125     1310.293     2105.796     2177.864     77.76585     155.9028     311.2801      1.693     3.18     846.5067     54.85726     207.0746        12     0.949     0.885 -57.97   0
        87    382.5757    905.9402 307.7471651  +6.3182195     808.9508     993.7677      408.975     77.64193     155.6555     311.0944      1.419     4.56     848.3221     54.85726     107.1131         8     0.853     0.692   8.07   0
        88    409.6786    897.6280 307.7361886  +6.3225536     1130.022     1630.716     1803.058     77.88959     155.5936     311.2182      1.555     3.45     848.3079     54.85726     173.9056        11     1.032     0.798  42.04   0
        89     95.3660    897.6813 307.8666948  +6.3120524      1952.46      2622.52     2455.679     77.88959     155.6555     311.2182      1.459     3.40     844.0022     54.85726     290.0277        16     1.194     0.851  26.13   0
        90    663.3905    893.5594 307.6309744  +6.3326685     966.8932     1358.181     2141.978     77.39347     155.4698     310.9396      1.802     3.98     848.7969     54.85726      123.343         9     1.011     0.632 -84.63   0
        91    490.3438    894.4528 307.7027999  +6.3265487     663.8817     897.3453      787.204     78.13647     155.6555     311.1872      1.540     3.75     849.2682     54.85726     103.9891         6     1.039     0.461  11.58   0
        92    877.0922    891.5991 307.5423009  +6.3405662     1827.941     2871.512     2297.573     77.39347     155.2218     310.9705      1.692     3.79     845.5958     54.85726     240.2015        20     1.230     1.023  42.21   0
        93    811.4019    890.5855 307.5696123  +6.3388073     3143.537     4632.957     4492.322     77.64193     155.3459     311.0325      1.617     3.49     846.6451     54.85726     402.3607        28     1.421     1.040  43.73   0
        94     79.0151    891.3599 307.8736953  +6.3141162     2698.403     3968.088     4527.521      77.5178     155.4698     311.0015      1.543     3.01     843.5953     54.85726      444.038        19     1.251     0.909  36.09   0
        95    847.8463    891.0881 307.5544622  +6.3398080     1973.801      2888.57     2653.348     78.01312     155.5317     311.2182      1.539     3.17     846.0407     54.85726     258.8683        18     1.112     0.951  59.89   0
        96    547.3198    882.1804 307.6795503  +6.3335101     374158.6     518099.8       537737     77.64193     155.3459     311.1563      1.493     3.30     848.9329     54.85726        57593       163     1.508     1.254  49.30   4
        97    441.6847    889.3784 307.7231739  +6.3270248     559.7833     816.0489     839.8041     77.76586     155.3459     311.1563      1.358     3.40     848.5547     54.85726     103.5886         5     1.007     0.332  21.83   0
        98    391.5273    884.8663 307.7441512  +6.3272181     8665.682     11767.74     11984.23     78.13647     155.7173     311.2182      1.469     3.23     847.9111     54.85726     1183.562        29     1.306     0.967  43.12   0
        99    334.7240    883.2726 307.7677907  +6.3259843     14115.34     19641.51     20383.77     78.25961     155.9028     311.2182      1.489     2.99     847.6616     54.85726     1984.274        36     1.336     1.045  43.77   0
       100    635.1122    884.8752 307.6430056  +6.3353147     1266.204     1739.893     1768.753     78.01312     155.9645      311.311      1.419     3.98     848.7272     54.85726     156.7314        11     1.002     0.772  45.46   0
       101    447.8289    885.6564 307.7207467  +6.3287659     522.7286     778.9752     1083.128     77.64193     155.7173     311.1253      1.308     4.59     848.5884     54.85726     88.41693         6     1.303     0.459   5.74   0
       102    653.1701    879.4258 307.6356885  +6.3381643     4055.628     5519.912     5849.807      77.5178     155.4698     311.0634      1.479     3.26     848.5966     54.85726     573.6033        21     1.177     0.935  39.68   0
       103    885.6694    878.2375 307.5391827  +6.3463669      5309.42     8386.742      8574.09     77.88959     155.6555      311.311      1.691     3.55     845.3473     54.85726     643.6606        33     1.468     1.093  41.87   0
       104    724.9325    875.7578 307.6060114  +6.3420609     799.8308      1098.35      695.285     78.01312     155.5936     311.2801      1.565     5.21     847.7136     54.85726     102.5001        10     1.007     0.761  58.95   0
       105   1019.1660    872.3038 307.4839440  +6.3532367     4265.147     7049.868     7241.173     78.13647     155.5317     293.9694      1.769     3.97     841.5952     54.85726     472.6541        29     1.453     1.150  55.44  16
       106    628.0100    873.5081 307.6463331  +6.3397719     3699.514     5497.781     5857.691     77.76585     155.2839     310.9705      1.572     3.42     848.5567     54.85726     502.1554        23     1.310     0.964  47.66   0
       107    816.5628    872.6739 307.5680643  +6.3463735     1557.717     2363.067     2711.833      77.8896     155.7173     311.2491      1.667     4.43     846.3303     54.85726     216.9471        18     1.286     0.974  44.93   0
       108    326.8173    889.2012 307.7708759  +6.3232732      742.824     1052.487      1528.25     77.64193     155.2218     310.9396      1.445     3.49     847.7595     54.85726     138.3387         7     1.009     0.625  66.49   0
       109    618.4957    872.4647 307.6503186  +6.3398866     1238.377     1887.405     2055.767     78.01313     155.7792     311.2491      1.686     4.35     848.5361     54.85726     182.4401        14     1.138     0.920  28.68   3
       110    620.8839    868.0107 307.6494751  +6.3418048     2375.026     3352.552     3850.857     77.64193     155.4078     311.0634      1.446     3.36     848.4626     54.85726     342.2891        18     1.208     0.826  53.98   2
       111    943.1823    871.0688 307.5155380  +6.3512315     846.1719     1167.879     1456.858      77.5178     155.5317     311.1563      1.470     6.05     844.1106     54.85726     113.4416        11     1.125     0.915 -24.37   0
       112    904.6297    865.9302 307.5317178  +6.3520763     3186.133     4915.368     5391.091     77.88959     155.6555     311.1563      1.691     3.84     844.9211     54.85726     393.0222        27     1.358     1.113  40.69   0
       113    314.2231    866.9013 307.7768498  +6.3320602      1051.69     1316.302     894.0411     78.13647     155.4078     311.0325      1.361     4.93     847.4905     54.85726     162.8432        12     1.291     0.695  25.53   0
       114    362.6484    862.1699 307.7568999  +6.3356267     2992.589     4433.499     4506.907     77.64193     155.7173     311.1253      1.586     3.23     847.2432     54.85726     446.7667        23     1.385     0.882  38.09   0
       115    330.9802    854.9739 307.7702899  +6.3375427     605.6288     936.2128     497.9976      77.5178     155.4698     311.1253      1.586     4.04     847.1224     54.85726     96.80841         7     0.929     0.501  47.14   0
       116    499.1477    851.8756 307.7005631  +6.3444198     3678.492     5161.918     5294.625     78.01312     155.7173     311.2182      1.513     5.33     847.9479     54.85726     551.5034        20     1.277     0.905  33.79   0
       117    843.4233    850.4134 307.5576496  +6.3564545     1181.672     1464.249     2065.387     77.76586     155.4698     311.1253      1.448     4.60     845.6521     54.85726     143.8403        12     1.099     0.793  15.98   0
       118    563.9106    849.5009 307.6737495  +6.3475536     742.0427     830.8857     1118.701     78.01312      156.088     311.1872      1.226     4.78     847.9124     54.85726     143.8621         8     1.192     0.544  20.29   0
       119    545.7242    847.9788 307.6813521  +6.3475774     7050.815      9500.33     10126.15     77.64193     155.4698     311.1563      1.432     3.07       847.72     54.85726     951.4592        25     1.253     0.930  49.28   0
       120    552.5870    847.1588 307.6785296  +6.3481441     1438.096      2214.36     3037.836     77.39347     155.4698     310.9396      1.623     3.41     847.7043     54.85726     226.5365        15     1.158     0.902  10.67   0
       121    463.3612    846.9098 307.7155888  +6.3452795     1800.217     2535.513     1885.572     78.01312     155.5936     311.2491      1.437     3.48     847.4256     54.85726     268.5229        14     1.082     0.841  64.83   0
       122    257.1685    848.2200 307.8011646  +6.3378711     760.7672     941.0246     845.2656      77.5178     155.4698     311.0634      1.278     3.65      846.309     54.85726     153.0325         9     1.030     0.604  32.65   0
       123    104.9541    846.1707 307.8644370  +6.3336385     1699.172     2365.284     2450.058      77.5178     155.7173     311.0944      1.393     2.94     842.8234     54.85726     258.2184        14     1.075     0.779  40.63   0
       124    881.1870    845.8021 307.5421208  +6.3596098     1329.568     2122.091     2218.747     77.64193     155.3459     311.0015      1.651     5.37     844.9987     54.85726     192.2969        17     1.446     0.929  24.68   0
       125    680.9464    844.5718 307.6253139  +6.3534765     764.2853     1213.703     1473.663     77.76585     155.7792     311.1253      1.766     3.66     847.8499     54.85726     132.0685         7     1.044     0.450  48.29   0
       126    516.3947    841.8831 307.6937343  +6.3491189     22222.63     30506.56      31430.8      77.5178     155.2839     310.9705      1.456     3.02     847.3644     54.85726     3213.892        44     1.357     1.028  45.64   0
       127    357.0823    843.5998 307.7598309  +6.3431081     819.8994     1024.573     732.6485     77.26894     155.1598     310.8776      1.394     5.14     846.8373     54.85726      110.331         9     0.910     0.820  82.89   0
       128    930.0025    839.9206 307.5220445  +6.3636552     3793.622     5709.393      5801.65     77.39347     155.1598     311.0015      1.614     3.68     844.0452     54.85726     481.3993        24     1.305     1.039  42.84   0
       129     49.8160    838.4745 307.8875893  +6.3349743     550.6644     783.6698     455.4468      77.5178     155.4078     311.0944      1.435     4.23     842.3331     54.85726     75.06549         6     1.039     0.490  -5.97   0
       130    401.7779    837.3962 307.7414783  +6.3471576     582.1326     914.8201      949.792     77.64193     155.3459     311.0015      1.577     4.10     846.4818     54.85726     109.4485         6     0.939     0.512  39.49   0
       131    684.4466    834.2333 307.6242043  +6.3578610     628.5955     859.9116     1562.908     77.76586     155.6555     311.1563      1.753     4.50      847.597     54.85726     101.3948         7     1.040     0.553  35.64   0
       132     26.7205    832.5139 307.8973786  +6.3366634     1585.708     2373.344     2123.979     77.76586     155.9645     311.3419      1.597     3.22     842.1559     54.85726      243.766        16     1.124     0.898  46.58   0
       133    571.9987    832.0593 307.6709718  +6.3550233     595.0648     828.2563     883.7249     77.39347     155.4078     310.9396      1.605     3.66     847.1795     54.85726     86.35443         5     1.006     0.384  58.22   0
       134    309.0109    830.6938 307.7802230  +6.3468349      3743.23     5061.676     5698.987     77.76585     155.3459     311.0015      1.430     2.78     846.4351     54.85726     573.3337        22     1.205     0.926  46.85   0
       135    774.5647    826.3130 307.5870448  +6.3641216     60937.09      85003.8     88408.55     78.01313     155.5317     311.2182      1.537     3.16     846.2814     54.85726     8590.532        66     1.448     1.128  47.40   0
       136      8.8749    828.9400 307.9049082  +6.3375425     2322.727     3536.301     3288.071     78.25961     155.6555     311.1872      1.570     3.85     842.0078     54.85726     317.2535        23     1.399     1.033  48.48  16
       137    417.7406    825.1295 307.7352590  +6.3527534     932.9514     1161.956     1081.476     78.13647     155.6555     311.2801      1.395     4.05     845.9114     54.85726     128.6649        10     1.043     0.680  50.44   0
       138    231.7177    824.2982 307.8125320  +6.3468986     5824.925      8484.92     10448.71     78.01313     156.0262      311.311      1.674     3.02     844.9597     54.85726      881.893        32     1.317     1.229  86.97   0
       139    899.8391    821.4948 307.5351821  +6.3702635     9145.841      13649.5     14275.97     78.13647     155.5317     311.3419      1.610     3.39     844.2507     54.85726     1164.051        36     1.434     1.092  42.36   0
       140    702.7660    820.9037 307.6170403  +6.3639725     23853.36     33995.89     36030.09     78.13647     155.5317     311.3419      1.492     3.12     847.1251     54.85726     3358.391        43     1.476     1.030  46.52   3
       141    696.4960    817.4357 307.6197594  +6.3651962       101036     136707.2     141705.8     78.13647     155.5317     311.3728      1.491     3.05     847.1353     54.85726     15278.36        71     1.394     1.126  49.80   3
       142    519.3105    821.8772 307.6931901  +6.3574755     506.8583     769.2023     723.8552     77.88959     155.9028     311.2801      1.578     5.59     846.1974     54.85726     89.89795         7     1.359     0.649  27.31   0
       143    341.3290    818.4854 307.7672106  +6.3529519     23740.51     31822.74     33074.02     78.13647     155.9028     311.2491      1.456     2.96     846.2507     54.85726      3827.51        43     1.322     1.032  44.78   0
       144    390.6384    818.6523 307.7467293  +6.3545252     1618.775     2096.486     1694.759     77.76586     155.7173     311.2182      1.362     3.69     845.9354     54.85726     231.4993        14     1.140     0.797  48.87   0
       145    630.0519    817.7396 307.6473413  +6.3628643     996.6378      1113.54     1076.223     78.01312     155.5936     311.2182      1.290     3.91     847.4263     54.85726     143.9349        10     0.975     0.804 -47.55   0
       146    403.2194    816.2890 307.7415838  +6.3559198     25176.87     33932.58     35241.66     77.76586     155.4078     311.1253      1.435     2.98     845.6913     54.85726     4224.333        39     1.302     1.013  44.23   0
       147    940.5102    815.0209 307.5185071  +6.3742834     2043.268     3499.575     2970.577     77.88959     155.4698     311.1253      1.759     4.61     843.2365     54.85726     264.8493        22     1.549     0.928  51.41   0
       148    231.3489    802.9410 307.8133988  +6.3557036     769729.7      1591296      1729561     78.01312     155.6555     311.2182      2.131     4.51     844.2197     54.85726      64251.5       580     2.327     2.148  86.45   4
       149    896.7388    812.9620 307.5367527  +6.3736837     7156.127      10955.9     11745.31     78.01312     155.7173     311.2182      1.660     3.37     844.1655     54.85726     899.1861        36     1.442     1.121  40.33   0
       150    869.3076    813.6139 307.5481227  +6.3725056     857.9814     1066.566     1397.022     77.76586     155.4078     311.0015      1.471     4.48     844.6544     54.85726     115.4957        10     1.067     0.721  60.48   0
       151    637.2922    812.1358 307.6445211  +6.3654184     7453.332     10228.83     10284.56     78.01312      155.841     311.2801      1.481     3.06     847.3006     54.85726     1185.788        29     1.318     0.961  46.95   0
       152    377.2589    812.0319 307.7525061  +6.3568130     665.4264     667.2346     36.04407     77.88959     155.7173     311.1872      1.232     4.32     845.8918     54.85726     84.28473         7     0.737     0.720 -69.45   0
       153    126.6870    812.1752 307.8565501  +6.3483991     579.0211     824.4238     836.3987     78.13647     155.4698     311.0944      1.452     3.12     842.4338     54.85726     97.99066         6     0.730     0.627  19.27   0
       154    593.8813    811.4420 307.6625712  +6.3642626     518.2361     629.1525     416.6897     78.01312     155.6555     311.1563      1.164     4.20     846.8785     54.85726     75.87286         5     0.914     0.550  46.12   0
       155    425.9312    810.1350 307.7323579  +6.3592166     1936.368     2617.218     3080.822     78.01312     155.7173     311.2491      1.465     3.58     845.3005     54.85726     295.5546        17     1.175     0.932  36.02   0
       156    151.4155    809.8423 307.8463599  +6.3501876     908.6551     1226.364       1302.9      77.5178     155.4078     311.0015      1.604     5.28     842.8419     54.85726     123.7296        10     1.196     0.657  66.01   0
       157    724.6727    806.3899 307.6084258  +6.3706918     644.4584     1021.189     687.1658      77.5178     155.2839     311.0944      1.429     4.28     846.6393     54.85726     94.79498         6     1.310     0.398 -45.33   0
       158   1020.0805    804.6652 307.4858066  +6.3811928     813.5427     1379.737     1454.519     78.25961     155.7173      283.972      1.945     5.31     840.2339     54.85726     90.32239         9     0.998     0.798  46.77  16
       159    590.4926    803.8184 307.6642323  +6.3672975     1016.042     1375.577     1349.266     77.88959     155.4078     311.0944      1.377     3.70     846.5457     54.85726     172.2286        12     1.031     0.835  69.40   0
       160    141.5282    803.1866 307.8506881  +6.3526054     1027.329     1563.363     2343.252      77.5178     155.4078     311.0944      1.926     3.90     842.4478     54.85726     157.0345        12     1.063     0.841  51.12   0
       161    672.4128    802.1846 307.6302677  +6.3706932     2734.099     3430.448     3057.961     77.88959     155.3459     311.1563      1.409     3.53     847.0932     54.85726     414.3959        18     1.204     0.839  38.44   0
       162    406.1470    798.9669 307.7409460  +6.3631688     62042.98     83849.66     86698.39     77.88959     155.5936     311.1563      1.417     2.97     844.9716     54.85726     9658.719        65     1.364     1.098  43.36   0
       163    116.3925    802.9885 307.8611321  +6.3518480     1065.819     1506.379     1456.909     77.64193     155.4698     311.1253      1.600     3.35      841.979     54.85726     151.6123        11     0.947     0.794  19.72   0
       164    949.0246    800.4643 307.5154543  +6.3805753     751.2652     1019.353     753.9341     77.64193     155.6555     311.1872      1.521     4.57     842.6882     54.85726     103.2647         8     1.033     0.575  41.28   0
       165     58.3368    800.2516 307.8853307  +6.3510390     559.1019     772.5934     705.8083     78.01313     155.5936     311.1872      1.444     3.71     841.4244     54.85726     92.67511         5     0.936     0.422  -7.03   0
       166    523.9290    797.9086 307.6920708  +6.3675247     8255.421     10976.95     11487.51     77.88959      155.841     311.2182      1.401     3.01      844.903     54.85726     1257.837        27     1.248     0.926  39.70   0
       167    440.6862    796.5515 307.7266838  +6.3653158      5079.97     7002.193     7899.399     78.01313     155.5936     311.2491      1.490     3.01     844.7501     54.85726      782.058        25     1.245     0.922  48.59   0
       168    769.1196    794.4250 307.5903658  +6.3771063     12790.54     17950.32     18457.51     77.76585     155.4698     311.2182      1.500     3.09     845.8017     54.85726     1901.984        38     1.359     1.059  44.29   0
       169    663.5881    793.7096 307.6342144  +6.3738992     503.9834     613.3653     238.6508     77.76586     155.3459     311.0325      1.399     4.45     846.7818     54.85726     78.48987         5     0.797     0.714 -27.09   0
       170    437.3139    790.0928 307.7282996  +6.3678700       2598.3     3627.802     3979.515     77.88959      156.088      311.311      1.485     2.99     844.4354     54.85726     419.2931        18     1.161     0.872  48.59   0
       171    790.7616    788.6090 307.5815717  +6.3802254      1407.34     2224.258     2143.422     77.26894     155.4698     310.9396      1.646     3.76     845.4034     54.85726     238.0693        13     1.204     0.711  62.82   0
       172    134.8960    787.0916 307.8539805  +6.3590288     3379.682     4856.302     5229.897     78.01313     156.1496     311.1872      1.530     3.50     841.8134     54.85726     499.3894        22     1.334     0.913  39.63   0
       173    126.7940    786.7048 307.8573577  +6.3589180     13082.86        18129     19449.05     77.76585     155.3459     311.0325      1.463     3.00      841.699     54.85726     1760.578        38     1.365     1.055  29.94   3
       174    119.0003    784.0863 307.8606817  +6.3597388     3406.792     4956.745     5770.763     77.26894     155.1598     310.8776      1.577     3.12        841.5     54.85726     528.4819        25     1.323     0.993  42.41   3
       175    914.5997    782.8964 307.5303334  +6.3866884     6608.513     9843.269      9930.76      77.5178     155.2839     310.8157      1.580     3.32     843.2471     54.85726      885.554        30     1.375     1.067  41.70   0
       176    963.8307    782.8220 307.5098908  +6.3883494     1476.038     2234.798     3287.572      77.5178     155.4698     311.0634      1.603     3.55     841.9637     54.85726     227.5353        19     1.197     1.033  29.42   0
       177    670.1003    780.6575 307.6319443  +6.3795041     1879.664      2376.77       1849.1     77.76585     155.6555     311.4347      1.325     2.93      846.241     54.85726     291.6221        15     1.072     0.802  40.95   0
       178    556.9603    780.0060 307.6789503  +6.3760142     2626.634     3581.019     3999.028     77.26894     155.3459     310.9396      1.460     3.13     844.8607     54.85726     412.4899        18     1.103     0.917  43.29   0
       179    404.8025    779.7443 307.7421456  +6.3710602     1493.619     1995.175     2205.981     77.39347     155.4078     310.9086      1.415     3.10     843.9727     54.85726     263.5132        13     1.103     0.735  67.23   0
       180    688.0485    778.0137 307.6245787  +6.3811916     687.7512     898.5395     358.2072     77.39347     155.5936     310.9086      1.304     4.08     845.9908     54.85726     102.2807         7     0.929     0.511  45.58   0
       181    119.1156    777.6120 307.8608504  +6.3624156     2069.633     2944.662      3545.46     77.64193     155.4698     311.0634      1.532     3.28     841.3309     54.85726     304.6259        16     1.129     0.879  43.83   0
       182    908.7047    774.8625 307.5330481  +6.3898101     3205.742     4659.721     4715.162     77.88959     155.7173     311.2491      1.517     3.23     843.1835     54.85726     415.7019        25     1.373     0.998  47.84   0
       183    938.3560    774.4357 307.5207484  +6.3909684     3155.279     4727.914     4514.272     77.76586     155.5936     311.0944      1.621     3.55     842.5288     54.85726     430.7854        25     1.301     1.046  37.05   0
       184    969.0223    773.9682 307.5080284  +6.3921768     1947.391     2743.375     3319.375      77.5178     155.4698     311.0325      1.518     3.34     841.7351     54.85726     250.2627        19     1.196     0.938  42.99   0
       185    661.2275    774.2624 307.6358418  +6.3818498     1690.027     1965.286     1548.441     77.64193     155.6555     311.1872      1.348     3.00     845.9498     54.85726     259.7521        13     1.010     0.763  48.92   0
       186    808.3071    772.4665 307.5748217  +6.3874719     1076.065     1680.097     1192.558      77.8896      155.841     311.2182      1.594     4.43       844.77     54.85726     180.4258        13     1.153     0.842  46.33   0
       187    883.4366    769.9808 307.5437038  +6.3909885     789.6535     1054.211       1404.1     77.64193     155.4698     311.0015      1.408     3.42     843.6079     54.85726     126.1446         8     0.815     0.691  -0.23   0
       188    233.6451    769.5286 307.8135618  +6.3695745      2037.65      2927.14     4024.624      77.8896     155.6555     311.2182      1.522     3.42     842.4902     54.85726     290.4919        16     1.155     0.835  43.48   0
       189    240.1631    767.0585 307.8109377  +6.3708117     630.3719     1532.855     3958.075     78.01312     155.7173     311.2491      6.048     7.86     842.4341     54.85726     87.89862        12     1.647     1.050  78.44   0
       190    926.6727    764.5303 307.5259291  +6.3946711     1122.519      1490.29     1730.387     78.13647     155.7792     311.2182      1.429     3.00     842.5797     54.85726     156.3539        12     0.997     0.765  58.52   0
       191    253.9966    764.7581 307.8052701  +6.3722227     936.3888      1117.65     1109.262     77.39347     155.3459     310.9396      1.303     4.49     842.5794     54.85726     147.4634         9     0.988     0.644  46.94   0
       192    149.2749    764.8055 307.8487550  +6.3687095     870.6103     1212.377     579.4742     77.64193     155.1598     311.0944      1.435     3.72     841.2361     54.85726     156.5828         7     1.024     0.503  26.06   0
       193    900.5515    763.3895 307.5368149  +6.3942768     1253.366     1853.906         1760      77.5178     155.5317     310.9086      1.614     4.21     843.0887     54.85726     181.5782        14     1.246     0.734  38.47   0
       194    953.1133    762.2052 307.5150256  +6.3965066      2630.55     3796.613     4019.136      77.5178     155.3459     310.9705      1.537     3.31     841.9598     54.85726     388.9326        21     1.280     0.953  42.65   0
       195    672.9299    761.4374 307.6314087  +6.3875333     1106.976      1390.31     2042.396     77.88959     155.6555     311.2801      1.272     3.29     845.4091     54.85726     188.0624        12     1.115     0.667  31.85   0
       196    286.0002    767.4382 307.7918907  +6.3721831     553.3566     502.7381     304.0873     77.01929     155.4698     311.0325      1.117     3.26     843.2798     54.85726      117.824         5     0.984     0.407  67.01   0
       197    463.7770    756.8246 307.7184195  +6.3824856     692.3237      735.679     929.6803      77.5178     155.5317     311.1872      1.154     3.85     843.4233     54.85726     122.2405         6     0.930     0.457  53.49   0
       198    393.4940    756.8387 307.7476058  +6.3801404     738.5685      846.846     1141.358     78.13647     155.5317      311.311      1.151     3.17     842.7983     54.85726     132.6155         7     0.825     0.628  15.20   0
       199    994.9312    755.5774 307.4978786  +6.4006273     1667.376     2383.837     2664.649     77.64193     155.5936     311.1872      1.566     4.14     841.0833     54.85726     210.3906        16     1.217     0.891  39.58   0
       200    796.5139    754.4390 307.5803184  +6.3945238     1358.556     1725.789     1235.002     78.01313     155.6555     311.2182      1.501     4.68     844.4238     54.85726       224.75        15     1.334     0.903  40.58   0
       201    621.1842    755.0110 307.6531118  +6.3884679     758.9229     1022.103     1304.816     77.76585     155.3459     311.1253      1.383     2.44     845.1594     54.85726     145.9729         7     0.707     0.667 -83.53   0
       202    882.5328    751.2997 307.5446994  +6.3986713     1654.627     2167.465     2388.273     78.01313     155.7792     311.1872      1.499     3.27     843.2471     54.85726     237.8297        18     1.149     0.965  32.01   0
       203    857.2335    746.8140 307.5553551  +6.3996849     943.0177     1177.983     1121.719     77.64193     155.4078     311.1253      1.222     3.89     843.6725     54.85726     150.3822         8     1.028     0.555  33.91   0
       204    839.6442    742.8705 307.5627909  +6.4007300     1675.389     2452.472     2091.628     77.88959     155.6555     311.2491      1.556     3.48     843.7611     54.85726     243.0065        15     1.190     0.810  21.02   0
       205    102.4213    740.9405 307.8690098  +6.3769978     966.1545     1937.026     1960.105     77.64193     155.5936     311.0634      2.078     8.22     840.2312     54.85726     125.7994        22     1.954     0.967  72.64   0
       206     38.4144    742.0911 307.8955505  +6.3743846     2778.931     3625.148     3580.688     77.76585     155.4698     311.0325      1.399     3.26     840.2203     54.85726     386.2189        18     1.191     0.883  37.27   0
       207    451.0180    741.0187 307.7242451  +6.3885867     578.6387     852.9012     351.6305     77.76585     155.4078     311.1563      1.369     2.74     842.5974     54.85726     129.6935         5     0.792     0.463  67.44   0
       208    555.9972    736.9001 307.6807862  +6.3937788     582.6613     715.1238     560.6831     77.76585     155.4078     310.9086      1.163     3.47      843.815     54.85726     111.1732         5     0.967     0.377  59.36   0
       209    651.2169    730.3478 307.6414604  +6.3996480     7365.213     9583.086     9289.829      77.5178     155.7173     310.9396      1.371     2.81     844.2019     54.85726     1252.917        25     1.200     0.898  41.73   0
       210    598.0662    729.5045 307.6635616  +6.3982304     1637.272     2246.408      2146.18     78.01312     155.7792     311.2491      1.483     3.37     844.1144     54.85726     274.8552        16     1.187     0.854  17.74   0
       211    508.5295    730.0921 307.7007258  +6.3950112     834.0781     1157.877     1182.713     78.01312     155.7792     311.2491      1.306     4.59      843.121     54.85726     154.9921         8     0.914     0.656  41.95   0
       212    114.1614    726.4777 307.8646185  +6.3833608     4169.164     5829.569     5861.155     77.88959     155.7173     311.2182      1.484     3.22     839.8663     54.85726     659.0322        24     1.326     0.940  42.01   0
       213    625.2338    726.0444 307.6523943  +6.4005616     2462.015     3208.493      3122.38     77.64193     155.5936     311.1253      1.366     3.80     844.1165     54.85726      385.476        18     1.254     0.823  44.92   0
       214    988.1077    725.4322 307.5017122  +6.4128475     2674.206     3911.969     4085.397     78.13647     155.4698     311.2491      1.566     3.65     840.9922     54.85726     325.1348        26     1.429     1.028  47.62   0
       215    300.3721    726.4987 307.7872898  +6.3895642      887.051     1241.108     1196.204     78.13647     155.4078     311.1872      1.529     3.66     841.0424     54.85726     149.0056         9     1.056     0.684 -20.74   0
       216    236.4928    726.0153 307.8138335  +6.3876340     784.5182     983.7474     1057.942     77.76585     155.4698     311.0634      1.351     3.15     840.2222     54.85726     127.4023         8     0.818     0.676   8.42   0
       217    898.0095    722.1041 307.5392412  +6.4112380     4118.191     6009.109     6056.882     77.76585     155.2839     311.0015      1.514     3.41     842.2432     54.85726     583.1972        25     1.244     1.086  58.34   0
       218    768.1097    722.4164 307.5931788  +6.4068026      23265.3     31197.97      32455.7     77.76585     155.4078     311.1253      1.422     2.98     843.5609     54.85726     3665.955        40     1.322     0.990  39.81   0
       219    496.0108    722.8522 307.7061660  +6.3975838     1009.345     1359.542     1030.781     77.39347     155.5317     310.9705      1.410     3.91      842.707     54.85726     179.8013        11     1.143     0.656  68.76   0
       220    467.1583    722.7753 307.7181507  +6.3966556     1617.372     2398.775     1905.064     77.64193     155.5936     311.0015      1.444     3.54     842.2651     54.85726     267.0443        14     1.257     0.657  44.39   0
       221    450.1812    724.0936 307.7251571  +6.3955465     568.1053     597.4695     693.7355     77.88959     155.4078     311.0944      1.168     3.17     842.0031     54.85726     98.40454         6     0.746     0.565  51.78   0
       222    312.5702    722.4187 307.7823605  +6.3916551     811.0276     987.3941     944.0738     77.64193     155.4698     311.1253      1.367     4.81     840.8966     54.85726     119.8159        10     1.120     0.653  48.60   0
       223    269.0477    722.2925 307.8004386  +6.3902565     782.2341     1068.129     797.4039     77.88959     155.5936     311.3419      1.437     4.82     840.5031     54.85726     108.2164         9     1.032     0.637  56.28   0
       224    957.3444    717.9418 307.5147370  +6.4149216     495.5186     312.2971     281.9922     78.13647     155.7173     311.2491      1.197     3.59      841.198     54.85726     82.82141         5     0.873     0.475 -89.01   0
       225    241.5724    716.2137 307.8120516  +6.3918500     7302.684     9773.399     10977.05     77.64193     155.4698     311.1253      1.441     2.93     839.8655     54.85726     1216.074        28     1.311     0.909  46.44   0
       226    648.5910    715.2499 307.6430535  +6.4057941     8144.116     10723.03     11335.14      77.5178     155.5317     310.9086      1.390     2.89     843.7598     54.85726     1402.732        27     1.237     0.900  41.87   0
       227    630.8834    716.2100 307.6503755  +6.4048095     966.7787     1236.972     1632.112     77.64193     155.3459     311.0634      1.362     3.76     843.8341     54.85726     172.4914        11     1.088     0.782  51.94   0
       228    343.6035    715.3152 307.7697101  +6.3956219     762.4501     824.2197     887.1674      77.5178     155.2839     310.9396      1.283     3.19     840.7881     54.85726       135.57         9     0.972     0.642  53.49   0
       229      8.7933    708.3801 307.9089800  +6.3873120     444.2173     507.9156     223.4679     77.64193     155.4078     311.0325      1.180     3.70     839.8241     54.85726     75.07501         5     0.996     0.396  84.58   0
       230    908.3854    707.7923 307.5354071  +6.4174906     1379.136     1889.894     2026.601     77.64193     155.4078     311.0634      1.570     3.49     841.7029     54.85726     178.9549        15     1.015     0.978 -19.42   0
       231    720.1710    703.6489 307.6137120  +6.4129603     4115.536     5622.552     5670.812     77.64193     155.7173     311.1253      1.418     3.04     843.2086     54.85726     608.1902        23     1.268     0.927  55.00   0
       232    675.6917    704.1519 307.6321678  +6.4112761     1227.478     1677.415     1811.205     78.01312     155.5936     311.3419      1.428     3.89     843.3323     54.85726      174.257         9     0.921     0.667  30.95   0
       233    986.7279    700.1497 307.5031239  +6.4232401     9392.854     13644.68     14257.99     78.01312     155.6555     311.2491      1.556     3.35     840.6155     54.85726     1218.237        34     1.410     1.055  41.09   0
       234    925.0869    700.5624 307.5287107  +6.4210287     2724.314      3797.72     3724.819     78.01312     155.5936     311.2182      1.525     3.27     841.2288     54.85726     375.9162        19     1.193     0.934  47.29   0
       235      5.7204    700.3573 307.9105248  +6.3905214     2343.812     3425.078     3365.231     78.01313     155.6555     292.5245      1.596     3.69     839.7584     54.85726     332.6894        19     1.334     0.843  23.12  16
       236    538.9470    698.3812 307.6891503  +6.4091148     761.6044     1040.147     1183.364      77.5178     155.7173     311.0325      1.466     3.21     842.6413     54.85726     147.4507         7     0.823     0.768  61.87   0
       237    422.7133    698.4672 307.7374190  +6.4052122     667.2952      724.762      1250.81     78.13647     155.9028     311.2491      1.259     3.31     840.9365     54.85726     147.8992         5     0.771     0.411  25.70   0
       238     63.9329    695.3705 307.8865179  +6.3945256      29223.9     40253.61      41060.5     77.76585     155.6555     311.1872      1.459     2.98     839.3441     54.85726     4404.875        46     1.355     1.049  40.61   0
       239    525.2665    696.0801 307.6949085  +6.4096099     2403.583     3151.791     3069.661     78.13647      155.841     311.1872      1.365     3.24     842.2915     54.85726     422.9747        16     1.192     0.749  44.31   0
       240    494.0242    693.3370 307.7079749  +6.4097033     1568.702     1870.489     1662.809     77.64193     155.6555     311.1253      1.316     3.43     841.5134     54.85726     259.4911        10     1.075     0.612  47.51   0
       241    914.9523    692.1132 307.5332002  +6.4241815     1012.284     1310.613      1539.89     78.01313     155.5317     311.2491      1.442     5.06     841.2192     54.85726     128.3196        10     1.118     0.648  24.09   0
       242    534.3525    689.8623 307.6913423  +6.4124792     1290.736     1501.935     1593.986     77.88959     155.5317     311.2801      1.246     2.98     842.3215     54.85726     206.8141        11     0.990     0.686  36.97   0
       243    731.9504    685.6327 307.6094191  +6.4207895      4814.44     6352.283     6172.082     77.88959     155.6555     311.1563      1.360     2.84     842.6876     54.85726     759.1422        23     1.250     0.888  50.28   0
       244    709.9614    687.2993 307.6184960  +6.4193716     3914.822     4934.848     4687.125     78.01312     155.5317     311.4347      1.334     2.78     842.7426     54.85726     687.3248        19     1.145     0.812  36.48   0
       245    563.4260    683.6362 307.6794754  +6.4160163     3928.539     5197.166     5238.502     77.64193     155.4698     311.0015      1.365     2.97     842.6191     54.85726     650.6069        18     1.146     0.825  53.54   0
       246    399.5826    684.0179 307.7475071  +6.4104076     1549.595     1797.694     1775.994     77.76585     155.3459     311.1563      1.245     3.58     840.3815     54.85726     268.3568        10     0.986     0.693  40.92   0
       247    307.6566    682.7277 307.7857266  +6.4078779     1660.419     2316.829     2027.837     77.88959     155.5936     311.1872      1.475     3.76     838.9291     54.85726     283.8971        16     1.268     0.772  43.52   0
       248    224.1370    683.2390 307.8203943  +6.4048821     1943.182     2652.637     3065.688     78.01312     155.5936     311.2801      1.444     3.01     838.3297     54.85726     308.3416        17     1.350     0.753  34.54   0
       249   1004.9199    681.5517 307.4961852  +6.4315208     5333.856     7638.746       7902.7     78.01312     155.7173     311.1872      1.548     3.17      840.196     54.85726     712.7927        27     1.291     1.054  47.36   0
       250    970.2988    680.5252 307.5105982  +6.4307986     8711.479     12611.84     12844.87      77.5178     155.7792     311.1563      1.560     3.22     840.4528     54.85726     1271.873        33     1.395     1.040  49.37   0
       251    523.9438    681.2759 307.6959512  +6.4156780     729.1298     800.1198     1027.779     78.01312     155.5936     311.1563      1.201     2.15     841.8205     54.85726     144.6061         7     0.680     0.659 -19.81   0
       252    689.9425    679.1890 307.6270799  +6.4220555     1151.469     1322.693     1143.219     77.39347     155.6555     310.9396      1.307     3.39     842.5209     54.85726     194.6967         8     0.955     0.559  56.35   0
       253   1019.3810    679.0058 307.4902636  +6.4330505     733.7424     1047.795     1095.203     77.64193     155.2839     291.4031      1.489     4.12     840.0463     54.85726     115.1906         7     0.758     0.666 -84.07  16
       254     81.7318    677.4645 307.8797259  +6.4025126     976.4354     1199.403     1324.139     78.01313     155.7173     311.2491      1.294     3.35     838.8484     54.85726     156.7445        11     1.011     0.836  24.44   0
       255    128.6740    674.2820 307.8603382  +6.4053941     27845.81     37218.72     38208.47     78.25961     155.9645     311.2801      1.431     2.98     838.3038     54.85726     4262.844        44     1.344     1.013  40.34   0
       256    415.5970    674.9617 307.7411585  +6.4146797     3388.272     4683.757     5261.687     77.14422     155.4078     310.9705      1.443     3.16     840.3958     54.85726     550.8575        18     1.199     0.891  64.16   0
       257    797.1221    674.7366 307.5827145  +6.4274502     1343.986     1702.275     1834.096     78.25961     155.7173     311.2182      1.379     3.11     841.9427     54.85726      210.961        11     0.928     0.766  40.60   0
       258    715.3875    674.2021 307.6166781  +6.4249591     535.2167     788.3901     1196.471     77.64193     155.3459     311.0015      1.341     3.43     842.3643     54.85726     87.34937         5     0.755     0.449  71.91   0
       259    348.2467    668.6130 307.7693409  +6.4150578     895.5727     1194.185     845.7896     77.39347     155.4698     311.0015      1.430     4.14     839.1376     54.85726     124.5507        10     1.059     0.699 -82.41   0
       260    965.2347    663.4705 307.5132673  +6.4376723     7353.274     11285.38     11737.28     77.88959     155.5936     311.2491      1.691     3.37     839.8116     54.85726     1043.279        40     1.649     1.092  38.57   0
       261      9.8488    663.1910 307.9100553  +6.4060033     1252.497     1713.037     1809.547      77.5178     155.4698     310.9086      1.446     3.04     839.3256     54.85726      204.512        11     0.987     0.742  24.87   0
       262   1020.5145    658.6110 307.4904691  +6.4415083     96703.62     142230.8       146706     77.64193     155.4078     278.7008      1.610     3.31     839.0397     54.85726     12595.48        74     1.507     1.201  48.95  24
       263    558.7175    658.9113 307.6822545  +6.4260677     56812.97     73910.94     76010.23     77.76585      155.841     311.2801      1.341     2.92     841.5662     54.85726     8449.015        52     1.317     0.969  43.41   0
       264    922.9472    660.4072 307.5309322  +6.4375367     702.6385     690.8951     665.7162      77.5178     155.4698     310.9086      1.029     2.97     840.1179     54.85726     169.4001         6     1.003     0.477  53.29   0
       265    201.8652    660.1699 307.8304147  +6.4136631     810.4527     990.6028     741.9491     77.76585     155.6555     311.1563      1.391     3.46     837.7039     54.85726     128.7235         7     1.007     0.504  23.24   0
       266    518.1107    658.9544 307.6991176  +6.4246996      807.293     826.9453     623.1176     78.01313     155.5317     311.3419      1.243     2.86     840.8514     54.85726     138.5941         8     0.811     0.661  53.08   0
       267    783.0952    658.4390 307.5890818  +6.4337137     682.9788     617.2087     511.5942     78.01312     155.5317     311.3419      1.194     3.75     841.6274     54.85726     104.4985         6     0.817     0.495   2.77   0
       268    489.0098    656.0110 307.7113017  +6.4249468     825.3922     1195.744     869.2401     77.64193     155.4698     311.1872      1.565     4.76     840.1312     54.85726      123.217         7     1.039     0.619  51.01   0
       269    166.1755    655.7925 307.8453828  +6.4142794     3168.945     4010.248     3732.887      77.5178     155.5317     311.0634      1.372     3.23     837.6726     54.85726      488.084        19     1.150     0.874  35.81   0
       270    969.8271    654.4504 307.5116592  +6.4415485     552.2959     734.8986     664.9612     77.64193     155.7792     311.1563      1.323     3.40     839.2672     54.85726     96.02234         5     0.782     0.428 -22.78   0
       271     58.9463    650.2106 307.8901007  +6.4130030     1407.181     1781.133     1457.238     77.39347     155.5936     310.9396      1.394     3.40     838.6531     54.85726     211.7076        14     1.027     0.901  22.66   0
       272    455.9601    642.7207 307.7254708  +6.4293341     74948.04     97382.19     100501.3     77.88959     155.6555     311.1872      1.351     2.87     839.4079     54.85726     11538.19        63     1.330     1.019  44.32   0
       273    641.9229    639.9118 307.6483305  +6.4366768     934.2869     1050.907      934.531     78.01313     155.9645     311.2801      1.319     4.33     840.7346     54.85726     174.1192         7     1.101     0.485  47.66   0
       274    130.2492    638.1002 307.8608946  +6.4203843     1920.549     2516.151      2486.89     78.01312     155.6555     311.3728      1.332     2.75     837.7332     54.85726     361.2816        13     1.044     0.730  30.86   0
       275    409.4485    635.4276 307.7450310  +6.4307968     1064.973     1587.733     1605.409     77.64193     155.6555     311.1563      1.576     3.20     838.5499     54.85726     156.9514        12     1.099     0.698  41.09   0
       276    602.0795    634.0867 307.6650724  +6.4377580     1080.626     1464.704     1616.404     77.76585     155.9645     311.3419      1.382     4.16      840.484     54.85726     146.0984        10     1.092     0.689  36.23   0
       277    483.9135    633.9186 307.7141548  +6.4338983     495.4269     877.2767     1309.029     77.76585     155.9028     311.3419      1.865     3.27     839.4767     54.85726     96.45428         5     0.625     0.602 -14.68   0
       278    301.3112    632.0260 307.7900553  +6.4285987     2586.849     3400.349     3557.489     78.13647     155.4698     311.0634      1.362     2.98     837.2526     54.85726     461.0596        16     1.087     0.854  58.17   0
       279      2.1781    633.4839 307.9142360  +6.4180112     863.7781     1057.666     1241.901     76.26541     135.4075     247.3229      1.343     3.51     839.0269     54.85726     125.2644         8     0.841     0.700  57.96  24
       280      8.8495    631.8042 307.9115218  +6.4189277     506.7296     608.7094     731.1406     77.39347     155.4698     310.8776      1.253     3.81     838.9381     54.85726     86.75781         5     0.752     0.681 -47.90   0
       281    453.4977    630.4807 307.7269017  +6.4343055     951.5917     1052.622      1474.81      77.8896     155.9645     311.2801      1.149     2.73     838.9485     54.85726     171.1052         6     0.851     0.428  69.46   0
       282    728.0658    626.1538 307.6130107  +6.4452172     6193.207     8032.984     7852.213     78.01312     155.5936     311.2182      1.353     2.94     840.5567     54.85726      1025.89        22     1.229     0.840  41.66   0
       283    998.7482    622.1104 307.5007200  +6.4558579     1107.446     1245.053     935.2779     78.01313     155.4698     311.3419      1.357     3.70     837.0032     54.85726     153.7457        12     1.137     0.716  58.16   0
       284    781.5853    621.3950 307.5909404  +6.4489577     16211.13     21161.64     21695.89     77.64193     155.3459     311.0634      1.387     2.98     840.7422     54.85726     2607.476        33     1.299     0.924  43.83   0
       285   1021.3088    620.3826 307.4914069  +6.4573179     2201.083     2946.339     2949.571     77.76586     151.2629     268.8163      1.450     3.14     836.5007     54.85726     313.9717        18     1.099     0.978  34.09  24
       286    523.8009    621.5189 307.6980021  +6.4403444     1453.597     1937.042      2351.35     77.26894     155.2218     310.9705      1.364     3.43     839.4051     54.85726     195.0043        11     1.040     0.690  45.86   0
       287     26.4393    620.9302 307.9045811  +6.4240049     782.7734     1169.606     706.1666     77.88959     155.6555     311.2801      1.439     4.28     838.6063     54.85726     124.9059         8     1.144     0.457  79.33   0
       288    605.4727    619.4257 307.6641513  +6.4439237     3560.273     4441.898     4870.635     77.64193     155.5317     311.1253      1.282     2.77     839.6255     54.85726     695.8586        19     1.236     0.805  33.00   0
       289    922.4398    615.5097 307.5326333  +6.4560565     1162.192     1757.459     2604.034     78.01313     155.5936     311.2491      2.118     4.25     838.1926     54.85726     175.0651        13     1.147     0.973  70.25   0
       290    364.0934    613.3247 307.7646054  +6.4384116     1212.959     1485.156     1430.139     77.88959     155.7792     311.2182      1.371     3.28      836.989     54.85726      183.954        12     1.051     0.743  42.49   0
       291    217.6486    613.4239 307.8254227  +6.4334888     1613.734     2115.526     2240.891     77.64193     155.6555     311.1253      1.346     2.84     836.8353     54.85726     249.6665        14     1.056     0.777  48.40   0
       292    347.5221    613.0135 307.7714982  +6.4379880     493.7994     715.4442     538.2021     77.64193     155.3459     311.0325      1.313     2.30     836.8411     54.85726     111.3212         6     0.751     0.499 -88.02   0
       293    857.6038    604.5963 307.5599250  +6.4584140     3162.078     4066.483      3577.61     77.39347     155.2218     311.0325      1.344     2.86     840.2233     54.85726     532.6331        16     1.173     0.781  45.34   0
       294    152.7611    604.9317 307.8526551  +6.4348294     806.8265     1068.675     858.5113     77.88959     155.6555     311.3419      1.411     3.06     837.0126     54.85726     131.6038         7     0.853     0.617  31.37   0
       295    816.2925    602.0759 307.5771672  +6.4580850     2963.596      4012.42     4075.915     77.88959     155.7792     311.2182      1.463     3.26     840.1451     54.85726     467.2115        20     1.185     0.876  48.57   0
       296    244.2999    597.2941 307.8148933  +6.4410370     9010.566        12174     12825.42     78.01313     156.1496     311.0634      1.405     3.02     836.3351     54.85726      1509.81        32     1.296     0.985  46.94   0
       297    787.2173    598.0101 307.5893786  +6.4587994     2876.052     4024.323     4688.634     77.76585     155.4078     311.0944      1.497     3.03     839.8415     54.85726     510.3932        19     1.250     0.795  40.78   0
       298    729.9449    598.2383 307.6131587  +6.4568048     873.6893     1026.773      1404.82     78.01312     155.7173     311.2182      1.320     3.08     839.4139     54.85726     155.9276         9     0.958     0.614  55.27   0
       299    796.9313    593.2505 307.5855021  +6.4610866     183736.2     242485.4     251162.3     77.88959     155.5317     311.2182      1.392     2.89     839.6002     54.85726      30140.5       109     1.419     1.126  47.55   0
       300    178.5303    591.8120 307.8423917  +6.4411060      67151.3     90331.77     94864.54      77.5178     155.4698     311.0634      1.440     2.98     836.5837     54.85726     9987.534        79     1.419     1.152  42.51   0
       301    726.6708    593.6952 307.6146697  +6.4585719     636.6913     824.9854     1582.272     77.88959     155.7173     311.1872      1.743     3.46     839.1807     54.85726     120.1837         5     0.850     0.597  39.31   0
       302    102.4887    588.0833 307.8740975  +6.4401065     7306.476     9740.182     9965.082     77.76585      155.841     311.2491      1.401     2.85     837.2697     54.85726     1169.198        27     1.250     0.953  35.88   0
       303    967.6576    584.7619 307.5148726  +6.4702487     1468.929     1929.427     2135.558     78.01313     155.7173     311.2182      1.467     3.76     836.1799     54.85726      224.042        15     1.125     0.945  46.20   0
       304    988.6005    583.5765 307.5062132  +6.4714314     995.7781     1084.772     969.0015     77.64193     155.3459     311.0015      1.402     4.05     835.6527     54.85726     136.7816        10     1.052     0.715  69.17   0
       305    848.3842    595.2386 307.5640652  +6.4619719     596.5069     415.4045     958.2729     77.64193     155.4698     311.0015      1.137     4.34     839.6409     54.85726     89.99286         7     0.938     0.572  33.31   0
       306    216.7065    583.2126 307.8268240  +6.4459301     816.5104     928.6774     1037.762     77.76585     155.4078     311.0325      1.227     4.12     835.9091     54.85726     137.9343         9     1.082     0.642  27.12   0
       307    833.5673    580.5635 307.5707070  +6.4675395     5045.244     6788.691     6407.461     77.64193     155.4078     310.9705      1.436     2.97     838.8159     54.85726     827.6893        24     1.232     0.903  43.17   0
       308    351.8783    578.8538 307.7708295  +6.4522361     20234.16     26753.79     27932.65     78.13647     155.6555     311.2491      1.373     2.93     835.9987     54.85726     3097.545        41     1.309     0.962  39.83   0
       309    442.1213    578.9025 307.7333471  +6.4552212     931.1431     1348.439     1358.198     77.76585      155.841     311.2491      1.529     3.69     837.1506     54.85726     153.6473        10     1.062     0.636  64.09   0
       310    153.7854    577.7331 307.8531396  +6.4460924     2192.209      2825.04     2914.441      77.5178     155.5317     311.1563      1.350     3.14     836.6434     54.85726     330.5194        15     1.122     0.776  35.60   0
       311    134.3943    576.2090 307.8612440  +6.4460743     477.3166     583.6688    -214.6383     77.39347     155.4698     311.0634      1.116     4.19     836.8014     54.85726     99.54187         5     1.191     0.561  60.05   0
       312    787.4850    573.8792 307.5900696  +6.4687710     6809.053     8928.399     9000.599     77.88959     155.9645      311.311      1.357     2.90     838.4117     54.85726     1058.048        26     1.216     0.907  46.46   0
       313    228.6263    575.7330 307.8221235  +6.4494157     1054.051     1519.861     1963.191     77.64193     155.5317     311.1253      1.512     3.35      835.577     54.85726     165.5659         9     1.041     0.594  35.41   0
       314     91.2973    575.4281 307.8791690  +6.4449573     1050.591     1454.844      1567.38     78.13647     155.4078     311.1872      1.486     4.44     837.2074     54.85726     135.1285        10     1.111     0.644  53.92   0
       315    518.2483    573.6665 307.7019033  +6.4599160     7737.242      9846.31     9748.509     77.88959     155.5936     311.2182      1.355     2.92     837.8712     54.85726     1292.239        21     1.178     0.815  44.23   0
       316    159.1602    575.4038 307.8509853  +6.4472335     679.8235     852.6817       1167.7     77.26894     155.4078     310.9705      1.316     3.35     836.5574     54.85726     129.0405         5     0.849     0.382  23.97   0
       317    376.5176    570.3588 307.7608796  +6.4565641     1756.618      1990.79     1966.583     78.01313     155.6555     311.1563      1.283     3.21     836.0251     54.85726     274.7955        13     1.099     0.718  47.05   0
       318    562.8998    566.7339 307.6835886  +6.4642630     2670.012     4281.908     4263.491     78.01312     155.7792     311.1872      1.706     3.84     837.7273     54.85726     457.2734        23     1.268     1.156  -5.90   0
       319    165.2230    567.0006 307.8487484  +6.4509051     7999.173     10511.03     10958.78     77.64193     155.3459     311.0015      1.383     2.93     836.3585     54.85726     1294.593        28     1.218     0.947  44.85   0
       320    260.4901    563.4266 307.8093010  +6.4555591     104813.5     135046.7       139283     78.13647     155.4078     311.0944      1.412     2.95     835.3882     54.85726     17216.85        77     1.364     1.056  41.02   0
       321    846.4708    566.7702 307.5658057  +6.4736620     645.3569     699.8754     1422.758     77.88959     155.6555     311.1872      1.242     4.86     837.9417     54.85726      107.475         9     1.133     0.592  55.73   0
       322    803.7054    566.1466 307.5835894  +6.4725015     1544.268     2289.665     2963.725     77.88959     155.5317     311.4656      1.559     3.86     837.9412     54.85726     264.1966        14     1.232     0.831  11.33   0
       323    480.6432    567.3224 307.7177337  +6.4612842     577.9081     672.3267     1166.662     77.88959     155.6555     311.2491      1.170     2.99     837.5475     54.85726     113.9105         5     0.720     0.465 -78.02   0
       324     36.8581    565.7308 307.9021030  +6.4471418     5644.521     8026.236     7949.957     78.13647     155.5936     311.1563      1.483     3.14     837.8114     54.85726     759.0002        28     1.285     1.002  49.80   0
       325    549.9626    560.8961 307.6891566  +6.4662431      1148.17     1315.912     1485.961     78.01313     155.5317     311.3419      1.365     4.34     837.5986     54.85726     178.8831        14     1.239     0.877  27.29   0
       326    244.4122    558.3350 307.8161488  +6.4571250     1985.243      2557.06     2897.909      77.5178     155.4698     311.0944      1.417     3.99     835.0914     54.85726     285.9256        16     1.185     0.953  73.26   0
       327    960.0465    556.8649 307.5189597  +6.4815145     1632.486     2149.951     1904.287     78.01312     155.5936     311.2182      1.375     3.39     835.6715     54.85726     250.6039        17     1.247     0.854  52.01   0
       328    783.6671    555.6379 307.5922618  +6.4761755      19052.5     24810.94     25283.23     77.88959     155.5936      311.311      1.354     2.77     837.3427     54.85726     2999.403        37     1.268     0.952  44.72   0
       329    487.2646    554.1375 307.7154232  +6.4669480     47735.95     67719.62     70564.36     78.01312     155.6555     311.2491      1.478     3.18     837.1713     54.85726     8176.234        65     1.494     1.136  29.72   0
       330    199.6365    550.5886 307.8350045  +6.4588293     2158.218     3270.297     4484.943      77.5178     155.4698     310.9086      1.791     3.30     835.2695     54.85726     328.9609        20     1.340     0.985  50.31   2
       331    637.8695    552.6134 307.6529203  +6.4725843     1206.567     1756.717     2119.356      77.5178     155.4698     311.0944      1.473     4.24     837.1395     54.85726     184.3746        15     1.259     0.800  14.86   0
       332     35.3025    550.9071 307.9032456  +6.4532097       1511.3     2069.632     2082.167     78.01312     156.1496     311.1563      1.511     3.48      837.663     54.85726     219.5686        14     1.077     0.851  50.19   0
       333    709.5079    548.6108 307.6232981  +6.4766158     1348.981     1985.401     1879.642     77.76586     155.3459     311.0325      1.608     5.97     837.0245     54.85726     304.3937        15     1.727     0.681  56.94   0
       334    247.7636    550.8959 307.8150056  +6.4603079     633.7784     805.4696     120.3498     78.13647     155.5317     311.3419      1.338     3.71     834.9124     54.85726     109.4548         6     0.883     0.499  53.80   0
       335     86.0359    550.7619 307.8821799  +6.4549649     650.3329     825.0948     480.8353     77.76585     155.5317     311.0325      1.396     4.31     836.9369     54.85726     149.5621         7     1.086     0.487  26.30   0
       336    657.4518    549.2266 307.6448995  +6.4746331     1631.181     2087.949      2206.53     77.64193     155.7792     311.1253      1.327     3.23     837.0039     54.85726     283.4722        13     1.100     0.719  43.21   0
       337    647.1442    549.1230 307.6491843  +6.4743334     3425.036     4387.989     4522.648     78.01312     155.6555     311.1872      1.333     3.13     837.0048     54.85726     575.8793        17     1.150     0.757  41.27   0
       338     66.2854    546.8638 307.8905133  +6.4559143     903.4092     1346.063     1309.819     78.13647     155.7792     311.2182      1.700     3.82     837.1693     54.85726     143.1324         9     0.948     0.655  21.24   0
       339    385.0504    544.9542 307.7581837  +6.4673367     2161.117     2892.021     3098.372     78.13647     155.5317     311.2801      1.435     3.19     835.4728     54.85726     292.4564        17     1.120     0.873  51.39   0
       340    316.4357    543.1855 307.7867412  +6.4657808     4548.435     5748.702     5781.002     77.64193     155.4698     311.0325      1.354     3.05     835.1705     54.85726     756.8569        21     1.194     0.857  43.29   0
       341    131.5651    541.8118 307.8635701  +6.4601805     30143.13     39912.24     41275.64      77.5178     155.4698     311.0325      1.402     2.98     836.3273     54.85726     4433.318        45     1.329     0.995  41.08   0
       342    496.2761    542.4095 307.7120713  +6.4720897     2551.782     3490.784      3924.88     77.64193     155.2218     311.0325      1.430     2.91     836.8521     54.85726     459.4259        15     1.114     0.774  53.10   0
       343    859.4119    541.6022 307.5612667  +6.4844820     1810.174     2301.406     2137.364     77.64193     155.3459     311.0325      1.347     2.97     836.5735     54.85726     274.3991        13     1.059     0.747  50.26   0
       344     96.7411    540.0432 307.8780926  +6.4597477     3239.154     4477.816       4569.7     77.88959     155.6555      311.311      1.433     3.34     836.6125     54.85726     445.5295        19     1.218     0.824  46.05   0
       345    333.6799    538.3181 307.7797416  +6.4683650     1253.638     1691.051     2238.416     78.13647     155.9028     311.3419      1.319     3.21     835.0539     54.85726     226.8959         8     0.933     0.585  62.58   0
       346    957.1989    536.0831 307.5208323  +6.4900003     5645.241     7677.893     8039.775     77.26894     155.2218     310.9396      1.449     3.07     835.2644     54.85726     867.5781        26     1.307     0.944  43.34   0
       347    530.1983    528.7898 307.6984357  +6.4788411     1887.455     2466.325     2115.463     77.64193     155.3459     311.0325      1.332     3.09     836.4844     54.85726     297.7308        14     1.118     0.699  48.72   0
       348    428.5896    522.8436 307.7408376  +6.4779150     50850.15     65789.16      67652.3      77.5178     155.4698     310.9396      1.349     2.95     835.3236     54.85726      7732.59        50     1.298     0.961  43.49   0
       349    636.6150    522.4765 307.6544448  +6.4849849     14424.84     18570.88     18846.49      77.5178     155.4078     311.0634      1.338     2.89      836.436     54.85726     2512.841        32     1.260     0.903  43.35   0
       350    276.3388    523.0529 307.8040677  +6.4727559     1017.987     1266.066     1190.575     78.01312     155.5936     311.1872      1.293     3.59      834.318     54.85726     161.8738        13     1.154     0.787  60.06   0
       351    193.7272    520.5038 307.8384649  +6.4710525     22294.84     30811.76     31383.94     77.88959     155.7792     311.1872      1.477     3.08     834.6563     54.85726     3158.868        44     1.438     0.983  39.23   0
       352    159.4638    521.5850 307.8526597  +6.4694625     2010.381     2683.511     1971.626      77.5178     155.5317     311.0944      1.391     3.27     835.5576     54.85726     333.4985        18     1.267     0.834  51.97   0
       353    970.4101    520.6431 307.5158571  +6.4968124     1284.683     1834.232      2178.39      77.5178     155.4698     310.9705      1.473     3.01      834.625     54.85726     184.1393        10     0.928     0.696  48.83   0
       354    899.2769    520.3140 307.5454150  +6.4945923     786.0959     1329.417     1160.047     78.01313     155.9645      311.311      1.636     4.27     835.9634     54.85726     143.8354         7     0.967     0.537  60.89   0
       355    810.7151    520.0364 307.5822104  +6.4917712     1021.589     1384.889     1129.955     78.01312     155.5936     311.1872      1.555     4.67     836.5428     54.85726     163.8196        11     1.207     0.751  80.07   0
       356    558.4158    519.2607 307.6870329  +6.4837136      3244.33     3940.131     3823.826      77.5178     155.5936     310.9705      1.299     2.94     836.1004     54.85726     584.8312        18     1.176     0.809  41.75   0
       357    932.2739    516.2197 307.5318448  +6.4973758     5391.551     7135.035     8196.504     77.64193     155.5936     311.1563      1.408     2.88     835.3682     54.85726     869.5117        26     1.248     0.943  46.93   0
       358    605.4006    514.8011 307.6676658  +6.4871166      7595.68     9687.003     10246.06     77.39347     155.2218     310.9086      1.304     2.93     836.1567     54.85726     1261.171        24     1.165     0.935  52.34   0
       359     93.0081    515.5430 307.8804633  +6.4697377     1353.863     1691.157      1723.22     77.39347     155.5317     310.9705      1.347     3.33      836.286     54.85726      212.789        13     1.137     0.733  38.69   0
       360    954.7974    508.4740 307.5227461  +6.5013196     3803.965     4941.136     5297.468      77.5178     155.1598     311.0944      1.382     2.96     834.6799     54.85726      546.153        18     1.191     0.824  41.00   0
       361    643.4742    507.5635 307.6520923  +6.4913698     531.5322     694.7489     607.9096      77.8896     155.7173     311.2182      1.254     4.20     836.2049     54.85726     104.5575         6     1.081     0.466  79.45   0
       362    393.3006    507.5380 307.7560059  +6.4830589      890.514     1266.462     1506.089     77.76586     155.6555     311.3419      1.425     2.64     834.6076     54.85726     163.1522         7     0.827     0.584  70.64   0
       363    363.5921    506.3828 307.7683840  +6.4825463     3042.557     3844.754     3972.755     77.64193     155.4078     311.0634      1.319     2.76     834.4716     54.85726     541.5474        17     1.177     0.777  47.95   0
       364    517.5637    506.0748 307.7044408  +6.4877990     8882.038     11276.84     11447.37     77.88959     155.7173     311.2491      1.345     3.06     835.6314     54.85726      1441.27        23     1.209     0.848  39.53   0
       365    204.6774    513.9488 307.8341361  +6.4741242     598.6259     679.3653     794.8533     78.01312     155.7173     311.2182      1.303     3.15     834.1974     54.85726     103.1058         7     0.721     0.690 -84.57   0
       366    984.6669    504.6916 307.5104644  +6.5038702     538.9659     603.9532     578.4823     78.01313     155.7792     311.2491      1.292     3.73     834.0529     54.85726     112.7102         5     0.934     0.444  -8.87   0
       367    873.9293    501.8974 307.5565555  +6.5013559     3703.797     5043.921     5334.989     77.88959      155.841     311.2491      1.425     2.91     836.1228     54.85726     579.0538        20     1.202     0.899  45.52   0
       368    526.7605    502.8285 307.7007290  +6.4894451     863.6428     1135.371     767.6141     77.64193     155.4078     311.0944      1.279     2.88     835.4656     54.85726     157.9329         7     0.827     0.608  41.96   0
       369    221.7582    501.3125 307.8274642  +6.4799110     711.4133     738.5364     518.9558     78.01313     155.6555     311.2491      0.952     2.28     833.4451     54.85726     162.6378         6     0.685     0.603  77.09   0
       370    868.3662    499.2437 307.5589545  +6.5022671     500.6625     615.5999     1030.737     77.76586     155.6555     311.0634      1.297     3.51      836.222     54.85726     98.40814         5     0.767     0.464  77.68   0
       371    881.5483    496.2239 307.5535792  +6.5039508     2553.746     3349.771     3625.274      77.5178     155.6555     311.1253      1.438     3.34      835.882     54.85726     372.4268        18     1.171     0.868  66.13   0
       372    921.0363    495.4853 307.5372011  +6.5055640     1329.341     1701.185     1584.365     78.01312     155.5936     311.2182      1.353     3.01     834.9713     54.85726      230.073        12     1.044     0.767  38.45   0
       373    100.3609    495.9021 307.8780669  +6.4780920     869.5912     1076.185     659.8086     78.01312     155.5317     311.4347      1.278     2.79     835.8525     54.85726      154.492         9     0.885     0.648  28.68   0
       374    705.4238    492.1485 307.6268732  +6.4997914     3562.734     4445.715     4554.179      77.5178     155.6555     311.1253      1.296     2.77     836.2768     54.85726     649.8873        18     1.149     0.791  52.60   0
       375    376.3045    490.5420 307.7636327  +6.4895097     4497.583     5651.426     5720.553     77.88959     155.6555     311.3419      1.336     3.01     834.1621     54.85726     749.2777        19     1.145     0.822  36.83   0
       376     67.2402    491.4189 307.8919734  +6.4788363     2190.028     2727.927     2520.796     77.64193     155.4698     310.9396      1.313     3.19     836.2981     54.85726      336.092        14     1.078     0.754  44.60   0
       377    416.3239    490.6497 307.7470065  +6.4907980     1185.948     1384.129     1643.705     77.88959     155.7173     311.2182      1.182     2.54     834.2095     54.85726      221.944         8     0.883     0.583  19.94   0
       378    766.7794    483.5714 307.6016727  +6.5053689      18927.5     24611.29     25069.45      77.5178     155.4698     311.1563      1.363     2.92      836.387     54.85726     3028.984        35     1.323     0.887  47.56   0
       379    286.5103    484.0743 307.8011455  +6.4891873     3195.382     3919.242     3929.558     78.01312     155.9028     311.2491      1.354     3.05     832.9908     54.85726     486.8995        16     1.148     0.788  46.77   0
       380    604.0811    487.0276 307.6691390  +6.4985393     11676.74     15076.34     15580.21     77.88959     155.4698     311.1872      1.338     2.97     835.4565     54.85726     1980.618        29     1.247     0.863  48.06   0
       381    369.5215    480.5710 307.7667830  +6.4934003     1992.842     2493.383     2737.958      77.8896     155.6555     311.2182      1.324     3.28      833.932     54.85726     296.2023        15     1.183     0.729  49.21   0
       382    795.8403    480.3539 307.5897082  +6.5076613     1375.033     1731.083     1802.555     77.88959     155.6555     311.0634      1.250     3.31     836.3768     54.85726     224.6404        12     1.026     0.894  78.66   0
       383    896.2621    480.4443 307.5479914  +6.5109532     611.0453     977.2019     1118.402     78.01313     155.5936      311.311      1.638     3.06     835.2486     54.85726     97.09003         5     0.718     0.461  19.72   0
       384    384.7189    480.2979 307.7604797  +6.4940193     661.2196     695.4057     668.9416     77.88959     155.9645     311.2801      1.197     4.00       833.88     54.85726     110.7588         6     1.038     0.442  32.31   0
       385    951.8960    478.3957 307.5249497  +6.5136418     1951.168     2513.094     2368.682     77.76585     155.3459     310.9396      1.372     2.82     833.9675     54.85726     308.6951        14     1.024     0.814  64.72   0
       386    770.7310    478.4742 307.6002007  +6.5076044     1671.423     2456.853     2846.673     78.13647     155.7792     311.2182      1.536     3.72     836.2067     54.85726     265.2089        12     1.180     0.703  54.12   0
       387    700.0119    477.4233 307.6296112  +6.5056911     753.0442     928.4962     360.7564     77.64193     155.4698     311.1253      1.188     3.83     835.8839     54.85726     118.9133         6     0.902     0.548  64.84   0
       388    742.2838    474.4409 307.6121514  +6.5083257     2711.964     3512.687     2980.228     78.01313     155.5936     311.1563      1.389     2.87     835.9193     54.85726     479.0409        19     1.330     0.811  60.30   0
       389    357.9668    476.5411 307.7717169  +6.4946790     821.5964     1012.219     819.7526     77.88959     155.7173     311.1872      1.304     3.29      833.724     54.85726     133.2397         7     0.899     0.581  47.82   0
       390    104.1479    475.7225 307.8771695  +6.4865495     5175.415     6924.576     7431.598     78.13647     155.7173     311.2182      1.422     3.10     835.3802     54.85726     792.9271        22     1.198     0.899  36.32   0
       391   1005.9288    473.1397 307.5026793  +6.5176007     4293.504     6810.035     6880.278     78.13647     155.6555     311.2491      1.647     4.04      832.892     54.85726     616.5588        28     1.479     0.953  34.59   0
       392    262.0415    472.7113 307.8116886  +6.4930626     1801.282     2297.322     1910.443     78.01312     155.5936     311.2491      1.302     3.37     832.6019     54.85726     271.4715        14     1.119     0.746  38.46   0
       393    340.1877    470.3874 307.7793072  +6.4966272     3701.037     4656.242     4205.096     77.88959     155.3459     311.1563      1.310     3.12     833.1747     54.85726     666.6429        18     1.117     0.818  37.43   0
       394    695.8461    467.8052 307.6316617  +6.5095238     1965.658     2511.531     1903.612     77.39347     155.4698     310.9086      1.291     3.30     835.2935     54.85726     337.2529        14     1.119     0.723  37.29   0
       395    969.9048    466.9432 307.5178491  +6.5189665     600.4719     833.9229      974.051     77.88959     155.6555     311.4038      1.495     3.66     833.1464     54.85726     108.8416         5     0.657     0.585  -3.49   0
       396    227.7852    466.1905 307.8261353  +6.4946121     1022.411     1136.726     1478.357     77.76585     155.4078     311.1253      1.284     4.87     832.4408     54.85726     154.2257         9     0.892     0.753  21.52   0
       397    537.4715    460.7604 307.6976823  +6.5071694     1188.002     1441.026     1068.833     77.88959     155.6555     311.2801      1.235     2.95     833.3995     54.85726     213.0779         9     0.988     0.589  32.37   0
       398    686.8679    459.7563 307.6356590  +6.5125487     571.2749     714.8141     604.5156     78.01312     155.5936     311.2491      1.288     3.88     834.7133     54.85726     103.4135         6     0.933     0.462  34.70   0
       399    459.6046    459.0802 307.7300824  +6.5052725     1647.883     2011.851     1389.683     77.64193     155.2218     310.9705      1.318     3.20      833.428     54.85726     247.1821        13     1.121     0.662  51.51   0
       400    822.4510    457.9191 307.5794002  +6.5178063     1786.449     2247.115      2527.08     78.01312     155.7173     311.2182      1.324     2.93     835.0474     54.85726     338.3468        14     1.168     0.737  42.55   0
       401    807.9171    457.0109 307.5854677  +6.5176993     2208.146     2747.882     2438.238     77.64193     155.3459     311.0634      1.310     3.00     835.0285     54.85726     387.3232        16     1.212     0.733  44.70   0
       402    607.5023    457.2547 307.6687096  +6.5109450     804.8138     851.4099     657.6683     77.88959     155.6555     311.4347      1.186     3.75     833.9254     54.85726      155.832         7     1.146     0.469  41.48   0
       403    705.2245    455.2544 307.6281837  +6.5150169     17366.04     22380.25     22936.69     77.64193     155.7173     311.0325      1.342     2.99      834.553     54.85726     3163.313        33     1.248     0.921  46.54   0
       404    621.1770    450.4954 307.6632545  +6.5141901     687.5372     936.6732     950.6137     78.01313     155.4078     311.0634      1.301     3.75     833.5927     54.85726     123.8663         6     1.015     0.442  58.82   0
       405    626.3384    451.2647 307.6610848  +6.5140440     3031.776      3862.14     4448.007     78.01313     155.6555     311.2491      1.327     2.94     833.6868     54.85726     531.7574        16     1.081     0.846  48.08   0
       406    601.4488    448.0159 307.6715319  +6.5145581     5901.083     8313.604     8644.255      77.5178     155.6555     310.9705      1.391     3.21     833.3019     54.85726     1162.922        15     1.236     0.684  56.85   3
       407    597.6274    445.6556 307.6731979  +6.5154056     17222.72     23289.08      23952.6     77.64193     155.7173     311.0634      1.386     3.68     833.1489     54.85726     2656.844        37     1.481     0.928  45.44   2
       408    930.5454    445.0061 307.5349271  +6.5267201     4283.032     5649.166     6059.904      77.5178     155.4078     310.9396      1.408     2.95      833.231     54.85726     739.6628        24     1.221     0.977  48.97   0
       409    369.6111    441.2592 307.7680584  +6.5096332     34438.45     44553.13      45594.5     77.39347     155.5317     310.9396      1.345     2.89     831.8517     54.85726     5890.384        47     1.288     0.982  41.62   0
       410    406.7242    442.8717 307.7525886  +6.5102037     791.8181     1018.742     1062.834     78.25961     155.9028     311.2182      1.327     4.49     831.9557     54.85726     138.8306         8     0.977     0.587  33.85   0
       411    115.6104    440.8042 307.8735775  +6.5013482     2672.198     3546.576     3889.632      77.5178     155.3459     311.1253      1.414     3.08     834.1274     54.85726     400.7301        14     1.067     0.761  44.12   0
       412    886.1982    440.6861 307.5534925  +6.5270344     1614.862       2502.6     3541.901     77.26894     155.2839     310.9396      1.908     3.04     833.7372     54.85726     301.3707        13     1.103     0.736  46.30   0
       413    899.2935    435.4196 307.5482276  +6.5296427     5758.915     7445.104     7369.921     77.88959     155.4698     311.0944      1.364     2.95     833.3224     54.85726     958.3023        23     1.165     0.901  47.09   0
       414    581.1358    436.8177 307.6803427  +6.5185062     755.1851     927.1024     1420.291     77.64193     155.5936     311.0634      1.178     2.75     832.4417     54.85726     158.3344         8     0.814     0.666  50.51   0
       415     48.6994    436.1925 307.9015240  +6.5010165     1682.619      2400.66     2680.701     77.76585     155.2839     311.0325      1.464     3.20     835.5595     54.85726     242.4973        14     1.082     0.808  48.33   0
       416    227.1127    431.8669 307.8275623  +6.5087601     16240.85     21457.42     22051.06     78.13647      155.841     311.2491      1.372     2.97     831.4489     54.85726     2515.706        37     1.294     0.969  42.46   0
       417    955.0244    433.2258 307.5251495  +6.5323945     812.3254     981.3241     1104.635      77.5178     155.4698     311.0944      1.230     2.88     831.9224     54.85726     148.1351         7     0.738     0.654 -23.19   0
       418     62.7171    426.3127 307.8960325  +6.5055638     907.4924      1189.72     1085.812     77.76586      155.841     311.2801      1.328     3.33     834.9797     54.85726     162.8939         9     0.863     0.777  87.47   0
       419    721.9118    425.2109 307.6222516  +6.5279746     995.0057     1428.355     2038.759     77.64193     155.4078     311.0944      1.467     3.25     832.9475     54.85726     150.5318         9     0.930     0.718  81.41   0
       420    690.4000    424.9280 307.6353510  +6.5270452     912.2366     1248.254     1225.681     77.26894     155.1598     311.0634      1.368     4.33     832.4865     54.85726     161.8961         9     1.157     0.616  38.38   0
       421    999.7032    424.2845 307.5068863  +6.5375653      656.761     867.4241     1199.561     78.01313     156.0262     311.2801      1.412     5.55     829.5209     54.85726      89.5238         7     1.172     0.741  48.21   0
       422    950.1965    423.8338 307.5274668  +6.5361123     971.6699     1220.075     931.9471     77.26894     155.5317     311.0015      1.364     3.23     831.7434     54.85726     203.7411         9     0.972     0.617  36.93   0
       423    340.0996    421.3810 307.7809807  +6.5168566     1557.212     1907.291     1953.983     78.01312     155.5317     311.0015      1.225     2.99     830.7513     54.85726      256.959        12     1.046     0.724  60.19   0
       424    172.8779    421.3573 307.8504413  +6.5112890     1055.081      1293.46     1180.837     77.88959     155.6555     311.2801      1.456     4.48     832.4088     54.85726     149.8216        12     1.117     0.762  59.23   0
       425    127.2860    420.4893 307.8694079  +6.5101251     6129.064       7918.2     7813.549     77.76586     156.0262     311.3419      1.345     2.93     833.3066     54.85726     1036.896        22     1.182     0.890  46.72   0
       426    367.5355    421.0257 307.7695961  +6.5179175     650.8536     800.7667       719.54     77.64193     155.6555     311.1253      1.388     3.13     830.8115     54.85726     119.6862         8     0.944     0.653  10.42   0
       427    232.1625    419.4845 307.8258788  +6.5140406     1723.157     2287.021     2072.296     78.01313     155.6555     311.1872      1.471     3.18     831.0178     54.85726     271.8873        17     1.125     0.894  53.73   0
       428    424.9779    419.1450 307.7457982  +6.5206072     809.8608     979.6294     991.3503      77.5178     155.6555     311.0325      1.359     3.60     830.7621     54.85726     156.9582         8     1.031     0.628  54.16   0
       429    149.4628    416.2873 307.8603369  +6.5126004     2937.424     4492.546     4244.791      77.8896      155.841     311.2491      1.677     3.40     832.7949     54.85726     467.6132        24     1.289     1.058 -78.41   0
       430    813.4950    416.9012 307.5844840  +6.5344441     977.6222      1296.71     1138.087     78.01312     156.1496     311.0634      1.515     3.56      832.716     54.85726      171.184         8     0.983     0.593  24.04   0
       431    545.0161    415.2201 307.6960664  +6.5262220     1116.414     1383.108     1806.384     77.76585     155.4698     311.1253      1.210     2.39     830.9134     54.85726     242.5649         7     0.738     0.600  35.71   0
       432    961.1443    410.4058 307.5233647  +6.5420188      1145.91     1792.061     2071.943      77.5178     155.5317     310.9396      1.731     6.90     830.6566     54.85726     173.1357        14     1.439     0.928 -59.20   0
       433    372.8864    410.8929 307.7677118  +6.5222791     2609.771     3122.355     3371.036     78.01313      156.088      311.311      1.290     2.92     830.2878     54.85726     392.6744        19     1.106     0.864  53.49   0
       434    260.7712    411.6897 307.8142559  +6.5182130     991.1694      1522.26     815.6989     78.13647     155.4078     311.1253      1.590     3.53     830.5396     54.85726     177.8002         9     1.008     0.741  -0.47   0
       435    306.8478    409.0303 307.7952055  +6.5208473     750.4489     697.4669     900.8503     77.64193     155.7173     311.1253      1.273     4.03     830.1456     54.85726     107.3252         8     0.864     0.637  47.51   0
       436    426.6945    404.5895 307.7455709  +6.5266736     8884.061     11404.42     12365.88     77.64193     155.2839     311.0325      1.328     2.90     829.9857     54.85726     1435.758        28     1.188     0.944  46.63   0
       437     23.1581    405.5188 307.9131605  +6.5128260     3656.542     5316.488     5628.978     78.01313     155.6555     311.1563      1.579     3.27     835.6122     54.85726      540.772        28     1.400     1.169 -60.72   0
       438    187.2429    403.9008 307.8450585  +6.5189753     633.6664     822.3997     371.6486     78.01312     155.5317     311.4347      1.436     4.76     831.7872     54.85726     100.8057         7     1.049     0.612  68.20   0
       439    759.2836    403.4853 307.6074500  +6.5381846     2212.695     3046.556     3297.859     77.76586      155.841      311.311      1.405     3.03     832.3146     54.85726     413.2656        15     1.090     0.899  22.07   0
       440    767.3661    401.8073 307.6041483  +6.5391456     15202.07     19385.37     19993.29      77.5178     155.4698     311.0015      1.317     2.89     832.2877     54.85726     2496.266        30     1.231     0.883  43.47   0
       441    330.6210    400.2463 307.7856239  +6.5252662     1192.337     1485.913     2108.148     77.64193     155.6555     311.0634      1.253     3.73     829.7836     54.85726     186.6124        11     1.151     0.672  57.29   0
       442    281.3408    400.4047 307.8060889  +6.5235580     514.3893     690.0816     528.9852     77.39347     155.5317     311.0015      1.238     4.08     829.9797     54.85726     90.45245         6     0.858     0.555 -42.78   0
       443   1011.3867    396.6847 307.5029486  +6.5493470      4032.38     5594.973     5826.396     77.64193     155.5317     311.0634      1.458     3.14     828.0946     54.85726     589.5953        24     1.252     1.007  40.19   0
       444    942.2252    393.1826 307.5317958  +6.5485031     673.0698     791.4193     707.7806     77.76585     155.4698     311.1563      1.272     4.74     830.7844     54.85726     117.2773         8     0.975     0.655  66.14   0
       445    175.7309    392.7820 307.8502123  +6.5231814      1001.38     1314.467     1304.594      77.5178     155.5317     311.1563      1.252     3.03     831.9238     54.85726     208.2153         8     0.965     0.560  55.26   0
       446    514.9332    390.0477 307.7094020  +6.5356140     590.0889     815.0806     565.5085     78.01313     155.5936     311.2491      1.377     3.85      829.563     54.85726     101.5703         6     0.968     0.439  51.52   0
       447    474.9548    388.2123 307.7260702  +6.5350415     3838.088     4987.116     5297.583      77.5178     155.4698     310.9396      1.365     3.09     829.3204     54.85726     632.5344        20     1.218     0.794  43.73   0
       448    447.0912    388.8363 307.7376239  +6.5338564     2732.634     3386.418     3893.511     78.13647     155.5936     311.2491      1.312     2.91     829.2017     54.85726     469.4686        17     1.180     0.742  42.78   0
       449    903.4908    387.7837 307.5480661  +6.5494489     934.0977     994.1576     660.5942     77.76586     155.4698     311.1253      1.114     2.53     831.3936     54.85726     167.6903         7     0.794     0.589  24.93   0
       450    832.7523    384.6598 307.5775560  +6.5483940     37748.79     51869.35      53329.2     78.01313     155.6555     311.2801      1.463     3.10     831.8036     54.85726     5238.104        53     1.390     1.073  59.52   0
       451    978.3221    384.8257 307.5170778  +6.5531487     597.1089     716.3699     255.9779     77.76585     155.5936     311.1872      1.318     4.27     829.0884     54.85726      70.3363         6     0.772     0.672  19.51   0
       452     50.8050    381.5038 307.9024814  +6.5236646     896.5753     1219.142      742.001     77.76586     155.3459     310.9705      1.516     5.69      834.208     54.85726     136.7754         9     1.273     0.718  61.19   0
       453    324.7662    380.8079 307.7887053  +6.5330962     939.5787     970.0428     1243.957      77.5178     155.4698     311.0325      1.217     3.46     829.0118     54.85726     150.4793         8     1.013     0.506  36.82   0
       454    945.2054    378.7545 307.5310369  +6.5545586     467.5398     644.5525     280.6006     77.39347     155.4078     310.8776      1.246     3.49      830.063     54.85726     84.00885         5     1.000     0.351  43.82   0
       455     12.4223    377.8022 307.9185486  +6.5239096     1284.489     1710.089     1973.668     77.64193     155.3459     310.9705      1.463     3.38     834.9941     54.85726     198.7447        11     1.076     0.720  47.59   0
       456    604.4905    377.1761 307.6726283  +6.5439060     3189.133     4249.888     4756.907     78.01313     155.4698     311.0634      1.416     3.00     829.1913     54.85726     604.3962        16     1.250     0.703  41.43   0
       457    571.8421    377.8237 307.6861692  +6.5425533     350.6395      389.426     1060.926     77.64193     155.5317     311.0015      3.904     4.59     829.1319     54.85726     64.60956         6     0.949     0.630 -24.01   0
       458    689.1873    370.7428 307.6376584  +6.5493759        94701     121512.1     125490.3     77.39347     155.5317     310.9086      1.339     2.89     830.4205     54.85726     15721.36        67     1.322     0.993  45.12   0
       459    135.7454    375.5556 307.8673981  +6.5289582     559.2562      834.063     910.3399     78.01313     155.6555     311.2491      1.376     2.31     832.4578     54.85726     119.6247         5     0.679     0.475  17.39   0
       460    847.3149    371.9251 307.5719297  +6.5541345     1468.185     1942.411     1790.596     78.13647     155.9645     311.2801      1.333     2.55     831.4242     54.85726     309.7814        11     0.976     0.684  42.58   0
       461     68.3743    370.3928 307.8955556  +6.5288389     1576.731      1920.67     1822.669      77.5178     155.5317     311.0634      1.394     3.48     833.5256     54.85726     265.4695        11     1.123     0.679  25.98   0
       462    930.7063    367.6809 307.5374278  +6.5586503     819.6605     1084.655     615.9457     77.76586     155.9028     311.2801      1.486     5.15     830.0303     54.85726     143.5774        10     1.205     0.809  49.60   0
       463    551.6058    367.5903 307.6949166  +6.5461054     3302.331     4215.216     4821.506      77.5178     155.4698     311.0634      1.311     2.92      828.543     54.85726     590.3122        17     1.169     0.759  50.05   0
       464     55.0628    369.2282 307.9011240  +6.5288748     467.2882     577.2762     367.5694     77.64193     155.6555     311.1563      1.226     3.92     833.7797     54.85726     76.66571         5     0.864     0.509  54.76   0
       465     88.8374    366.5481 307.8871844  +6.5311100     7316.432     9915.929     10350.01     77.88959     155.6555     311.2182      1.436     2.98     833.0135     54.85726     1064.581        28     1.330     0.908  40.25   0
       466    534.8879    363.6807 307.7019918  +6.5471635     8664.525     11106.78     11181.74     77.76585     155.9028      311.311      1.319     2.98     828.2695     54.85726      1327.02        24     1.194     0.846  43.63   0
       467    263.9408    361.4475 307.8146189  +6.5390611     3123.462     4210.538     4295.222     78.01312     155.6555      311.311      1.436     3.21      829.319     54.85726     468.7863        18     1.281     0.791  43.15   0
       468    397.7792    358.9396 307.7591061  +6.5445573     30659.32     39944.51      40646.7     77.64193     155.5936     311.1563      1.366     2.98     827.4145     54.85726     4708.291        41     1.294     0.935  44.18   0
       469    576.0425    358.2190 307.6850777  +6.5507869     788.2224     795.3275     561.9111      77.5178     155.5317     311.0015      1.285     2.35     828.0614     54.85726     155.0834         7     0.719     0.652  13.77   0
       470    505.4597    357.5446 307.7144212  +6.5487179     1653.268      1963.12     1869.813     78.13647     155.6555     311.2182      1.282     2.77     827.7838     54.85726     287.6135        13     0.995     0.781  48.23   0
       471    664.3284    356.8224 307.6484486  +6.5542974     578.3126     841.5193     786.5558     77.64193     155.4698     311.2182      1.183     3.31     829.3918     54.85726     135.7591         5     0.947     0.352  43.00   0
       472    377.6691    356.9016 307.7675280  +6.5447288     1460.248     1906.139     2125.757     78.01312     155.7792     311.2182      1.353     3.46     827.4185     54.85726     240.2429        11     1.037     0.622  42.53   0
       473    477.0349    354.0757 307.7263449  +6.5492042     1435.247     1730.197     2108.847     77.88959     155.7173     311.1872      1.330     2.73     827.3909     54.85726     287.0383        11     1.024     0.699  54.76   0
       474    792.5037    351.3309 307.5953843  +6.5608194     974.8992     1495.429     1843.354      77.8896     155.7792     311.2182      1.607     2.55     830.8216     54.85726     169.3459         9     0.898     0.639  50.44   0
       475    375.0229    351.7870 307.7687980  +6.5467523     913.2222     1205.122     1716.645     77.76585     155.4698     311.1253      1.381     4.82     827.2027     54.85726     149.6171         8     0.944     0.698  20.49   0
       476    628.7616    351.2513 307.6634093  +6.5554158     674.8387     899.8402     855.5271     77.76586     155.6555     311.1872      1.241     3.35     828.2285     54.85726     119.9455         5     0.918     0.353  45.07   0
       477    486.8830    349.3110 307.7224128  +6.5514990     10262.75     13214.47     13484.74     77.76585      155.841     311.2491      1.356     3.00      827.204     54.85726     1650.538        30     1.226     0.933  41.68   0
       478    755.9532    347.8692 307.6106835  +6.5610358      3792.53     4974.946     5147.639     78.01312     155.5936     311.2182      1.350     2.91     830.6268     54.85726     634.6136        20     1.117     0.855  47.90   0
       479    911.5835    347.8835 307.5460295  +6.5661904     944.2145     1394.589     1289.351     77.64193     155.3459     311.1253      1.454     4.04     829.5771     54.85726     144.1926         9     1.068     0.574  30.77   0
       480    703.6939    347.3686 307.6324101  +6.5595078     841.1622     882.2645     378.9022     78.13647     155.4698     311.2801      1.209     3.21     829.8091     54.85726     145.5888         8     0.933     0.598  68.92   0
       481    313.3527    346.1052 307.7946059  +6.5470428     1282.821     1536.625     1278.196     77.88959     155.5317     311.3419      1.238     2.97     827.9147     54.85726     185.0543        11     0.939     0.735  25.14   0
       482    248.8719    340.1063 307.8215920  +6.5473691     1016.936     1331.875     1326.392     77.88959     155.7173     311.2801      1.431     3.81     829.3633     54.85726     172.0745        11     1.095     0.765  37.40   0
       483    148.8715    339.9289 307.8631380  +6.5441048      1330.19     1615.218     1565.533     78.25961     155.7792     311.1253      1.284     2.63       831.84     54.85726     223.0097        10     0.890     0.687   9.29   0
       484    596.0273    338.4840 307.6774332  +6.5595990     635.8792     816.0162     511.2592     78.01312     155.4078     311.0944      1.233     2.83     827.0328     54.85726     144.6577         6     0.903     0.530  69.84   0
       485    425.3840    339.1118 307.7483007  +6.5536626     622.9868     836.7651      609.999     77.76585     155.4078     311.0634      1.375     3.78     826.6286     54.85726      115.283         6     0.766     0.618 -34.25   0
       486    376.7221    333.5097 307.7687025  +6.5543547     9199.903     11796.22     12022.34     77.76586     155.9028     311.2801      1.340     2.82     826.7977     54.85726     1472.391        26     1.217     0.890  44.88   0
       487    232.6101    334.0787 307.8285488  +6.5493151     2610.759     3531.253     3478.316     77.64193     155.3459     311.0634      1.413     3.29     829.7936     54.85726     444.1348        17     1.191     0.766  40.48   0
       488    730.4858    333.1297 307.6217538  +6.5662759     1255.264     1453.733     1324.558     78.13647     155.9028     311.2491      1.338     3.46     829.6345     54.85726        230.9        13     1.204     0.683  49.63   0
       489    665.3002    333.9347 307.6488070  +6.5637791     550.3856     515.2706     41.44652     78.01312     155.7792     311.1872      1.143     4.26      828.166     54.85726      91.3205         6     0.799     0.648  26.05   0
       490    744.6325    329.2617 307.6160055  +6.5683424     64126.36     81974.61     84194.23     77.76586     155.7173     311.1563      1.330     2.87     829.6194     54.85726     11412.26        57     1.300     0.976  45.07   0
       491    416.2313    328.7855 307.7524475  +6.5576211     2885.988     3546.538     3483.486     77.64193     155.4078     311.1563      1.277     3.01     826.3772     54.85726     471.9791        13     1.072     0.707  42.95   0
       492    979.3711    326.1861 307.5185884  +6.5773936     1819.202     2633.995     2580.872     77.64193     155.4698     311.1253      1.519     2.80     827.6386     54.85726     303.5536        18     1.069     0.988  32.16   0
       493    562.2773    326.1960 307.6918633  +6.5635501     1574.339     1967.606     1523.001     77.64193     155.1598     311.0325      1.272     3.14     826.3458     54.85726     293.1147        13     1.119     0.719  57.38   0
       494    453.1984    325.1414 307.7372123  +6.5603564     1253.086     1762.285     2242.951     77.39347     155.3459     310.9396      1.443     3.93     826.1351     54.85726     195.5514        11     1.187     0.654  75.64   1
       495    920.4553    325.2582 307.5430953  +6.5758255     2609.053     3707.878     4049.991     78.13647     155.7173     311.2491      1.470     2.73     828.5651     54.85726      482.507        18     1.133     0.879  53.59   0
       496    402.8838    324.5639 307.7581332  +6.5589194     2483.529     3516.348     3696.962     78.01312     155.6555     311.1872      1.507     3.24     826.3854     54.85726     417.8637        16     1.238     0.761  33.87   0
       497    282.5697    323.9576 307.8081336  +6.5551600     911.5872      1085.75     1014.458     77.64193     155.5936     311.0634      1.346     4.03      828.012     54.85726     138.4403         9     0.969     0.756  17.55   0
       498    651.7271    322.8636 307.6548144  +6.5678990     507.7318     574.6144     629.2896     78.01312     155.6555     311.2491      1.397     5.03     827.2408     54.85726     86.11224         7     1.094     0.655  34.94   0
       499    430.1854    320.7830 307.7469178  +6.5613896     518.3303     664.6145     215.8775     77.76585     155.3459     311.1563      1.268     3.43     826.1026     54.85726       76.159         5     0.983     0.347  45.33   0
       500    824.0927    318.7227 307.5833454  +6.5753297     1413.216      1818.52     1958.138     77.76585     155.9028     311.2491      1.384     3.84     829.3977     54.85726      243.478        12     1.196     0.625  55.65   0
       501    453.0885    319.5071 307.7374460  +6.5626789     1090.877     1253.778     1587.561     78.01312      156.088     311.2801      1.287     2.98     825.9471     54.85726     183.0598        11     1.005     0.703  45.40   0
       502    955.9797    317.0541 307.5286093  +6.5803893     620.3094     904.9948     850.8607      77.5178     155.6555     311.0325      1.581     4.48       827.78     54.85726     96.87286         6     1.057     0.539  44.36   0
       503    433.4427    316.0637 307.7457222  +6.5634464     1375.183     1893.456     2343.569     78.01312     155.5936     311.2491      1.449     3.76     825.9343     54.85726      228.807        13     1.245     0.713  45.06   0
       504    179.2851    315.8558 307.8513098  +6.5550586     2789.065     3647.462     4177.797     78.01312     155.6555     311.3419      1.397     3.03     830.9752     54.85726      442.761        17     1.263     0.750  50.49   0
       505    743.0931    313.7658 307.6171606  +6.5746890     7258.344     9369.405     9557.903     78.13647     155.5317     311.2801      1.335     3.00     828.8254     54.85726     1189.266        25     1.227     0.864  46.65   0
       506    759.5588    311.7314 307.6103878  +6.5760753     3014.823     3771.073     3814.126     77.88959     155.5936      311.311      1.349     3.40     828.8306     54.85726     513.7791        17     1.243     0.752  51.09   0
       507    214.6377    313.8660 307.8366906  +6.5570601     950.2368     1073.997     914.8176     77.88959     155.5936     311.2801      1.319     3.67     830.1773     54.85726     144.0883         9     1.000     0.604  34.95   0
       508     75.4624    313.0961 307.8945304  +6.5527302      1216.63     1610.728     1734.168     77.76585     155.7792     311.2801      1.347     4.14     832.9933     54.85726     211.5961        10     1.108     0.636  42.41   0
       509    333.4868    313.3903 307.7873351  +6.5612202     881.7669     1065.246     873.7256     77.64193     155.3459     311.0634      1.339     4.42     826.8683     54.85726     141.6541         7     0.911     0.611  16.70   0
       510     62.4816    307.0774 307.9001243  +6.5547811     1530.477     1862.974     1865.078     78.25961     155.9028     311.3419      1.296     3.13     833.2365     54.85726     262.7025        14     1.100     0.804  48.49   0
       511    348.9545    306.5980 307.7811364  +6.5645400      1981.19     3606.039     3662.271     77.39347     155.2839     310.8466      1.836     5.52      826.502     54.85726     274.4647        23     1.650     0.885   6.03   0
       512    997.6967    302.5692 307.5117589  +6.5877508     6588.148     8829.399     9408.715     78.13647     155.4078     311.2801      1.430     2.89     827.1525     54.85726     913.0822        26     1.257     0.929  48.02   0
       513    475.6913    302.6586 307.7286184  +6.5703872     2424.415     3164.193     2850.176     77.88959     155.5936     311.3419      1.304     2.96      825.045     54.85726      388.908        16     1.189     0.736  44.16   0
       514    238.3035    298.3720 307.8273778  +6.5642464     7105.998     9291.659     9597.834     78.13647     155.4078     311.1563      1.395     3.01     829.3449     54.85726     1205.831        25     1.256     0.891  45.14   0
       515    906.1668    296.6008 307.5499833  +6.5871836     588.0193     738.9857     491.3557     77.26894     155.4698     310.9705      1.315     3.46     827.7751     54.85726     94.71478         5     0.873     0.520  52.23   0
       516    803.1390    296.4964 307.5927894  +6.5838111     776.7719     895.6569     1654.047     77.76585     155.6555      311.311      1.334     4.63     828.3839     54.85726     123.2083         8     1.004     0.607  63.46   0
       517    886.0141    295.1742 307.5584031  +6.5871048     478.4101      515.607     583.0779     77.76585     155.4698     311.1563      1.276     3.73     828.0089     54.85726      88.6095         5     0.811     0.494  61.33   0
       518    215.3421    291.4812 307.8371468  +6.5663251     750.8852     924.2056     497.4956     78.01313     155.6555     311.2491      1.340     4.32     830.0527     54.85726      168.306         8     1.275     0.428  66.89   0
       519    757.8067    291.7001 307.6117821  +6.5842873     1038.024     1083.371     858.6613     77.76585     155.2839     311.0015      1.261     4.22     827.8109     54.85726      194.488         8     1.061     0.493  54.22   0
       520    109.7983    292.1426 307.8809689  +6.5625279     585.9716      641.145     851.6312     77.39347     155.3459     310.9705      1.342     3.28     832.2734     54.85726     103.5427         5     0.731     0.683  46.62   0
       521    372.7464    289.1972 307.7718339  +6.5725167     1955.712     2848.344     3341.278     77.39347     155.4698     310.8466      1.502     3.47     825.8605     54.85726     342.5955        15     1.372     0.632  48.31   0
       522    959.4295    287.6399 307.5281527  +6.5926476     1168.432     1744.318     1472.619      77.5178     155.4078     311.0944      1.466     3.50     827.0429     54.85726     225.7417        12     1.051     0.865  71.82   0
       523    178.7980    286.0031 307.8525111  +6.5673669     562.7045      781.114     666.9866     77.39347     155.2218     310.9705      1.457     3.94     830.6708     54.85726     84.82526         6     0.920     0.483  51.72   0
       524    142.2569    285.0455 307.8677228  +6.5665421     2168.291     2939.958     3241.137     78.01312     155.6555     311.2491      1.419     2.89     831.4462     54.85726     377.6267        14     1.115     0.727  48.73   0
       525    294.5785    284.9401 307.8044491  +6.5716687      1427.49     1794.836     1954.474     77.64193     155.5936     311.1253      1.368     2.87     826.8819     54.85726     234.7887        11     0.974     0.679  28.57   0
       526    551.7814    280.5779 307.6977443  +6.5820348     2722.343     3486.796      3689.91     77.76586     155.5936     311.1563      1.313     3.12     824.1644     54.85726     420.1022        17     1.177     0.774  51.73   0
       527    895.2825    279.4896 307.5550736  +6.5938875     1806.777     2698.705     2728.138     77.76586     155.9028     311.2801      1.648     5.40     827.0865     54.85726      303.708        19     1.629     0.771  38.31   0
       528    715.5182    278.0334 307.6298055  +6.5885260      5956.15     7474.087      7836.59     77.88959     155.5936     311.2182      1.345     2.88     826.4337     54.85726     1027.689        23     1.187     0.861  47.65   0
       529    656.2784    277.8293 307.6544234  +6.5866429     2523.646     3151.484     3327.838     77.88959     155.7173     311.2182      1.308     2.89     825.0704     54.85726     426.8342        16     1.177     0.754  48.48   0
       530    952.9711    277.1840 307.5311831  +6.5967506     783.1011     1109.654     741.9787     77.64193     155.4078     311.1563      1.302     2.92     826.5144     54.85726     143.0842         6     0.903     0.438  55.35   0
       531    370.9431    272.2159 307.7731502  +6.5794673     774.4072     888.4161     431.8459     77.39347     155.5936     310.9705      1.180     3.22      825.639     54.85726     121.0925         7     0.728     0.675  15.66   0
       532    911.3528    270.0616 307.5487103  +6.5983125     1253.836     1396.197     1640.869     77.88959     155.5936     311.2801      1.162     2.81     826.4248     54.85726     231.9889        10     0.988     0.647  49.57   0
       533    214.8655    263.4544 307.8382823  +6.5778799     2699.329     3542.146     3844.204     78.01312     155.5936     311.1872      1.373     3.01     829.9842     54.85726     392.4252        17     1.129     0.820  39.92   0
       534    857.6381    262.1311 307.5712901  +6.5998064     1923.174     2340.648     2245.867     77.88959     155.6555      311.311      1.302     3.00      826.447     54.85726     331.8551        15     1.206     0.703  40.40   0
       535    748.1628    261.5495 307.6167918  +6.5964152     1921.624     2275.346     2176.143     77.76585     155.5936     311.1253      1.274     3.03     826.3203     54.85726     309.9456        12     1.008     0.734  47.95   0
       536    236.4031    256.6891 307.8295613  +6.5813916     581.1647      708.566     732.5491     77.39347     155.3459     310.9086      1.213     3.37     829.3621     54.85726     100.2303         5     0.997     0.330  67.31   0
       537    774.9341    252.2752 307.6059780  +6.6011326     15548.69     20420.41     21648.18     78.13647     155.6555     311.1563      1.372     3.08     825.9691     54.85726     2507.083        42     1.329     1.131  25.52   0
       538    309.9082    254.8173 307.7990875  +6.5846160     752.9954      999.197     350.3082     77.76585     155.4078     311.0944      1.361     3.50     826.5541     54.85726     121.6145         7     0.816     0.749  62.18   0
       539    713.6016    248.1495 307.6315965  +6.6008002     869.6846     1298.475     1516.985     77.39347     155.2839     310.8157      1.588     4.29     825.1649     54.85726     132.6847         9     1.145     0.560  50.73   0
       540    454.4980    247.6524 307.7392583  +6.5923911     1583.818     1902.835     2040.271      77.8896     155.6555     311.4038      1.177     2.90     823.8197     54.85726     265.4839        11     1.019     0.661  41.48   0
       541    137.0583    246.6362 307.8711682  +6.5822255     2774.758     3675.306     3722.872     78.01312     155.6555     311.2491      1.402     3.25     831.1738     54.85726     439.5413        18     1.183     0.876  49.13   0
       542    111.7382    245.8930 307.8817117  +6.5816865     1220.251     1402.251     1513.775     78.01312     155.6555     311.2801      1.273     3.62     831.9377     54.85726     178.7024         8     0.924     0.584  39.52   0
       543    163.8508    244.6735 307.8601036  +6.5839305     769.1276     812.0653     852.8563     78.01312     155.7173     311.2491      1.394     4.69     830.3801     54.85726      112.131         8     0.987     0.632  65.65   0
       544    448.8681    253.2718 307.7414097  +6.5898837     27799.45     35764.54     36855.77     78.01312     155.7792     311.1872      1.355     2.97     824.0195     54.85726     4412.071        38     1.271     0.923  44.76   0
       545    911.3188    242.5560 307.5496382  +6.6096674      1760.98      2276.38      2327.43     78.01313     155.6555     311.1872      1.383     3.12     825.0424     54.85726     267.8125        13     1.068     0.754  47.99   0
       546    572.9562    238.9324 307.6903356  +6.5999324     5602.107     7298.613     7430.089     78.01313     155.5936     311.2491      1.371     2.99     823.3411     54.85726      882.543        20     1.186     0.823  45.97   0
       547    535.5756    238.8977 307.7058667  +6.5987036     2594.963     3324.145     3319.231     78.13647     155.4078     311.0944      1.321     2.74     823.1497     54.85726      480.598        17     1.209     0.776  47.38   0
       548    293.1834    239.7222 307.8065401  +6.5902903      1357.46     1679.163     1355.534     77.64193     155.4078     311.0944      1.237     2.53     826.8796     54.85726     252.3858        10     0.938     0.648  50.93   0
       549    377.4723    238.2137 307.7715734  +6.5937226     1895.923     2140.374     1853.705      77.5178     155.4078     311.0634      1.267     2.88     825.0303     54.85726     363.4028        15     1.152     0.740  44.83   0
       550    879.9713    235.3838 307.5629004  +6.6115897     12946.19     16920.52      17481.5     77.64193     155.4078     311.1563      1.364     2.95     824.7321     54.85726     2126.381        33     1.287     0.924  47.53   0
       551    933.7831    235.8116 307.5405289  +6.6131961     2960.875     3916.488     3806.271     77.64193     155.3459     311.1253      1.407     2.89     824.5994     54.85726     463.0651        19     1.143     0.865  44.40   0
       552    555.2642    235.8828 307.6977875  +6.6006031     1052.559     1363.184     737.1975     78.13647     155.7792     311.2491      1.214     4.07     823.1496     54.85726     177.7925         9     1.040     0.541  39.31   0
       553    307.4093    235.7559 307.8007626  +6.5924021     1210.735     1665.577     1274.429      77.5178     155.5317     310.9705      1.601     3.67     826.5537     54.85726     184.6398        11     1.043     0.729  57.66   0
       554    198.8433    235.4377 307.8458757  +6.5889117     984.1708     1195.525     834.2205     77.76585     155.6555     311.0634      1.293     3.72     830.0231     54.85726      138.369         9     0.844     0.783 -88.46   0
       555    966.6558    233.2064 307.5269577  +6.6153605     10872.26     14547.86     14901.23      77.5178     155.5317     310.9396      1.390     3.01     824.2988     54.85726      1765.05        31     1.299     0.947  47.13   0
       556    678.0182    233.3428 307.6468729  +6.6057316     3362.521     4540.211      5115.79      77.5178     155.5936     310.9705      1.420     3.04     823.9056     54.85726     537.3061        19     1.132     0.861  42.50   0
       557    252.2874    233.2292 307.8237469  +6.5916068     1297.073     1653.766     1212.146     78.13647     155.4078     311.0944      1.335     3.30     828.6396     54.85726     238.6338        13     1.134     0.806  48.36   0
       558      6.0727    232.3648 307.9260609  +6.5837394     29414.41     39342.91     41137.54     77.88959     155.6555     295.9609      1.430     3.12     834.4847     54.85726     4564.169        39     1.316     0.980  41.03  16
       559    909.9884    233.8711 307.5504794  +6.6132089     1194.626     1258.846     1474.366      77.5178     155.2839     311.0325      0.492     2.19     824.5845     54.85726     796.6616         5     0.496     0.296 -23.27   0
       560    486.5044    228.4117 307.7266032  +6.6014000     2467.977     3075.035     2671.396     77.64193     155.4078     311.0015      1.301     2.99     822.8914     54.85726      470.262        19     1.170     1.006  66.48   0
       561    818.5128    224.7581 307.5887878  +6.6139389     2421.314     3207.157     3279.801     78.01313     155.5936     311.2491      1.400     2.81     824.4908     54.85726     432.0273        14     1.084     0.773  52.73   0
       562    870.8215    223.9561 307.5670816  +6.6160044     2323.416     3101.941     3176.773      77.5178     155.5317     311.0325      1.378     2.96     824.1307     54.85726     341.9598        17     1.141     0.799  43.21   0
       563    786.9863    225.0014 307.6018780  +6.6127927     481.2756     615.7124     778.1043     77.64193     155.3459     311.0015      1.192     2.43     824.6162     54.85726     105.3224         5     0.633     0.563   0.01   0
       564    498.5012    224.2421 307.7217582  +6.6035207     2968.897     3681.283     3773.435     78.01313     155.5317     311.4347      1.292     2.90     822.7994     54.85726     534.3703        16     1.106     0.750  37.38   0
       565    730.1480    221.4232 307.6256116  +6.6123837     47463.74     61151.65     62629.97      77.5178     155.6555     311.0944      1.347     2.95      824.368     54.85726     8387.819        48     1.308     0.939  45.85   0
       566    617.4941    224.3467 307.6723180  +6.6074348     583.2421     948.1188     1255.273      77.8896     155.5936     311.4656      1.798     3.52     823.3192     54.85726      130.834         6     0.823     0.572 -48.02   0
       567    332.5059    222.4768 307.7907802  +6.5987210     4818.654      6454.95     6763.157     77.76586     155.7792     311.2182      1.484     3.52      825.873     54.85726     655.1066        21     1.222     0.934  42.15   3
       568    333.4507    219.5005 307.7904871  +6.5999813     5610.736     7088.028     7718.846     78.01313     155.6555     311.3728      1.342     3.40     825.8754     54.85726     895.6597        18     1.138     0.798  36.74   3
       569    963.9118    220.1478 307.5285314  +6.6206610     3185.875     4582.759     4881.307     78.01312     155.5317     311.3419      1.486     3.17     823.7226     54.85726     502.1763        22     1.370     0.885  37.32   0
       570    441.6212    217.8038 307.7456042  +6.6042854     5912.031     7714.937     8244.237     77.64193     155.3459     311.0015      1.379     3.23     823.3648     54.85726     1044.389        24     1.369     0.805  51.10   0
       571   1002.1721    218.7188 307.5126825  +6.6225177     1926.503     2378.562     2118.287     77.88959     155.4698     311.1872      1.362     3.08     823.5026     54.85726     306.8328        15     1.120     0.815  57.81   0
       572    898.0077    218.3866 307.5559715  +6.6192049     8710.739     11628.94     11923.67     77.64193     155.4078     311.0944      1.417     3.10      823.874     54.85726     1426.129        27     1.249     0.913  51.10   0
       573    307.7911    216.2879 307.8012547  +6.6004522     602.1259     821.9283     216.4405     77.64193     155.3459     311.0015      1.440     3.88     826.6249     54.85726     109.8764         5     0.886     0.488 -47.09   0
       574    215.8813    214.6867 307.8394917  +6.5980472      768.051     1090.532     841.3084     77.76585     155.9028     311.3419      1.355     2.89     829.7869     54.85726     158.2302         6     0.769     0.566  48.93   0
       575     98.8731    209.1724 307.8882861  +6.5964164     5746.194     7606.655     7919.492     77.76585     155.5936     311.1563      1.380     3.15     831.9611     54.85726     820.0043        21     1.211     0.845  43.38   0
       576    918.5378    208.0748 307.5477843  +6.6241425       971.88     1419.108     1882.098     78.25961     155.6555     311.2182      1.364     4.87     823.4267     54.85726     155.7804        10     1.215     0.631  38.07   0
       577    269.1950    205.8074 307.8176397  +6.6034918     40682.84     53374.57     54719.03     77.39347     155.4078     311.0634      1.365     2.94     828.1226     54.85726     6404.317        51     1.293     1.003  42.36   0
       578    244.4963    206.8871 307.8278647  +6.6022221     7993.214     10449.08     10799.88     78.01312     156.0262     311.2491      1.386     3.01     828.9808     54.85726     1251.552        25     1.235     0.879  45.72   0
       579    884.8271    206.8463 307.5618312  +6.6235326     478.8079     572.0856     344.0633     77.64193     155.7173     311.1253      1.534     3.93     823.5122     54.85726     84.13971         5     1.024     0.433  44.57   0
       580    595.4539    207.1012 307.6820496  +6.6138220     635.8644     945.9283     911.6866     77.88959     155.6555     311.4347      1.522     3.75      822.714     54.85726     97.21649         6     0.815     0.497  86.89   0
       581    183.8842    206.1385 307.8530707  +6.6005083      522.379     631.0475     456.6673     78.13647     155.6555     311.2491      1.404     4.59     829.8952     54.85726     79.55267         6     0.954     0.627  66.21   0
       582    698.2090    204.7562 307.6394361  +6.6182043     1068.072     1264.406     1180.881      77.5178     155.4698     310.9705      1.228     3.20        823.5     54.85726     182.8596        10     1.050     0.620  43.90   0
       583    393.2786    201.2439 307.7662413  +6.6095121     60421.25     78263.95      80916.2     77.88959     155.6555     311.2491      1.362     2.97     824.1256     54.85726     10779.61        57     1.310     1.008  42.82   0
       584    149.2489    202.6521 307.8675763  +6.6007910     4896.984      6620.52     6593.289     78.13647     155.5317     311.1872      1.438     3.15     830.3839     54.85726     801.8647        23     1.250     0.906  39.62   0
       585    410.6436    201.6210 307.7590143  +6.6099349     1815.845     2282.225     2127.634      77.5178     155.5317     311.0325      1.340     2.84     823.6841     54.85726     269.8453        13     0.985     0.788  44.57   0
       586    297.2724    198.9660 307.8062037  +6.6072527     21711.61     28483.22     29226.89     77.88959     155.5936     311.1872      1.375     2.86     827.2987     54.85726     3644.708        37     1.288     0.932  44.86   0
       587    732.5733    197.3199 307.6254062  +6.6224154     39972.61     50797.91     51998.58      77.8896     155.4698     311.2491      1.350     2.97     823.6066     54.85726     6989.533        43     1.287     0.927  47.04   0
       588    304.7301    198.9291 307.8031066  +6.6075166     2493.338     3432.439     4493.022     78.01312     155.7792     311.1872      1.522     3.47     826.9882     54.85726     404.1172        21     1.372     0.827  45.62   1
       589    680.7366    199.1222 307.6468830  +6.6199501     1186.639     1570.711     1328.523     78.25961     155.7173     311.2182      1.201     3.35      823.209     54.85726     232.3509        10     1.055     0.626  25.32   0
       590    530.7460    199.4043 307.7091902  +6.6148479      576.645     875.7295     863.8416     77.39347     155.4078     310.9086      1.715     5.34     822.2629     54.85726     112.3622         5     1.025     0.784   8.21   0
       591    780.7779    197.8353 307.6053611  +6.6238024     1378.034     1939.554     1878.672      77.5178     155.4078     310.9705      1.416     3.11     823.6748     54.85726     226.2229        10     0.919     0.707  48.45   0
       592     20.0285    197.8416 307.9214205  +6.5984586     637.9897     1068.871     1659.446     77.64193     155.5936     311.0944      1.509     4.03     834.2722     54.85726     97.59259         6     0.947     0.491  33.56   0
       593     49.3544    194.8438 307.9093380  +6.6006767     10986.42     14884.35     15849.92     78.01312     155.6555     311.1563      1.437     3.07     833.3353     54.85726     1649.313        32     1.294     0.977  42.54   0
       594    556.7077    195.5646 307.6985320  +6.6172966     540.2418     688.8886     568.7743     78.13647     155.5317     311.2491      1.274     3.43     822.2496     54.85726     90.08319         5     0.772     0.440  21.09   0
       595     83.2268    192.8476 307.8953330  +6.6026331       1760.6     2159.648     2006.913     77.64193     155.7173     311.1563      1.335     3.12     832.1953     54.85726     295.2362        12     1.027     0.724  44.14   0
       596    990.9993    191.3986 307.5182315  +6.6334273     1120.126     1446.387     1731.455     77.39347     155.2218     310.9086      1.375     3.88     822.5281     54.85726     178.8493        13     1.109     0.877  52.41   0
       597    716.9946    185.0896 307.6322859  +6.6269475      672.247     788.7875     965.4773      77.5178     155.3459     310.9705      1.391     2.97     823.1267     54.85726     138.4882         5     0.793     0.492  60.35   0
       598    993.3289    183.6759 307.5175199  +6.6366928     351.4558     582.9681     764.3703     78.25961     155.9028     311.2182      1.492     3.74     822.2677     54.85726     76.11548         5     0.850     0.474  79.65   3
       599    991.9713    177.7724 307.5182799  +6.6390852     2531.585     3575.696     3763.549      77.5178     155.4698     311.0325      1.478     3.16       822.05     54.85726     402.1562        19     1.266     0.875  59.84   2
       600    566.3203    181.7236 307.6949997  +6.6233306      831.214     1110.665     1081.607     78.25961     155.9028     311.3419      1.442     4.12     821.9517     54.85726     164.0237        10     1.260     0.541  33.10   0
       601    575.1371    175.4704 307.6915450  +6.6262054     1137.555     1390.063      1512.72     78.01312     155.6555     311.2491      1.376     2.95     821.7989     54.85726     203.8398        10     0.923     0.753  32.43   0
       602    260.9544    175.3115 307.8220831  +6.6158070     715.2407     1291.522     1879.321     78.01312     155.5317     311.2491      2.104     6.08     828.6637     54.85726     87.78583        10     1.137     0.914 -53.99   0
       603    583.3571    173.6425 307.6881907  +6.6272334     2352.308     3057.126     2817.179     77.76586     155.6555     311.0634      1.341     3.06     821.7864     54.85726     371.1163        14     1.157     0.714  52.83   0
       604    268.1254    172.0512 307.8192128  +6.6173922      36942.7     48260.78     49736.04     78.01312     155.7173     311.2491      1.371     3.00     828.5856     54.85726     6290.936        45     1.293     0.976  42.49   0
       605     11.4279    175.2307 307.9257515  +6.6075055     639.7888     1027.177     1168.801      77.5178     155.4078     311.0015      1.817     4.43     834.7034     54.85726     87.05255         7     1.037     0.539  30.76   0
       606    327.3732    173.9065 307.7945356  +6.6186020     1112.011     1388.002     1069.717     78.13647     155.4078     311.0634      1.352     3.97     826.2444     54.85726     180.9672        11     1.087     0.772  36.84   0
       607     13.2967    170.6699 307.9251280  +6.6094509     5265.268     7040.077     7153.763     77.88959      155.841     311.2182      1.382     3.10     834.6494     54.85726     845.5696        22     1.274     0.812  43.74   0
       608    699.7700    168.5088 307.6399944  +6.6332211     9733.748     12530.51     13153.75     78.13647     155.4078     311.1872      1.329     3.05     822.6657     54.85726     1578.157        25     1.211     0.866  52.55   0
       609    177.1994    169.9871 307.8570578  +6.6152099     1159.385      1631.24     1568.845     77.64193     155.3459     311.0325      1.400     3.62     829.7217     54.85726     189.5198        12     1.132     0.713  49.64   0
       610    253.9566    166.9577 307.8252697  +6.6190224     903.4368     1242.359     1566.954     77.76585     155.6555     311.0634      1.358     3.92     828.8165     54.85726     143.9848         7     0.899     0.516  41.03   0
       611    110.5677    165.8175 307.8848797  +6.6147057     5799.483     7485.081     7649.286     77.64193     155.4698     311.0944      1.366     2.98     830.9387     54.85726     898.8932        20     1.203     0.815  44.13   0
       612    572.6545    163.5875 307.6929726  +6.6310288      814.551     1439.546     1264.177     77.39347     155.5936     310.9396      1.775     3.61      821.522     54.85726     147.3709         7     0.986     0.680  23.88   0
       613    449.4787    162.9432 307.7441708  +6.6271962     1666.977     2093.655     1773.872     78.01312     155.6555     311.1872      1.294     3.02      822.173     54.85726     279.4167        12     1.076     0.668  46.22   0
       614    637.9975    162.5096 307.6658597  +6.6336459     957.3166     1394.429     1445.571     77.39347     155.3459     310.9705      1.608     3.88     821.9895     54.85726     118.6182         8     0.813     0.703  85.56   0
       615    381.1815    161.7007 307.7725879  +6.6254344     4575.434      6795.64     6932.384     78.01313     155.5317     311.0015      1.540     3.30     823.9285     54.85726      786.119        27     1.412     0.985  57.28   0
       616    345.5682    160.5864 307.7874213  +6.6247076     3998.219     5011.285     5116.337     77.64193     155.4078     311.1563      1.270     2.71     825.1804     54.85726     672.6094        19     1.096     0.843  41.32   0
       617    557.8488    160.4806 307.6992277  +6.6318191     703.1176     1368.405     1449.689     78.01312     155.7173     311.2491      1.953     4.45     821.4125     54.85726     100.5089         6     0.997     0.566 -71.74   0
       618    100.0678    160.5267 307.8894191  +6.6165391     2148.105     2636.096     2815.364     78.13647     155.7792     311.1872      1.312     2.91     831.0836     54.85726     375.0897        14     1.089     0.746  49.84   0
       619    928.0135    160.2315 307.5454366  +6.6442090     526.0853     889.5227      855.743     77.64193     155.4078     311.1563      1.963     3.85     821.3994     54.85726     87.12024         5     0.836     0.510  62.26   0
       620    736.3052    158.5073 307.6251474  +6.6385633     657.8856     257.7665    -322.3315     78.01313     156.1496     311.2182      1.144     3.03      822.299     54.85726     128.0275         7     0.842     0.619  70.66   0
       621    661.7234    158.3129 307.6561417  +6.6361668     1014.227     1212.676     1091.961     78.01313     155.9645      311.311      1.266     5.12     822.2102     54.85726      159.028         9     1.199     0.617  38.25   0
       622    992.2321    154.7051 307.5189374  +6.6486174     1812.214     2763.327     2576.856     78.13647     155.5317     311.2801      1.651     5.44     821.2005     54.85726     291.0292        17     1.262     1.053  13.45   0
       623     37.9468    155.9805 307.9153796  +6.6163395     532.0335     865.4348     212.3925      77.5178     155.6555     311.0325      1.345     3.59     833.5477     54.85726     88.26208         5     0.980     0.380  31.06   0
       624    718.4320    155.0240 307.6326895  +6.6394080     705.0245     979.4014     762.3436     77.39347     155.4698     311.0015      1.492     4.07     822.1552     54.85726     119.1199         6     1.000     0.474  35.40   0
       625    659.2216    148.2404 307.6575167  +6.6402421     7291.358      9264.81     9337.634     77.64193     155.4698     311.0325      1.296     2.88     821.6909     54.85726     1384.398        25     1.242     0.836  47.35   0
       626    197.4589    149.6178 307.8493224  +6.6242955     6630.741     8691.771      9126.81     77.64193     155.5317     311.0015      1.385     3.00     829.3698     54.85726     1118.237        23     1.206     0.863  45.57   0
       627     80.0931    149.5561 307.8980852  +6.6204007     2611.338     3576.154     3431.349     78.01312     155.5936     311.3419      1.379     2.99     831.5978     54.85726     406.3376        18     1.237     0.775  48.74   0
       628    807.4375    148.0160 307.5959415  +6.6452551     1164.924     1477.122     1219.894     77.76585     155.4698     310.9705      1.345     3.63     821.7786     54.85726     205.0258        11     1.129     0.633  37.94   0
       629    611.4696    145.5191 307.6774478  +6.6397788     11507.06     14737.12     16046.73     78.25961     155.9028     311.2491      1.350     2.94     820.9675     54.85726     1952.436        28     1.228     0.888  47.84   0
       630    246.0825    146.1366 307.8292375  +6.6273555     863.2986     1052.621     846.4342     78.13647     155.6555     311.2182      1.283     3.90     828.9398     54.85726     161.0937         8     1.037     0.521  58.29   0
       631    549.6889    144.8365 307.7031396  +6.6380064     772.8236     929.9838     1132.603     78.01312     155.5936     311.2182      1.228     3.90      820.886     54.85726     128.6929         6     0.787     0.554  45.83   0
       632      9.9263    144.4777 307.9274063  +6.6201512     1117.967      1702.36     1947.866     78.25961     155.9028     311.2491      1.684     4.41     834.5501     54.85726     150.1837        13     1.192     0.740 -83.61   0
       633    338.5916    141.3499 307.7909627  +6.6324168     4332.389     6362.653     6313.459      77.5178     155.5317     310.9086      1.570     3.12     826.0839     54.85726     744.8411        27     1.269     1.158 -57.99   0
       634    614.9979    137.0591 307.6762638  +6.6433888     63841.06     82632.73     85333.01     77.39347     155.3459     310.9396      1.348     2.89     820.7019     54.85726     11130.24        57     1.316     0.975  47.60   0
       635    520.2461    140.5524 307.7155155  +6.6387956     2085.973     2435.554     2294.427     78.01313     155.5317     311.2491      1.200     2.82     820.8207     54.85726     425.7302        12     1.086     0.668  46.16   0
       636    984.9558    139.8304 307.5224545  +6.6545177     692.5442     1003.353     1304.372     77.64193     155.6555     311.0944      1.466     3.74     820.6296     54.85726     111.7744         5     0.825     0.488  62.19   0
       637    681.4768    138.2515 307.6486025  +6.6451054     524.8647     509.4275     684.0683     78.13647     155.7173     311.1872      1.275     4.50     821.3739     54.85726     102.3076         6     0.957     0.661  29.06   0
       638    294.0838    130.8720 307.8098048  +6.6352586     4246.897     5540.086     5522.062     78.13647     155.9645     311.2491      1.358     3.07     828.4734     54.85726       704.39        21     1.179     0.864  44.29   0
       639    489.5916    127.9728 307.7286717  +6.6429690     694.7977     1024.855     775.7829     77.64193     155.4698     311.0634      1.529     4.26     820.5663     54.85726     96.92053         7     0.773     0.669 -86.03   0
       640    693.9741    125.2419 307.6438432  +6.6508915     1040.231     1108.804     874.4412     77.64193     155.5936     311.0634      1.267     3.67     820.7422     54.85726     172.3678         9     0.929     0.623  63.74   0
       641    665.3468    124.2224 307.6557717  +6.6503615     1666.484     1913.802     1938.821      77.5178     155.6555     311.0325      1.235     3.06     820.6053     54.85726     277.1685        12     1.111     0.674  40.12   0
       642    679.4037    120.9695 307.6500395  +6.6521715     3699.508     4654.589      4730.96      77.5178     155.5317     311.0325      1.337     3.18     820.5217     54.85726     652.6516        19     1.203     0.790  48.14   0
       643    556.8333    120.7391 307.7009748  +6.6481926     492.5273     604.3071     593.4947     77.76585     155.7173     311.1563      1.223     3.64     820.0502     54.85726     93.83362         5     1.031     0.370 -87.31   0
       644      1.2126    115.7551 307.9319895  +6.6317174     849.4523     1887.168     3470.783     65.97484     121.8572      232.056      4.908     7.00     834.5083     54.85726     195.6207        15     1.875     0.957  87.68  27
       645      1.6757    110.4621 307.9319746  +6.6339180     792.4531     1893.924     3744.688     72.11175     128.6985     239.7306      3.702     7.51      834.366     54.85726     131.6595        12     2.022     0.781  38.13  27
       646    421.1811    112.1644 307.7576232  +6.6472178     5035.644     6628.621     6641.888      77.5178     155.4698     311.0015      1.349     2.86     821.6841     54.85726     896.1002        24     1.281     0.864  43.32   0
       647    875.8638    108.2486 307.5688323  +6.6639424      2466.14     3120.829     3211.111     77.88959     155.5317     311.2801      1.337     3.18     819.4644     54.85726      383.985        16     1.282     0.767  48.55   0
       648    893.6554    107.1990 307.5614746  +6.6649654     4484.071     6058.152     6321.594     77.39347     155.4078     310.8776      1.405     3.01     819.3877     54.85726     717.4665        21     1.205     0.870  48.77   0
       649    573.8723    107.9635 307.6943211  +6.6540337     885.3483      1165.65     1610.066     77.88959     155.6555     311.2491      1.280     4.13     819.6167     54.85726     145.6927         7     0.931     0.524  44.32   0
       650    585.8895    105.9205 307.6893961  +6.6552767     2163.046     2821.584     3134.774     77.76585     155.9028      311.311      1.371     3.60     819.5627     54.85726     326.5493        15     1.210     0.725  42.38   0
       651      1.5406    102.7583 307.9322890  +6.6370939     722.4674     1531.842     3498.317      70.2173     126.6621      237.511      5.713     6.86     834.2552     54.85726     120.4716        12     1.828     0.721 -86.77  27
       652    606.2284    105.7974 307.6809493  +6.6560038     535.2148     568.7295    -146.9512      77.5178     155.4078     311.0325      1.287     3.43     819.5878     54.85726     108.6494         5     0.990     0.344  49.09   0
       653    384.6599    104.0002 307.7730700  +6.6493717     2390.326     3194.571     2725.142     77.26894     155.4078     310.9086      1.332     3.06     824.0401     54.85726     394.1423        16     1.186     0.733  42.60   0
       654    231.7083    105.1739 307.8365799  +6.6437869     985.9843     1312.061     1511.644     78.13647     155.4078     311.0634      1.401     3.11     829.0662     54.85726      152.063         9     0.907     0.640  28.51   0
       655    132.3239    100.8988 307.8780149  +6.6422335     3866.339      5051.79     4725.414     77.64193     155.7792     311.1872      1.371     3.11      829.338     54.85726     591.5015        20     1.218     0.828  39.85   0
       656     14.2720     98.8458 307.9271307  +6.6391349     14526.71     19614.55     20904.24     77.88959     155.7173     311.2182      1.427     3.02     833.6024     54.85726     2289.726        37     1.353     0.990  49.07   8
       657    396.0907     98.8743 307.7684919  +6.6518688     467.2004      491.963     498.1272     78.01312      155.841     311.2491      1.172     4.43     823.1835     54.85726     108.6594         5     0.798     0.699  19.45   0
       658    553.8904     98.2831 307.7029464  +6.6573657     760.8635     1023.151     1194.759     77.76585     155.9028      311.311      1.198     2.67     819.2426     54.85726     130.9828         7     0.738     0.635  -4.45   0
       659    541.2729     98.0283 307.7081974  +6.6570512     979.9507     1208.403     1388.416     77.88959     155.6555     311.1563      1.353     3.08     819.2686     54.85726     177.1398         9     0.960     0.622  40.66   0
       660    935.4601     97.0588 307.5444410  +6.6705371     567.7823     657.2555    -341.8783     78.01312     155.5936     311.2491      1.399     4.95     818.9481     54.85726      105.374         6     0.968     0.717  36.93   0
       661    882.9432     94.1599 307.5663590  +6.6699937     658.1338     1004.742     1079.789     78.01312     155.7173     311.2491      1.499     4.02     818.9014     54.85726     136.1246         7     1.152     0.402  56.65   0
       662    761.1660     93.5257 307.6169804  +6.6662165     3870.948     4856.028     4769.373     77.88959     155.6555     311.1872      1.327     2.95     819.5117     54.85726     682.9076        17     1.196     0.761  39.43   0
       663    406.2523     94.0866 307.7644297  +6.6541839     1199.549     1761.936     1462.751     78.01312     155.5317     311.2801      1.490     3.08     822.4559     54.85726     239.7929        10     1.053     0.606  47.09   0
       664    816.0415     93.0570 307.5941944  +6.6682307     7216.352     9466.038     9994.727     77.88959     155.6555     311.2491      1.356     2.91     819.3523     54.85726     1236.309        22     1.202     0.840  46.42   0
       665     85.2400     93.9827 307.8978087  +6.6435154     600.8095      756.334     409.6048     77.64193     155.4698     311.0015      1.295     2.52     829.9975     54.85726     107.3279         5     0.767     0.480  30.47   0
       666    906.7880     92.7440 307.5564981  +6.6713685     654.8751     978.4573     793.2075     77.39347     155.5936     310.9086      1.371     3.16     818.8653     54.85726     101.1908         6     0.762     0.539  50.01   0
       667    748.2571     92.8318 307.6223673  +6.6660745     697.2377     1232.809     2401.816     77.88959     155.6555     311.1563      3.685     3.03     819.4948     54.85726     132.1303         7     0.860     0.558  60.58   0
       668    280.6379     99.3460 307.8164454  +6.6478254     1649.125      2218.93     2230.466     78.01313     155.7173     311.2182      1.417     3.20     828.9149     54.85726     273.4789        14     1.136     0.749  36.60   0
       669    523.4033     91.4619 307.7158413  +6.6591677     1356.212      1650.35     1540.676     77.39347     155.4698     310.9396      1.249     2.98     819.3867     54.85726     213.5622        13     1.057     0.793  42.18   0
       670     54.5620     90.7085 307.9106643  +6.6438416     3824.665     4918.756     5079.417     78.13647     155.5936     311.2491      1.412     3.14     831.2719     54.85726     552.4027        19     1.181     0.837  42.62   0
       671     38.8977     91.3089 307.9171522  +6.6430700     1054.047      1268.84     723.0197     78.01312     156.1496     311.1872      1.293     4.52     831.9874     54.85726     158.2285        10     1.149     0.590  46.72   0
       672    642.8046     90.6230 307.6662574  +6.6634842     720.1109     928.1271     674.4488     77.64193     155.4078     311.0634      1.215     3.50     819.2333     54.85726     117.3899         7     0.933     0.529  60.64   0
       673    415.8135     90.0290 307.7605925  +6.6561775     1090.824     1256.131     1157.927     77.64193     155.4698     311.1253      1.222     2.51     821.7953     54.85726     207.0321         8     0.790     0.680  63.31   0
       674    578.3248     87.1761 307.6931641  +6.6627638     1635.218     2129.917     2072.894     77.64193     155.4698     311.1563      1.306     3.07     819.1703     54.85726      298.049        13     1.117     0.733  53.08   0
       675    705.7344     83.8156 307.6403361  +6.6683851     663.6655     759.7535     615.6173      77.5178     155.5317     311.1253      1.311     4.30     819.2767     54.85726     111.2479         8     1.058     0.506  36.18   0
       676    755.7621     80.9920 307.6196429  +6.6712117     2223.969     2760.978     2606.503     77.26894     155.4078     310.9396      1.349     3.19      819.277     54.85726     338.0735        16     1.222     0.711  46.10   0
       677    396.5363     81.1265 307.7688995  +6.6592107     1246.405      1660.39     1409.784     78.13647     155.6555     311.2182      1.353     4.01     823.5481     54.85726     206.8591        10     1.132     0.642  52.08   0
       678     69.2649     81.7456 307.9048559  +6.6480333      937.239     1233.932     1635.897     78.01313     155.5936     311.1872      1.259     2.75     830.3331     54.85726     164.8743         8     0.886     0.588  81.18   0
       679    647.4240     81.5451 307.6646405  +6.6673855     563.9501      668.667     880.2063     77.64193     155.7173     311.0325      1.309     3.42     819.1546     54.85726     111.3193         5     1.065     0.317  22.18   0
       680     93.4587     80.1095 307.8948588  +6.6495175     1092.562     1460.469     1304.447     77.88959     155.6555     311.3419      1.461     3.33     829.3939     54.85726     160.6843        11     1.043     0.685  40.85   0
       681     82.2747     74.9135 307.8996796  +6.6512887     11192.38      14867.9     14921.62     78.13647     155.9645     311.2801      1.403     2.98      829.669     54.85726     1805.782        32     1.294     0.941  50.16   0
       682    232.7429     74.3493 307.8371812  +6.6565471     893.4952     1359.371     887.0243     78.01313     155.6555     311.2182      1.628     5.03     829.0933     54.85726     129.6567        10     1.325     0.680  85.73   0
       683    411.3927     74.5264 307.7629471  +6.6624305     3214.074     3968.949      3668.75     77.64193     155.2218     311.0944      1.282     2.77     822.6949     54.85726     582.2491        15     1.074     0.746  41.06   0
       684    249.0820     68.9403 307.8305734  +6.6593254     1798.702     2147.508     2625.891     78.13647     155.7173     311.2491      1.321     3.29     829.0718     54.85726     260.1563        12     1.045     0.736  56.93   0
       685    625.1251     66.7302 307.6743996  +6.6727608     22581.23      28834.7     30208.77     78.13647     155.7792     311.1872      1.335     2.87     818.9444     54.85726     3654.612        35     1.264     0.898  48.11   0
       686    680.5964     67.1166 307.6513375  +6.6744444     525.5511     645.3776     842.4774      77.5178     155.2839     310.9396      1.257     3.96     819.0975     54.85726     112.6949         6     1.027     0.437  76.15   0
       687    933.8082     66.1566 307.5461540  +6.6832405     613.5485     789.7778     1229.825      77.5178     155.4698     310.9705      1.442     4.89     818.1487     54.85726     108.0231         6     1.064     0.635  14.98   0
       688    524.8696     62.8859 307.7161853  +6.6710140     6452.279     8336.615     8155.783     78.13647     155.9028     311.2491      1.336     2.90     819.2589     54.85726     1026.441        23     1.185     0.859  44.51   0
       689    243.0916     63.2653 307.8332523  +6.6614684     2334.185     3224.549     3602.936     77.88959      155.841     311.2182      1.494     3.22     829.0913     54.85726     364.1309        20     1.218     0.932  37.00   0
       690    612.6736     60.5583 307.6797791  +6.6748950     1182.422     1761.856     2282.106      77.8896     155.7173     311.2491      1.582     3.96     818.8272     54.85726     232.9501         9     1.221     0.561  30.41   3
       691    611.3047     56.5623 307.6804810  +6.6764992     3852.774     4869.451     5472.104     78.13647     155.5317     311.3419      1.346     3.12      818.767     54.85726     676.1684        16     1.208     0.733  54.84   2
       692    430.4208     58.4965 307.7555761  +6.6696822     28163.31     36163.44     36525.93      77.8896     155.4698     311.0325      1.362     2.92     822.1652     54.85726     4985.938        42     1.295     0.946  46.27   0
       693    250.9816     59.0049 307.8301165  +6.6634905     11017.93     14834.79     15390.37     77.64193     155.2838     311.0325      1.393     2.99     829.0878     54.85726     1785.137        30     1.310     0.913  40.58   0
       694    310.8014     59.2630 307.8052528  +6.6653793     1190.606     1774.974     2192.165     77.39347     155.4698     311.0015      1.710     3.42     828.3831     54.85726      196.401        11     1.128     0.606  50.18   0
       695     16.3105     58.6075 307.9276329  +6.6558148     2779.928     3560.663       3521.5      77.5178     155.3459     310.9705      1.364     3.02     830.5966     54.85726     436.1253        16     1.123     0.805  47.13   0
       696    908.3046     58.3801 307.5570099  +6.6856061     2137.264     2588.405      2236.77     77.88959     155.4698     311.0325      1.352     3.28     818.1806     54.85726     320.8696        15     1.133     0.784  43.83   0
       697    515.7405     58.4164 307.7201276  +6.6725555     784.7421     1126.453     864.3923      77.5178     155.5936     310.9705      1.311     3.83      819.274     54.85726     145.6225         9     1.190     0.530  61.41   0
       698    496.7312     59.6424 307.7279853  +6.6714167     518.7977     393.2828     47.12217     77.88959     155.5936      311.311      1.040     4.39      819.364     54.85726     83.12451         5     1.152     0.477  -2.64   0
       699    543.1949     58.0451 307.7087324  +6.6736222     722.0937     893.5192     738.4283     77.39347     155.3459     310.9086      1.266     2.65     819.1697     54.85726     133.2738         6     0.738     0.548  52.40   0
       700    238.9877     55.6369 307.8352126  +6.6644807     3589.761     4671.817     4820.223      77.5178     155.4698     310.9396      1.390     3.05     829.1066     54.85726     531.0729        18     1.199     0.823  40.40   0
       701    291.9722     53.6036 307.8132656  +6.6670878     1197.333     1540.398      2289.48      77.5178     155.4078     311.0634      1.554     3.96     828.9724     54.85726     205.0566        12     1.213     0.627  45.84   0
       702    928.9304     48.4396 307.5487695  +6.6903936     1131.135     1660.281      2124.27     77.88959     155.6555     311.2801      1.457     2.98     817.7451     54.85726       199.89         9     1.018     0.638  43.36   0
       703    680.2045     47.8942 307.6521406  +6.6823674     2145.449     2779.304      2912.25     77.76585     155.3459     310.9705      1.354     3.08     818.9567     54.85726      363.253        17     1.156     0.886  58.83   0
       704     84.9806     48.5053 307.8994402  +6.6622814     703.8438     956.0017     280.5067     77.88959     155.4698     311.0325      1.247     3.53     828.9894     54.85726     100.8062         6     0.785     0.498   4.48   0
       705    191.3736     44.1002 307.8553822  +6.6676542     1006.896     1395.588     1363.162     78.01312     155.4078     311.1253      1.402     3.39     828.9716     54.85726     175.7286        11     1.024     0.775  33.82   0
       706    246.1005     43.2163 307.8326728  +6.6698458      950.124     1318.198     1719.144     78.01312     155.4078     311.0325      1.347     3.71     829.1212     54.85726      187.117         9     1.039     0.590  31.22   0
       707    168.4798     41.0689 307.8649959  +6.6681412     12996.63     17053.03     17701.92     78.25961     155.9028     311.1872      1.403     3.00     828.8514     54.85726     2131.574        31     1.260     0.929  44.54   0
       708    512.7057     39.0545 307.7220346  +6.6804480     3498.504      4473.51     4500.839     77.88959     155.6555     311.4347      1.351     2.92     819.1759     54.85726     561.4238        18     1.175     0.778  39.60   0
       709    914.0897     38.3858 307.5552704  +6.6940526     4509.391     6001.232     5976.678     77.76585     155.4698     311.0634      1.387     3.17     817.7073     54.85726     756.6908        20     1.172     0.842  46.66   0
       710    714.9426     37.0481 307.6380671  +6.6879990     2241.005     2636.467     2432.261     78.01313     155.6555     311.3419      1.278     2.94     818.6511     54.85726      402.464        16     1.148     0.743  43.92   0
       711    450.9355     37.5423 307.7477516  +6.6790161     2214.202     2652.555     2740.015     78.13647     155.5936     311.2491      1.322     3.29     821.2537     54.85726     338.0831        14     1.145     0.738  42.60   0
       712     69.5963     37.5776 307.9061984  +6.6662785     528.1532     633.6791     717.6365     77.64193     155.3459     311.0325      1.319     3.95     828.8008     54.85726     111.5605         5     0.991     0.619  59.49   0
       713    978.9135     34.7938 307.5284529  +6.6976828     2148.856     3090.633     3339.707      77.5178     155.3459     310.9705      1.492     3.05     816.6559     54.85726     324.0328        19     1.220     0.932  39.97   0
       714    773.8706     34.4351 307.6136677  +6.6910339     687.8676      1008.09     1038.243     77.88959     155.5936     311.2182      1.637     4.90     818.3978     54.85726     105.3707         8     1.239     0.660  40.45   0
       715    698.3065     31.2804 307.6451720  +6.6898277     8822.187     11558.07     11688.41     77.76586     155.9028     311.2801      1.349     2.91     818.6957     54.85726     1662.076        27     1.271     0.846  46.70   0
       716    618.4603     30.4745 307.6783773  +6.6875074     4625.027     5870.495     5472.811     78.25961     155.6555     311.1872      1.351     3.05     818.4674     54.85726      774.487        22     1.262     0.847  46.15   0
       717    320.3712     30.2188 307.8022475  +6.6776891     1074.923     1384.556     2182.927     77.64193     155.4698     311.1563      1.307     2.70     828.3354     54.85726     213.0366        12     1.008     0.736  34.12   0
       718    374.0983     28.8760 307.7799681  +6.6800344     881.5223     1298.122     1289.415     77.64193     155.7792     311.2182      1.519     3.07     826.3094     54.85726     170.4902         6     0.891     0.453  40.01   0
       719    418.6599     26.9056 307.7615179  +6.6823326     7588.042     9793.223     9823.002     77.88959     155.6555      311.311      1.329     2.94     823.8293     54.85726     1175.003        23     1.213     0.823  48.77   0
       720     19.5758     26.6736 307.9273469  +6.6691074      10073.7     13490.65     13847.71     77.64193     155.4698     311.1563      1.432     3.02     828.1959     54.85726     1508.687        30     1.330     0.912  42.97   0
       721    665.6417     25.5772 307.6589352  +6.6910972     1136.942     1450.182     1532.964     77.64193     155.4698     311.0015      1.279     3.13     818.7957     54.85726     201.8071         9     1.042     0.542  44.99   0
       722    494.2003     23.9560 307.7302278  +6.6860655     1112.224     1405.894     1336.723     77.26894     155.3459     310.8466      1.313     2.54     819.0628     54.85726     208.0037         9     0.870     0.650  72.83   0
       723    801.7700   1021.1817 307.5692738  +6.2845695     963.0072     1697.498     1617.385     77.64193     152.3413     270.4947      1.780     5.97     849.0076     54.85726     121.4739        11     1.357     0.738  28.34  16
       724    410.1160     22.6486 307.7652102  +6.6838054      1022.58      1425.79     1582.038     78.01312     155.6555     311.2491      1.368     3.46     824.5012     54.85726     170.1808         9     0.938     0.641  63.32   0
       725    271.1284     22.7796 307.8229571  +6.6791180     390.5481     195.0835    -150.2216     77.64193     155.5317     311.1872      0.908     3.30     829.1669     54.85726     103.9169         5     0.940     0.337  43.85   0
       726     88.6419     22.2811 307.8987976  +6.6732301     3038.054      3867.65     4159.854     78.01313     155.6555     311.1872      1.345     3.11     828.4185     54.85726     463.6326        15     1.139     0.775  42.18   0
       727     79.9194     21.0009 307.9024647  +6.6734670     1864.584     2411.928     2394.717     77.26894     155.0977     310.9705      1.362     3.11     828.3159     54.85726     342.8352        15     1.169     0.760  43.96   0
       728    381.4627     19.7974 307.7772114  +6.6840279      2830.93     3532.921      3752.34     77.39347     155.4698     310.9705      1.334     3.09     826.1205     54.85726     476.9789        15     1.048     0.794  47.76   0
       729    783.5995     20.1732 307.6100996  +6.6972448     926.5565     1163.756     1053.616     77.64193     155.3459     311.0325      1.269     2.39     818.1182     54.85726     199.3201         7     0.799     0.578  56.30   0
       730    449.3541     20.0002 307.7489944  +6.6862057     619.0319     468.2309     345.9818     77.26894     155.3459     310.7847      1.100     3.20     821.6182     54.85726     109.8533         6     0.788     0.650 -55.66   0
       731    976.3636     16.2077 307.5301297  +6.7052718     909.9594     1169.657     1447.636     77.39347     155.4698     310.9705      1.335     3.70     816.0021     54.85726     140.8827         8     0.919     0.640  63.10   0
       732    410.1944   1021.8705 307.7318311  +6.2712767     998.0209     1342.308     1172.322      77.5178     146.0152     261.2957      1.380     4.40     851.9144     54.85726     139.4648         8     0.794     0.721  49.53  16
       733    901.6858   1015.7775 307.5279675  +6.2901119     7757.133      13842.5     14697.13     78.01313     155.4698     311.0944      1.909     4.32     845.7203     54.85726     844.7119        46     1.630     1.360  50.55  16
       734     59.7022     16.0964 307.9110292  +6.6748158     762.2741     1002.972      1092.32     78.01312     156.2113     311.0634      1.365     4.24     827.9225     54.85726     119.4412         9     0.906     0.759  -0.43   0
       735    257.1880   1018.9938 307.7954525  +6.2673678     867.6267     1378.669     1197.437     77.64193     155.4698     295.3094      1.565     3.00     849.1757     54.85726     144.2554         6     0.869     0.470 -58.64  16
       736    875.2554   1011.9246 307.5390695  +6.2908270     10771.06     19164.98      20673.7     77.88959     155.5936     311.1872      1.914     4.14     845.9258     54.85726     1178.125        53     1.634     1.406  35.52   0
       737    996.8970   1011.3220 307.4885825  +6.2951037     3956.455     7619.692     7772.971     77.76585      155.841     311.2801      1.969     4.76      843.251     54.85726     414.7791        40     1.657     1.370  43.22   0
       738    587.9660   1012.3451 307.6583392  +6.2811213     1430.694     2115.115     2100.112     77.88959     155.6555     311.2182      1.593     3.54     850.5779     54.85726     192.1486        14     1.109     0.811  47.13   0
       739    418.8532     12.7730 307.7619095  +6.6881736     688.9028     571.6932      112.644     77.76585     155.7792     311.1563      1.199     4.06     824.3125     54.85726     126.3728         6     0.987     0.476  36.20   0
       740    519.6290   1011.0385 307.6867559  +6.2793893     4288.686     6650.891     7350.812      77.5178     155.3459     311.0944      1.719     3.69      852.064     54.85726     607.1064        33     1.712     1.090  17.87   0
       741    628.9495   1010.2322 307.6413932  +6.2833551     1508.198     2017.594     1871.103     77.88959     155.7173     311.1563      1.521     4.77     849.8361     54.85726      181.878        17     1.225     1.034  54.84   0
       742     53.8128   1009.9352 307.8801910  +6.2643213     796.3292     1360.054     1389.022      77.5178     155.4698     311.1253      1.767     4.49     847.7033     54.85726     97.58069         8     1.049     0.546  37.02   0
       743    472.6143   1007.5741 307.7063916  +6.2792561      2163.34     3360.147     3306.703     77.76586     155.4698     311.1563      1.666     3.77     851.8624     54.85726     295.1942        19     1.274     0.938  43.44   0
       744    906.9941    999.4177 307.5263063  +6.2970422     39090.43     68223.66     72355.56     77.64193     155.2839     311.0634      1.860     4.13     845.6569     54.85726     4358.015        74     1.683     1.396  45.09   0
       745    312.7221   1000.8774 307.7730006  +6.2766978     541.1342      653.506     671.4625     78.25961     155.9028     311.3419      1.492     5.91     850.2485     54.85726     78.06885         7     1.494     0.658  54.63   0
       746    214.2473    997.8398 307.8139872  +6.2746694     1673.117     2426.666     2066.931     77.88959     155.6555     311.0325      1.481     3.56     847.9294     54.85726     241.9674        16     1.157     0.933  51.86   0
       747    613.1979    995.7566 307.6484150  +6.2888083     889.8105      1554.04      1322.19     77.39347     155.2218     310.8776      1.796     5.02     849.7709     54.85726     155.5887        13     1.208     1.079  19.67   0
       748    101.7248    996.5213 307.8607481  +6.2714591      595.485     894.0301      666.874     78.25961     155.9028      311.311      1.511     3.48     846.9935     54.85726     101.6679         5     0.749     0.468  17.44   0
       749    804.8523    993.3076 307.5689198  +6.2961799     2197.998     3569.508     3399.275     77.88959     155.5317     311.4347      1.708     4.21     848.3748     54.85726     255.7799        22     1.333     1.064  44.01   0
       750    753.2160    991.2302 307.5904289  +6.2953251     6508.298     10847.37     11599.53     77.64193     155.4078     311.1563      1.797     3.89     849.4136     54.85726     750.8617        43     1.578     1.326  67.60   0
       751    539.8066    990.3690 307.6790667  +6.2885937     954.4224      1367.85     1362.001     77.39347     155.4078     311.0015      1.528     3.67     851.4648     54.85726     128.1927        11     1.042     0.712  47.97   0
       752    222.4150    990.3672 307.8108458  +6.2780269     1578.202     2204.051     1974.544     77.64193     155.4078     311.1253      1.524     3.67     847.9413     54.85726     223.6521        15     1.116     0.946  54.74   0
