#   1 NUMBER                 Running object number                                     
#   2 X_IMAGE                Object position along x                                    [pixel]
#   3 Y_IMAGE                Object position along y                                    [pixel]
#   4 ALPHA_J2000            Right ascension of barycenter (J2000)                      [deg]
#   5 DELTA_J2000            Declination of barycenter (J2000)                          [deg]
#   6 FLUX_APER              Flux vector within fixed circular aperture(s)              [count]
#   9 FLUXERR_APER           RMS error vector for aperture flux(es)                     [count]
#  12 FLUX_RADIUS            Fraction-of-light radii                                    [pixel]
#  13 FWHM_IMAGE             FWHM assuming a gaussian core                              [pixel]
#  14 BACKGROUND             Background at centroid position                            [count]
#  15 THRESHOLD              Detection threshold above background                       [count]
#  16 FLUX_MAX               Peak flux above background                                 [count]
#  17 ISOAREA_IMAGE          Isophotal area above Analysis threshold                    [pixel**2]
#  18 A_IMAGE                Profile RMS along major axis                               [pixel]
#  19 B_IMAGE                Profile RMS along minor axis                               [pixel]
#  20 THETA_IMAGE            Position angle (CCW/x)                                     [deg]
#  21 FLAGS                  Extraction flags                                          
         1    255.8788     46.6492 307.8303393  +6.6637216     6570.102     13679.49     15881.57     78.06242     155.8158     311.4149      2.217     5.83     825.6149     54.89193     869.3647        49     1.946     1.259  63.15   0
         2    703.1249     19.2636 307.6454642  +6.6900814     5245.708     10590.18     11742.32     78.30907     155.7539     311.3839      2.132     6.27     814.8757     54.89193     816.6914        41     1.831     1.196  58.76   0
         3    623.5767     18.5106 307.6785375  +6.6877199     2699.632     5487.911     5844.161     78.06242      155.568      311.291      2.099     6.55     814.8073     54.89193     426.1384        36     1.915     1.130  60.33   0
         4    423.6490     14.6741 307.7617245  +6.6825773     4638.407     9660.755     10679.63     78.06242     155.8158     311.4458      2.192     5.47     817.5744     54.89193     676.9674        45     1.899     1.294  59.39   0
         5    671.2203     14.5601 307.6588773  +6.6909517      652.902     1171.077     930.7443     77.69099      155.568     311.1671      1.930     3.99     814.7513     54.89193      129.558         6     1.121     0.480 -73.15   2
         6    320.2029      9.6071 307.8048704  +6.6811833     9251.135     19122.93     21369.88     77.44238      155.444       311.26      2.164     5.99     824.9958     54.89193     1291.552        55     1.921     1.313  61.14  16
         7     24.5597     14.1691 307.9275309  +6.6693172     6039.439     12565.76     13745.13     77.56679      155.568       311.26      2.156     5.76      824.162     54.89193     865.0208        49     1.933     1.268  64.09   0
         8     93.7365      9.9509 307.8989373  +6.6733971     1862.841     3828.516     4214.756     77.93881     155.6919     311.4767      2.140     6.11     825.2443     54.89193     255.0547        28     1.797     1.123  64.42  16
         9     85.3284      9.1717 307.9024565  +6.6734346     1195.977     2239.889     2806.789       77.815     155.7539     311.3529      2.104     6.36     825.0212     54.89193     183.9554        20     1.781     0.937  59.09  16
        10    789.3937      9.2018 307.6099624  +6.6971312      535.272     721.0963     905.3012     77.44238      155.444      311.229      1.299     3.06     813.2361     54.89193     94.88593         5     0.735     0.445  69.94   1
        11    386.3598      7.4979 307.7774580  +6.6842838     1685.591     3545.517     3585.058     78.06242       155.63     307.4889      2.088     5.87     820.9185     54.89193     233.6279        26     1.635     1.138  57.74  16
        12    647.2097      3.3808 307.6692291  +6.6947603     8035.328     15129.11      15752.1     77.69099     148.7237     264.8318      1.956     5.54     814.3444     54.89193     1133.884        41     1.686     1.245  55.14  24
        13    812.1176      3.3161 307.6007196  +6.7003234     1208.507     2423.552     2761.519       77.815     148.6589     264.1757      1.974     5.42     812.6154     54.89193     187.0848        19     1.747     0.819  54.44  24
        14    525.0412      3.1650 307.7199908  +6.6907418     1017.286       1925.4     1888.203       77.815     146.8972      261.903      1.924     6.48     814.8217     54.89193     157.9639        15     1.540     0.922  64.18  24
        15    882.9405      1.8251 307.5713457  +6.7033138     1080.906     1447.154     1445.207     73.35008     131.1538     242.1624      1.358     3.59      812.189     54.89193     181.3408        11     1.071     0.835  -7.87  24
        16    639.3434      1.2494 307.6725689  +6.6953759     1608.473      2204.21     2307.576     66.88712     122.6439     233.1143      1.104     2.24     814.2602     54.89193     524.4001        12     1.315     0.507   2.99  25
        17    247.6814      1.6045 307.8352683  +6.6820411     3610.898      4476.18     4639.833     71.08028     127.5762     238.6328      1.198     2.52     825.3393     54.89193     719.9783        17     1.286     0.695   0.92  24
        18    409.1540      1.1977 307.7682013  +6.6876527     1624.991     2196.798     2460.788     65.72378     121.4589     231.8286      1.041     2.34     818.3841     54.89193     531.8693        10     1.154     0.387  -5.06  24
        19    617.8719    984.6521 307.6483712  +6.2886513     749.4467     1270.927     1177.964     77.93881     155.7539     311.4458      1.786     4.71     847.1483     54.89193     112.5089         8     0.912     0.690   8.57   0
        20    950.6558   1023.1515 307.5089316  +6.2839150     2746.836      4123.12     3958.154     73.87402     131.4476     242.7589      1.587     4.72     843.3062     54.89193     374.3627        20     1.531     0.842   6.10  24
        21    726.5676   1022.8818 307.6019639  +6.2765164     712.7564     1354.948     1394.085     76.06049     134.7795     246.6988      1.997     6.58     848.4089     54.89193     112.7414         8     1.719     0.706  50.67  24
        22    710.8401   1022.3506 307.6085105  +6.2762080     1834.579     3223.185     3660.716     78.06242     141.5488     254.6985      1.923     6.42     848.2286     54.89193     226.9136        24     1.581     1.037  49.09  24
        23    433.6272   1023.1491 307.7235565  +6.2665640     634.3536      906.015     618.2487     73.61252     131.5209     242.5205      1.585     5.97     848.2861     54.89193     102.4019         7     1.177     0.851  11.44  24
        24    357.7960   1020.6355 307.7551186  +6.2650494     1397.616     2888.194       3357.4     77.19297     155.3199     277.5253      2.243     7.46     848.5125     54.89193     203.0377        22     1.818     0.961  74.54  24
        25    236.7107   1023.6378 307.8052786  +6.2597306     352.5698     806.6055     862.9726     68.31345     124.3614     234.6808      1.996     3.47     847.9073     54.89193     79.76672         4     0.938     0.371 -18.06  26
        26    809.1187    980.9745 307.5691032  +6.2965869     1611.441     3286.737     3530.221       77.815      155.568     311.4148      2.095     5.43     844.5209     54.89193     247.2112        27     1.732     1.075  64.44   0
        27    757.3229    978.9544 307.5906730  +6.2956841     4833.868     9965.835     11828.05     77.93881     155.8158     311.4149      2.249     5.40     845.9672     54.89193     624.2478        49     1.918     1.331  62.64   0
        28    226.5703    977.9539 307.8110310  +6.2782492     1111.338     2384.918     2977.299     77.56679     155.8776      311.291      2.235     7.13     847.3345     54.89193     145.7825        19     1.785     0.798  66.56   0
        29    545.3890    979.6022 307.6786304  +6.2883008     596.9662     776.2645     712.8444     77.69099      155.444      311.229      1.195     4.69     847.7807     54.89193     126.4843         7     1.294     0.483  -3.85   0
        30    945.5139    974.1899 307.5127083  +6.3039574     4838.814     9983.278     11243.36     77.69099      155.444       311.26      2.195     5.32     841.7253     54.89193      630.951        46     1.931     1.297  61.04   0
        31    192.1396    978.5626 307.8253025  +6.2768369     559.8154     963.6318     1047.909     78.06242     155.8158     311.4149      1.468     2.77     846.8136     54.89193     98.03156         5     0.723     0.459 -19.73   0
        32     51.6312    975.9022 307.8837166  +6.2731932      1969.97     4251.241     4836.181     78.06242      155.568     311.5077      2.157     5.97     843.6692     54.89193     298.6592        31     1.796     1.143  56.37   0
        33    919.4561    966.0077 307.5238005  +6.3064631     1478.104     3071.556     2053.788     77.44238       155.63     311.1671      2.206     6.11     842.2773     54.89193     209.9424        26     1.887     1.081  72.27   0
        34    779.0338    962.4690 307.5822141  +6.3032184      1049.06     1889.951     3181.336     77.93881     155.7539     311.4767      2.822     6.20     844.7457     54.89193     159.1258        14     1.412     0.987  86.55   0
        35    639.9852    961.5525 307.6399687  +6.2989307     3355.788     6808.832     7238.506     77.44238       155.63     311.1671      2.105     5.55     846.7197     54.89193     482.3669        36     1.769     1.175  59.85   0
        36    252.0822    961.8903 307.8009834  +6.2857410     3170.999     6494.603     7219.626       77.815     156.0013     311.5077      2.126     5.99     847.2323     54.89193     470.4194        33     1.822     1.089  60.03   0
        37    989.9242    961.9210 307.4946831  +6.3105093     620.7191     1103.338      1608.49     78.30907     156.0013     311.5077      2.008     4.74     839.8711     54.89193     93.58514         7     1.187     0.537 -83.75   0
        38     20.8604    959.4973 307.8970444  +6.2789265     1650.118     3183.294     3433.063       77.815     155.7539     311.5077      1.960     6.08     842.6674     54.89193     237.5421        24     1.761     0.995  71.38   0
        39    462.5799    960.2543 307.7136579  +6.2935044     758.7115     1316.171     444.2836     77.56679     155.7539      311.229      1.700     6.40      848.058     54.89193     108.9627        11     1.566     0.734  87.63   0
        40    872.0966    958.5928 307.5437102  +6.3079381     689.1344     1403.788     1373.271       77.815      155.382      311.198      2.263     6.30     843.4684     54.89193     92.26971         9     1.457     0.766  56.04   0
        41    564.9082    954.3271 307.6713785  +6.2993918     1285.397      2504.72     2747.476     77.93881     155.8776     311.4458      1.985     6.79       847.07     54.89193       202.72        20     1.753     0.945  68.49   0
        42    995.9706    953.5873 307.4924524  +6.3141524     723.5692     1618.936     1684.855     77.56679      155.506     311.3219      2.396     6.94     839.5718     54.89193     103.8694        11     1.280     1.055  75.41   0
        43    604.0848    950.5652 307.6552418  +6.3022612     989.7527     1846.263     1963.376     78.06242       155.63     311.3839      1.927     5.11     846.8371     54.89193     157.2443        12     1.523     0.815  57.56   0
        44     54.4530    951.3508 307.8833761  +6.2834244     656.2165      1284.25     2047.624     78.18584       155.63     311.4149      2.631     7.01     843.5665     54.89193     84.70947        10     1.357     1.015 -85.13   0
        45    284.2127    949.3405 307.7880695  +6.2920050     1072.482     2114.868     3238.891     77.44238     155.6919     311.1051      3.050     3.27     847.3096     54.89193     153.8679        12     1.084     0.697  81.08   2
        46    624.1731    946.5991 307.6470359  +6.3045734     2845.344     3185.392     2698.647     77.69099      155.444      311.229      0.832     3.22     846.6266     54.89193      904.615         6     0.746     0.404  26.29   0
        47    750.2548    944.3199 307.5947712  +6.3097463     635.6502     1356.836     1251.744     78.06242     155.7539     311.4458      2.012     6.17      844.845     54.89193     82.05371         9     1.433     0.746  51.74   0
        48    888.1782    940.9343 307.5376267  +6.3157674     5072.717     10611.46     11265.31     77.69099     155.7539     311.3529      2.131     5.56     842.4105     54.89193     665.7731        44     1.893     1.248  59.53   0
        49    424.5878    938.8112 307.7301522  +6.3010790     1705.826     2419.853     2539.306       77.815      155.568     311.3839      1.537     6.90     847.9034     54.89193     231.9641        19     1.740     0.932 -89.58   2
        50    422.3206    936.3348 307.7311769  +6.3020251     846.8159     1206.317     866.4352     78.30907     155.8158     311.3839      1.201     4.44     847.8903     54.89193     127.3197         7     0.986     0.594 -55.74   3
        51    325.7233    936.3939 307.7712748  +6.2987485     6915.944     14384.32     15614.07     77.69099     155.2578       311.26      2.128     5.56     847.6492     54.89193     1001.681        51     1.879     1.330  61.20   0
        52    245.7446    935.3205 307.8045116  +6.2964966     5232.149     10621.93     11515.49     78.18584     155.7539     311.4458      2.102     5.69     846.9172     54.89193     677.0082        42     1.919     1.161  61.95   0
        53    574.0609    930.1928 307.6683915  +6.3096634     962.3704     1655.644     1966.212     77.44238      155.568      311.198      1.875     5.49     846.6041     54.89193      135.994        15     1.427     0.842  68.13   0
        54    904.0438    927.0829 307.5315049  +6.3220176     739.6205     1341.737     1633.896     78.06242     155.7539     311.3839      1.962     4.41     841.3041     54.89193      110.679         6     1.028     0.538  79.93   0
        55    860.5370    925.2812 307.5496274  +6.3213039      661.313     1005.095     1091.305     78.18584     155.8158     311.4458      1.796     4.74     842.9355     54.89193     101.8763         6     0.943     0.675  10.89   0
        56    971.6398    922.4498 307.5035974  +6.3261937     663.0479     1215.132     1660.994     78.06242     155.7539     311.3529      2.049     5.91       839.45     54.89193     82.84766         9     1.270     0.775  33.98   0
        57    740.1746    919.0882 307.5998040  +6.3198253     1224.211     2493.544      3089.11     78.18584      155.568       311.26      2.199     7.13     844.2293     54.89193     162.6074        18     1.663     0.872  55.64   0
        58    604.3126    916.8339 307.6562825  +6.3161951     516.4418     718.2761     533.5759     78.06242       155.63     311.4149      1.645     4.21     846.2203     54.89193     70.50836         6     0.759     0.665  23.02   0
        59    971.5344    914.9748 307.5038919  +6.3292764     906.4725     1986.997     2421.748     77.69099     155.7539      311.291      2.348     7.16      839.306     54.89193     125.5753        15     1.416     1.014  67.16   0
        60    525.6420    915.1757 307.6889978  +6.3142360     938.3638     1839.064       1966.8     77.69099       155.63      311.198      2.175     6.26     846.8322     54.89193     168.3187        12     1.557     0.706  53.50   0
        61    658.8531    912.4766 307.6337869  +6.3198257     1919.798     3641.415     3959.401     78.18584     155.7539     311.4149      2.050     5.97     845.2803     54.89193     309.9656        26     1.815     0.944  57.17   0
        62    199.0345    907.4796 307.8248425  +6.3064157     1642.857     3168.921      3264.46     77.93881     155.8158     311.4458      1.995     5.80      846.244     54.89193     231.3978        28     1.881     1.030  68.53   0
        63     55.2788    908.3773 307.8844875  +6.3011935     2174.065     4454.938     5127.163     77.69099      155.444     311.3839      2.097     5.51     843.3937     54.89193      295.978        30     1.640     1.205  65.44   0
        64    937.2552    908.4708 307.5183414  +6.3308141     770.1469     1238.676     1228.441     77.93881     155.6919     311.3839      1.832     5.69     839.9002     54.89193     112.4647        10     1.246     0.731 -81.70   0
        65    820.5371    909.1248 307.5667761  +6.3266338     660.7963     1154.495     1287.917     78.30907     155.7539     311.3839      2.122     3.96      842.938     54.89193     103.1915         5     0.900     0.498  89.11   0
        66     72.7377    907.6956 307.8772632  +6.3020645     1498.565     3056.399      3365.92       77.815     155.8158     311.4767      2.226     7.69     843.7296     54.89193     211.7421        19     1.676     1.017  61.32   0
        67    653.5370    901.5831 307.6363603  +6.3241447      5119.84     10096.88     10984.32     77.56679     155.6919       311.26      2.077     5.31     844.9856     54.89193     799.7332        43     1.840     1.225  59.95   0
        68     13.5463    900.1699 307.9020889  +6.3031721     1040.568     1734.215     2113.496       77.815     155.8158     311.3219      2.203     4.77     842.6201     54.89193     179.6289        14     1.267     0.886  69.11   0
        69    891.2568    897.8755 307.5377938  +6.3336480     2084.862     4185.504     4684.172     78.06242     155.6919     311.3529      2.176     5.22     841.1399     54.89193     283.0753        32     1.862     1.152  58.88   0
        70     26.7327    899.0357 307.8966535  +6.3040858     814.7822     1320.816     1439.416     77.93881     155.8776     311.5077      1.916     4.89     842.8591     54.89193      147.871         9     1.137     0.955  -4.45   0
        71    336.4624    894.6564 307.7682252  +6.3163416     12154.81     24499.28     27579.85     78.18584     155.6919     311.4458      2.143     6.06     847.0255     54.89193     1985.132        64     1.930     1.395  59.59   0
        72     70.8906    895.4744 307.8784434  +6.3070475     1049.441      2140.59     2551.494     78.06242     155.9395     311.4458      2.332     6.70     843.6626     54.89193     149.2087        17     1.450     1.036  59.81   0
        73    387.6286    895.1826 307.7469665  +6.3178473     510.6977     846.5603      865.619     77.69099      155.568     311.3529      1.630     3.39      847.053     54.89193     88.55231         5     0.745     0.446 -71.80   0
        74    207.9150    894.8185 307.8215838  +6.3119423     1018.613     1709.568     1549.269     77.69099      155.506     311.3529      1.801     4.04     846.3836     54.89193     159.6907        11     1.026     0.766 -50.97   0
        75    414.3483    885.2172 307.7362102  +6.3228609     753.2558     1672.269     1179.058     77.56679     155.8158      311.136      1.801     6.78     846.8252     54.89193     125.6175        14     1.996     0.646  61.54   0
        76    100.0338    885.2073 307.8666929  +6.3122702     1229.311     2334.866      2435.51     77.56679      155.568      311.229      2.024     6.11     844.1842     54.89193     213.6499        17     1.624     0.921  74.29   0
        77    667.7905    882.1708 307.6310960  +6.3326379     705.5593     1463.663     2427.736     77.56679      155.568       311.26      3.225     6.59      843.998     54.89193     133.2283        13     1.605     0.942  44.75   0
        78    495.8077    882.9904 307.7024677  +6.3265207     537.6531     755.4815     1521.767     77.56679      155.568     311.3219      1.410     3.67     846.6951     54.89193     85.30933         5     0.802     0.498 -29.16   0
        79    881.6542    879.6981 307.5423906  +6.3408312     1400.303     2682.865     3183.717     77.93881     155.7539     311.6315      2.313     6.01      840.895     54.89193     209.7762        22     1.802     1.022  68.83   0
        80    852.1012    878.8232 307.5546894  +6.3402021     1409.962     3071.433     3164.819     78.18584      155.506      311.229      2.187     7.87     841.5885     54.89193      198.564        24     1.791     0.968  59.82   0
        81     82.7005    877.9047 307.8741354  +6.3146998     1592.295     4580.941     5080.398     78.06242     156.2483       311.26      2.522     8.83     843.8401     54.89193     1028.264        26     2.408     0.904  59.05   0
        82    815.6301    878.5756 307.5698394  +6.3390819     2210.035     4411.373     4647.574     77.56679       155.63      311.229      1.986     5.50     842.5435     54.89193     315.6887        29     1.703     1.104  57.11   0
        83    551.5872    869.8895 307.6797520  +6.3338049     249388.4     496101.4     542311.4       77.815      155.506      311.291      2.103     5.59     846.1846     54.89193     40181.23       180     2.044     1.541  61.98   0
        84    395.7907    872.4593 307.7443445  +6.3275034      5574.51     11253.79     12087.25     77.44238       155.63      311.136      2.093     6.02     846.5087     54.89193     812.5643        46     1.877     1.238  62.27   0
        85    639.2369    872.7697 307.6432666  +6.3355605     973.2228     2075.824     1695.091     77.69099      155.506       311.26      2.041     7.07     844.1924     54.89193     126.6434        15     1.418     0.987  52.36   0
        86    338.9175    870.8179 307.7680106  +6.3262660      8883.28     18511.27     20772.89     77.69099      155.444     311.3839      2.170     5.72     846.5329     54.89193     1312.639        53     1.895     1.323  60.69   0
        87    657.3140    867.1783 307.6359498  +6.3384760     2503.771     4993.679     5651.119     78.06242      155.506      311.291      2.075     5.61     843.6347     54.89193       413.71        32     1.758     1.104  59.63   0
        88    889.8102    865.9784 307.5394650  +6.3467688     3596.395     7848.098      9491.83     77.69099      155.506       311.26      2.286     5.57      840.359     54.89193      502.623        44     1.909     1.372  57.59   0
        89    821.0477    860.6204 307.5681932  +6.3466766     1246.847     2468.666      2522.48     77.69099     155.7539      311.229      2.058     7.09     842.0555     54.89193     180.2147        23     1.861     0.927  72.45   0
        90   1022.7841    860.0427 307.4844564  +6.3536711     3110.358     5678.563     6144.653     76.56588     136.0611     248.1018      1.949     7.00     836.4325     54.89193       466.63        32     1.893     1.013  70.77  24
        91    632.3712    861.2466 307.6465047  +6.3400873     2594.228     5376.921     6199.732     77.69099     155.8158     311.3219      2.203     5.39     843.9554     54.89193     379.3812        36     1.856     1.152  60.91   0
        92    947.4916    860.0382 307.5157164  +6.3511530     634.5918     1357.088     1969.483     78.18584     155.6919     311.4458      2.164     4.27     839.0112     54.89193     112.5435         6     1.294     0.401  75.94   0
        93    623.5490    861.1942 307.6501691  +6.3398127     683.4927     1298.881      1981.52     77.56679      155.568     311.0741      2.203     2.80     844.1004     54.89193     112.8347         5     0.717     0.470 -72.36   3
        94    625.1798    855.6125 307.6496799  +6.3421719     1605.529     3424.673     4098.225       77.815      155.444     311.3219      2.342     6.69     843.9624     54.89193     247.8945        28     1.741     1.157  71.00   2
        95    908.9156    854.0860 307.5319320  +6.3523187     2411.264     4958.813     5008.864       77.815     155.9395     311.4458      2.097     6.24     839.8474     54.89193     301.1146        30     1.859     1.038  63.71   0
        96    318.5858    854.5077 307.7770017  +6.3323148      723.486     1318.938      1439.37       77.815      155.506      311.198      2.074     7.00     846.4207     54.89193      107.454        10     1.480     0.927  44.51   0
        97    366.8967    849.8661 307.7571021  +6.3358582     1944.296     3981.675     4675.619     78.06242     155.8158     311.4458      2.117     5.91     846.1624     54.89193     307.4662        28     1.771     1.091  62.42   0
        98    503.1275    839.6442 307.7008894  +6.3446626     2348.717     4468.938      4586.14     77.93881     155.8158     311.4458      1.981     5.96     845.1954     54.89193     320.5365        26     1.646     1.038  61.65   0
        99    848.0295    838.9621 307.5577184  +6.3565229     740.8792     1299.241      1754.11     77.69099      155.506      311.291      1.991     4.50     840.7565     54.89193      128.951         9     1.294     0.516  73.93   0
       100    550.1410    835.6725 307.6815048  +6.3478830     4584.164     9025.463     10891.63     78.18584     155.7539     311.3839      2.279     5.72     844.6404     54.89193     668.4591        42     1.755     1.525  50.05   0
       101    885.5962    833.9213 307.5422907  +6.3598629       952.77       2051.2     2414.257     77.69099     155.2578      311.229      2.322     7.78     839.8953     54.89193     173.2785        18     1.900     0.921  54.82   0
       102    262.3106    837.1199 307.8009514  +6.3375970     600.8024     830.0192     758.1892       77.815     155.9395     311.5077      1.425     3.36     846.0441     54.89193     101.4546         5     0.777     0.421  72.90   0
       103    467.8954    834.8840 307.7156770  +6.3454429     1349.442     2588.984     2546.251     77.93881     156.1248     311.5077      2.022     5.80     845.2587     54.89193     188.2809        17     1.487     0.879  74.10   0
       104    109.3325    833.6774 307.8645758  +6.3338579     1023.379     2409.132     2507.165     78.18584     155.8158     311.3839      2.274     8.04     843.7624     54.89193     165.4365        22     1.894     1.070  70.61   0
       105    520.7095    829.5621 307.6939297  +6.3494163     14811.08     29282.27     31382.79     78.18584     155.6919     311.4458      2.078     5.68     844.5837     54.89193     2232.096        63     1.884     1.372  59.44   0
       106    934.2747    828.0848 307.5222759  +6.3639030     2851.205     5750.231     6473.333     78.18584     156.0631     311.4458      2.139     5.25     838.9035     54.89193     393.4391        34     1.740     1.171  62.72   0
       107    406.3073    825.2256 307.7415717  +6.3473580     530.4644     589.2642     317.4417     78.18584      155.506       311.26      1.490     5.58     845.6852     54.89193     85.31415         7     1.552     0.566  72.60   0
       108     31.0121    819.7012 307.8975626  +6.3369829     1042.385     2149.448     2367.004       77.815      155.506     311.1671      2.033     7.67     842.2894     54.89193     136.6292        18     1.634     1.006  70.75   0
       109    313.4475    818.1870 307.7803610  +6.3471367     2574.858     4931.597     5541.116     77.44238       155.63     311.1671      2.057     5.32     845.9881     54.89193     405.6883        30     1.727     1.076  66.25   0
       110    778.8849    814.1541 307.5872596  +6.3644471     40701.96     80670.76     87992.48     78.06242     155.6919     311.4148      2.079     5.46     841.6987     54.89193     5584.117        85     1.936     1.422  60.68   0
       111     13.1327    816.4042 307.9050967  +6.3377399     1772.334     3482.864     3570.185     77.44238      155.444      311.198      2.075     6.91     841.9777     54.89193     208.7364        25     1.829     0.953  57.54   0
       112    235.5584    790.3071 307.8136392  +6.3560217       782158      2156380      2492664     78.18584     155.6919     311.5077      2.599     6.80      844.458     54.89193     63542.79       647     2.837     2.136  75.62   4
       113    422.4735    813.8279 307.7352445  +6.3526077     701.6271     1200.777     1630.253     77.93881     155.6919     311.3529      1.975     5.34     845.3351     54.89193     93.87799         8     1.050     0.766 -65.47   0
       114    904.0720    809.4574 307.5354409  +6.3705821      6438.77     12914.67     13651.19     78.18584     155.7539     311.4149      2.085     5.45     839.1953     54.89193     832.0734        46     1.899     1.249  56.63   3
       115    901.0388    800.9040 307.5369873  +6.3740119     4977.572     10089.78     10927.56     78.06242       155.63     311.5387      2.122     5.33     839.1141     54.89193     687.5057        45     1.866     1.268  61.52   3
       116    707.0588    809.1760 307.6172480  +6.3640927     16571.35     33443.26     37126.45     77.69099     155.7539      311.291      2.124     6.28     842.6972     54.89193     2454.908        47     1.953     1.244  67.20   3
       117    700.7544    805.2372 307.6199980  +6.3655073     65731.01     131537.4     145782.2       77.815     155.7539     311.3219      2.125     5.50      842.663     54.89193     8968.215       106     2.078     1.465  58.64   3
       118    345.6826    806.0928 307.7673865  +6.3532157     15097.79     30534.12     33329.01       77.815     156.0631     311.5387      2.092     5.50     845.8054     54.89193     2235.694        67     1.921     1.404  59.89   0
       119    394.8458    806.6098 307.7469581  +6.3546577     1104.844     1972.854     2394.144     77.56679       155.63     311.1051      1.988     6.32     845.4741     54.89193     138.7532        19     1.599     1.040  74.35   0
       120    407.5405    803.8953 307.7417792  +6.3562058     16308.51     32762.56     35733.13     77.93881     155.7539     311.5077      2.089     5.80     845.3203     54.89193      2587.04        62     1.895     1.374  59.65   0
       121    944.7406    803.0126 307.5187717  +6.3746049     1558.287     3204.832     3708.603     77.44238     155.6919      311.136      2.217     6.10     838.0054     54.89193     236.0967        24     1.733     0.997  63.33   0
       122    874.4229    802.7717 307.5479754  +6.3723491     505.6657     690.3683     876.5721     77.56679      155.568       311.26      1.470     3.48     839.5888     54.89193     79.16748         5     0.748     0.468 -74.22   0
       123    641.5952    799.8660 307.6447408  +6.3657387     4578.996     9236.519     10038.34     77.56679      155.444      311.229      2.107     5.94     842.6049     54.89193       740.99        41     1.872     1.221  61.58   0
       124    431.2483    798.3256 307.7321242  +6.3593032     1205.603     2099.326     2076.693     77.93881     155.8158     311.4458      1.825     5.26     844.7402     54.89193     213.0917        14     1.406     0.871 -75.85   3
       125    428.7300    796.0533 307.7332464  +6.3601566     857.7375     1171.314     1185.105     77.93881       155.63     311.3529      1.586     4.89     844.6975     54.89193     129.6198         8     1.053     0.643  52.13   3
       126    595.0958    792.3962 307.6642980  +6.3672607     775.7532     1430.898     2174.047       77.815      155.444     311.1051      1.957     5.16     842.4237     54.89193     108.4956         9     1.479     0.509  70.52   0
       127    869.9995    792.7331 307.5501491  +6.3763455     655.7269     1045.411     1686.985     77.31777     155.2578     311.1671      1.618     3.86     839.4608     54.89193     102.1288         5     0.833     0.514 -55.73   0
       128   1023.7756    791.4914 307.4863428  +6.3820069     426.2066     536.6241     1108.576     66.74281     122.0133     232.6589      1.934     3.84     834.3985     54.89193     81.99487         5     1.051     0.401  83.24  24
       129    676.7918    789.8593 307.6304642  +6.3710519     1882.806     3787.936     3955.633     77.44238       155.63     311.1671      2.058     5.15     842.2004     54.89193     300.3604        26     1.717     0.969  62.59   0
       130    146.1626    792.3739 307.8506828  +6.3521529     525.2395     961.5894     920.7545     77.69099      155.568      311.229      1.701     4.29     843.4847     54.89193     98.03577         7     1.234     0.424  33.97   3
       131    145.3802    789.2191 307.8511143  +6.3534289     547.5701     835.7271     976.6953       77.815     155.6919     311.3529      1.904     4.92     843.3687     54.89193     82.42297         6     1.213     0.565  43.72   3
       132    121.4013    791.4003 307.8609955  +6.3517191      654.035     1161.858     1556.489     77.44238     155.3199     311.1051      2.415     5.55     843.0764     54.89193     142.9368         9     1.368     1.031 -62.85   2
       133    119.3617    788.0372 307.8619561  +6.3530387     462.3067     751.4212     682.1793       77.815       155.63      311.291      1.472     4.75     842.9673     54.89193     85.16241         5     1.313     0.488  87.46   2
       134    410.5005    786.6011 307.7411336  +6.3634453     39608.48     79381.28     86797.14     77.56679      155.382      311.136      2.113     5.80     844.5941     54.89193     6297.404        91     1.944     1.482  59.08   0
       135    528.1788    785.6176 307.6923091  +6.3678102     5098.123      10404.9     11193.91       77.815       155.63     311.3219      2.102     6.22     842.6041     54.89193     796.3801        45     1.891     1.240  61.44   0
       136    444.9510    784.1890 307.7269119  +6.3656006     3259.583     6736.394     7643.825     77.44238     155.6919     311.1051      2.142     6.03     843.9072     54.89193     469.0631        38     1.919     1.146  65.49   3
       137    441.7569    778.1055 307.7284432  +6.3680047     1830.424     3717.673     4678.165     78.06242     155.6919     311.5387      2.363     7.03      843.726     54.89193     238.5118        24     1.936     0.958  59.44   3
       138    773.4771    782.3289 307.5905744  +6.3774053     8786.711     17164.85     18682.06     78.30907     156.0013     311.4149      2.071     5.36     840.7962     54.89193     1237.177        48     1.826     1.272  60.06   0
       139      2.9485    779.1072 307.9105876  +6.3527935     881.5521     1615.662     1364.418     77.93881      144.715     259.0899      1.946     5.68     841.6997     54.89193     122.0173        12     1.391     0.933  72.64  24
       140    795.0935    776.8658 307.5817829  +6.3803857     976.0844      1890.81     2058.581     78.06242     155.9395     311.4148      1.992     6.90     840.0422     54.89193     164.7554        14     1.637     0.815  76.06   0
       141    139.1441    774.5232 307.8542003  +6.3592856     2235.416     4505.638     5462.846     78.06242     155.7539     311.3839      2.217     6.42     842.8353     54.89193     367.2748        28     1.795     1.001  62.13   0
       142    131.1619    774.1813 307.8575258  +6.3591573     8220.479     17123.46     19350.35     77.69099       155.63     311.1671      2.172     5.63     842.7213     54.89193     1205.357        53     1.975     1.341  59.66   3
       143    123.5331    771.9637 307.8607680  +6.3598153     2150.245     4242.004     5000.744     77.93881     155.7539     311.4767      2.079     5.38     842.5939     54.89193      338.438        28     1.793     1.037  63.12   3
       144    123.4603    765.8268 307.8610058  +6.3623465     1504.602     3277.833     4273.548     77.69099     155.8158      311.291      2.661     6.95     842.4193     54.89193     214.0547        23     1.954     0.877  62.88   3
       145    918.8898    770.9494 307.5305810  +6.3869770     4690.245     9541.126     10282.51     78.06242      155.568     311.5387      2.120     5.22     837.9037     54.89193     668.0989        42     1.830     1.257  56.91   0
       146    968.0294    770.7717 307.5101838  +6.3886958     1176.237     2392.296     3068.197     77.56679      155.506     311.1671      2.132     6.46     836.1872     54.89193     159.6711        22     1.736     0.962  53.41   0
       147    674.3024    768.7422 307.6322083  +6.3796867     1223.313     2489.329     2698.142       77.815     155.6919     311.5696      2.041     6.03     841.3984     54.89193     168.5334        23     1.655     1.098  49.62   0
       148    561.3032    767.7892 307.6791569  +6.3762843      1704.46     3298.494     4015.381       77.815      155.382      311.229      2.081     5.58     841.8079     54.89193     289.1099        23     1.675     0.909  64.73   0
       149    409.4874    767.6246 307.7421943  +6.3712458     985.4624     1716.759     1444.428     78.18584      155.568      311.291      1.996     6.38     843.7449     54.89193      136.138        13     1.359     0.841  42.73   0
       150    913.1110    762.8606 307.5332519  +6.3901231      2244.71     4449.099     4283.355     77.93881     155.8776     311.4458      1.992     5.97     837.8062     54.89193     356.6818        29     1.689     1.154  64.28   0
       151    973.5530    762.4963 307.5081679  +6.3922973     1496.825     2733.063     2995.236     78.06242       155.63     311.5696      1.984     5.47      835.729     54.89193     229.8709        20     1.595     0.892  63.88   0
       152    942.7035    762.4720 307.5209778  +6.3912745     2354.693     4731.125     4633.183     77.93881     155.9395     311.3839      2.029     5.44     836.8683     54.89193     319.7969        27     1.781     0.975  58.15   0
       153    665.8475    762.3829 307.6359326  +6.3820283      988.754     1739.371     2172.555     77.56679     155.6919      311.198      2.160     6.59     841.1831     54.89193     135.7001        14     1.318     0.926  72.28   0
       154    813.4813    760.8929 307.5746849  +6.3875968     762.7815     1266.333     726.3768       77.815     156.0631     311.4767      1.679     3.72     839.2551     54.89193     116.6857         8     0.939     0.750  69.32   0
       155    887.8078    759.3344 307.5438763  +6.3907313     494.1584     933.2684     1264.296     77.56679      155.506       311.26      2.061     3.85     838.3209     54.89193     95.62903         6     1.074     0.396  14.85   0
       156    238.1712    757.0471 307.8136782  +6.3698411     1396.025     3005.342     3968.639     77.69099     155.8776     311.3219      2.437     6.89      843.922     54.89193     233.0364        22     1.700     0.957  67.62   0
       157    677.2864    750.2466 307.6315916  +6.3874230     682.5587     1513.017     1940.687     78.06242       155.63     311.4149      2.826     5.56     840.6476     54.89193     116.9643         9     1.313     0.885 -88.98   2
       158    153.8862    752.4744 307.8488256  +6.3688858     755.4713     1290.644     1097.887     78.18584     156.0631     311.4767      1.666     6.59     842.1636     54.89193     104.9807        12     1.880     0.648  67.64   0
       159    905.5945    751.6590 307.5367488  +6.3944961     1004.208     1942.251     2631.239     77.56679       155.63      311.198      2.598     5.78     837.6718     54.89193      137.509        14     1.311     0.976  84.24   2
       160    258.7658    753.4274 307.8052501  +6.3720299     473.0089     933.8806     1104.391     77.56679      155.506      311.198      2.013     4.51      843.966     54.89193     70.54395         5     0.809     0.714  63.28   0
       161    957.4626    750.1772 307.5152621  +6.3968448      1719.94     3637.973     4072.029     77.69099     155.7539     311.3219      2.173     5.43     836.0158     54.89193     256.2808        27     1.703     1.127  64.43   0
       162    929.8174    750.7964 307.5267200  +6.3956635     565.9092     1129.698      1281.59     77.69099     155.3199       311.26      2.018     3.09     836.9889     54.89193     98.00867         5     0.743     0.659 -58.12   0
       163    999.8203    744.8055 307.4978547  +6.4004804      1217.91     2004.477     2142.365     77.69099      155.444      311.229      1.644     4.15     834.4113     54.89193     186.1033        14     1.272     0.833  30.55   2
       164    998.9180    741.6840 307.4983340  +6.4017390     707.4025      909.421     1416.909       77.815     156.0013     311.4767      1.506     4.10     834.3809     54.89193     121.0895         6     0.957     0.503  35.79   3
       165    398.4182    745.2184 307.7475459  +6.3801236     566.1666     1029.515     1061.809       77.815      155.506     311.3529      2.097     3.46     842.9161     54.89193     82.14392         5     0.792     0.437  69.78   0
       166    801.2670    743.1441 307.5803528  +6.3945152     872.0203     1397.504     1767.077     78.18584       155.63     311.3839      1.627     3.85     838.6935     54.89193     154.3963         7     1.020     0.503 -65.01   0
       167    886.8407    739.1066 307.5449570  +6.3990503     1109.142     2234.442      3244.14     78.18584     155.6919     311.5077      2.231     7.31     837.8713     54.89193     162.0091        17     1.702     0.879  61.75   0
       168    861.5576    734.5381 307.5556084  +6.4000893     734.6783     1447.906     1340.818     78.06242     155.6919     311.5077      1.932     5.84     838.4241     54.89193     106.3577        10     1.251     0.767  65.12   0
       169    843.8127    730.6308 307.5631076  +6.4011078     1066.706     2153.965     2172.583     77.56679      155.568     311.3529      2.082     7.21     838.3417     54.89193     177.6633        18     1.622     0.899  60.96   0
       170     42.9685    729.7319 307.8956447  +6.3745298     1930.519      3604.69     4480.415     77.93881     155.7539     311.3839      2.161     5.90     841.5375     54.89193      253.451        26     1.810     1.065  65.99   0
       171    106.6358    728.3403 307.8692590  +6.3772545     722.0186     1428.323     1742.142     78.06242     155.7539     311.3839      2.471     5.69      841.334     54.89193      120.716        10     1.389     0.657  61.06   0
       172    655.5558    718.1232 307.6416952  +6.3999558     4598.896     9004.303     10061.57     77.93881     155.8158     311.4458      2.066     5.76     839.8902     54.89193     678.3015        41     1.795     1.320  62.24   0
       173    603.0746    718.8248 307.6634623  +6.3979033      1041.19     2069.198     2035.753     77.69099      155.568     311.3529      2.212     6.68     840.5386     54.89193     174.5985        16     1.660     1.031  33.86   2
       174    513.9691    718.8340 307.7004592  +6.3949045      625.269      934.899     647.9398     77.56679      155.506     311.1671      1.726     3.89     841.1899     54.89193     91.87573         5     0.849     0.510  61.67   0
       175    118.4823    714.0618 307.8648236  +6.3835493     2615.944     5173.378     5692.578     78.18584     155.7539     311.3839      2.120     6.13     840.8853     54.89193     410.6411        31     1.932     0.984  65.25   0
       176    496.4896    716.7168 307.7077881  +6.3951907     2365.392     2366.579     2261.841       77.815     156.0013     311.4767      0.786     0.81      841.478     54.89193     895.2004         6     0.718     0.398  20.64   0
       177    992.6129    713.5245 307.5018965  +6.4131541     1896.449     3606.403     3659.633     77.69099      155.444      311.229      1.986     6.32     834.1641     54.89193     288.8846        25     1.668     1.071  49.45   0
       178    629.3923    713.8022 307.6527040  +6.4008611     1540.381     3170.041     3297.978     77.44238      155.444      311.198      2.096     6.00     840.1576     54.89193     238.1555        24     1.674     1.003  56.95   0
       179    305.0812    714.7819 307.7873259  +6.3895457     536.2224     942.3445      806.348     77.69099      155.444     311.3529      1.597     4.72     842.3873     54.89193     78.69061         5     0.945     0.669 -24.78   0
       180    772.4350    710.2307 307.5934304  +6.4071370      14760.1     29558.56     32052.13     77.69099      155.506      311.198      2.078     5.86     838.6077     54.89193      2182.47        62     1.901     1.345  58.81   0
       181    902.4684    709.9814 307.5394458  +6.4115986     2972.275     5809.117      6359.22     77.69099       155.63     311.3529      2.036     5.03     836.5227     54.89193     471.7166        32     1.675     1.141  60.84   0
       182    471.5176    710.6596 307.7183608  +6.3968514     1015.529     1780.053     1963.661     78.18584     155.8158     311.4458      1.907     5.82     841.6135     54.89193      181.959        18     1.655     0.856  65.15   0
       183    500.5985    710.8497 307.7062798  +6.3977512     643.7612     936.9709     927.7025     77.44238      155.382     311.0121      1.570     3.52     841.2718     54.89193     84.37946         5     0.779     0.460  74.35   0
       184    653.0333    703.0108 307.6432511  +6.4061104     5065.764     10546.63     11796.06     77.56679      155.506       311.26      2.162     5.98     839.5586     54.89193      756.361        46     1.877     1.296  61.93   0
       185    245.9592    703.8051 307.8122437  +6.3920846     4501.238     9085.562      9666.45     77.31777      155.444     311.1671      2.062     5.28      841.608     54.89193     606.1552        42     1.849     1.229  57.59   0
       186    635.4309    704.2367 307.6505186  +6.4050131      746.545     1243.656     1225.065     77.69099      155.506      311.229      1.706     5.55     839.8482     54.89193     100.9895        10     1.458     0.595  68.35   0
       187    912.7075    695.7587 307.5356717  +6.4178136     816.3942     1460.571     1738.674     78.18584     155.6919     311.5077      1.984     6.08     835.7316     54.89193     147.0246        10     1.665     0.625  60.94   0
       188    724.7247    691.5793 307.6138679  +6.4132367     2869.827     5531.945     6277.991     77.69099      155.568     311.3529      2.073     5.53     838.7775     54.89193     400.5923        33     1.741     1.131  67.30   0
       189    679.3374    690.6602 307.6327447  +6.4120927     596.8912     1626.107      2367.44     78.06242     155.7539     311.4458      2.845     5.85     838.9177     54.89193     113.4243         8     1.405     0.685  59.07   2
       190    991.0806    688.2200 307.5033815  +6.4235502     6543.177     13058.88     13892.69       77.815      155.444     311.3529      2.074     5.41     833.8539     54.89193     864.1569        48     1.869     1.263  55.20   0
       191    929.4911    688.5670 307.5289440  +6.4213450     1796.346     3563.522     3550.717     78.18584       155.63     311.4458      2.014     6.45     834.9944     54.89193     277.0059        23     1.737     0.926  58.01   0
       192     10.1239    687.8474 307.9106992  +6.3907116     1367.814     3074.622     3725.916     77.93881     155.8158     311.3839      2.466     6.47     840.8215     54.89193     230.7916        29     1.764     1.278  67.70  16
       193    529.8681    684.1194 307.6950276  +6.4097712     1570.096     3177.553     3238.895     78.18584     156.0013     311.4148      2.053     5.87     840.2422     54.89193     213.0197        24     1.688     1.022  63.70   0
       194     68.3688    682.7797 307.8866885  +6.3947716     18700.57      38367.1     41873.84     77.56679      155.568      311.291      2.133     5.80     840.1707     54.89193     2949.097        73     1.956     1.410  59.37   0
       195    498.6258    681.0823 307.7081022  +6.4099745     1047.619     1919.607     1744.505     77.93881      155.506     311.4149      1.962     6.82     840.7291     54.89193     135.4824        15     1.642     0.794  64.35   0
       196    919.7562    680.5970 307.5332538  +6.4243095      891.723     1747.512     2037.512     77.44238     155.3199     311.0741      2.071     6.50     835.0239     54.89193      147.064        13     1.547     0.816  58.77   0
       197    538.8779    677.8602 307.6914975  +6.4126583     792.9883     1580.182     1507.614     78.18584     155.8158     311.3839      1.924     6.83     839.9722     54.89193     106.2086        14     1.270     1.031  62.80   0
       198    714.4232    675.1105 307.6186993  +6.4196903     2546.261     4981.784     5630.035     78.06242      155.568      311.291      2.089     6.00     838.4398     54.89193     390.0589        31     1.732     1.105  61.38   0
       199    736.3234    673.3912 307.6096634  +6.4211351     3003.544     5863.085     6231.597     77.69099     155.2578      311.229      2.036     6.05     838.3641     54.89193     551.3862        29     1.714     1.014  63.20   0
       200    567.9371    671.4174 307.6796485  +6.4162951     2383.668     4894.637     5108.173     77.69099     155.6919       311.26      2.122     6.50     839.6399     54.89193     321.0314        28     1.739     1.120  59.98   0
       201    404.1525    672.0286 307.7476343  +6.4105333     1153.755     2322.653     3031.884     77.69099     155.8158     311.3219      2.230     6.97     840.5243     54.89193     151.2794        16     1.375     0.989  77.52   0
       202    228.2790    671.0413 307.8206917  +6.4050148     1214.097     2558.424     2313.204     77.93881     155.7539     311.4149      2.056     7.08     839.6294     54.89193     187.2748        17     1.590     0.884  55.33   0
       203   1009.3249    669.5000 307.4964336  +6.4318897     3728.487     7304.032     8123.213     77.56679     155.8776     311.3219      2.065     5.50     833.3011     54.89193      499.157        40     1.825     1.208  64.08   0
       204    312.1846    670.5738 307.7858694  +6.4080363      1004.04     2113.426     2426.799       77.815       155.63     311.3529      2.167     6.05     840.1093     54.89193      151.967        17     1.875     0.847  64.05   0
       205    974.7733    668.4777 307.5108152  +6.4311553     6030.306     11824.45     12863.37     77.93881     155.6919     311.3839      2.062     5.47     833.7296     54.89193     883.3783        46     1.861     1.244  56.80   0
       206    694.7083    667.7761 307.6271322  +6.4220567     830.6368       1376.5     1631.827     78.18584      155.568       311.26      1.775     6.46     838.3029     54.89193     130.2778        13     1.608     0.815  68.49   0
       207     85.9526    666.3895 307.8799426  +6.4021320     590.0164     887.0127     1048.745     77.56679       155.63     311.1051      1.955     4.73     839.6868     54.89193     111.2698         6     0.913     0.694  80.81   0
       208    420.0690    662.7582 307.7413383  +6.4148964     2083.345     4142.551      4375.21     77.93881     155.7539     311.5077      2.079     6.17     840.2241     54.89193     290.2184        26     1.672     1.075  66.48   0
       209    133.1741    661.7718 307.8604927  +6.4056328     17671.33     35529.24     37962.51     77.56679      155.568      311.291      2.083     5.51     839.5152     54.89193     2658.536        67     1.905     1.381  63.17   0
       210    801.8239    662.7468 307.5828232  +6.4277269     916.9344     1712.302     1535.825     77.56679     155.7539      311.229      1.993     7.20     837.5742     54.89193     146.3243        15     1.747     0.832  50.34   0
       211    353.3646    657.7232 307.7692049  +6.4147290     549.6514     985.9179     1193.868     77.93881     155.8158     311.4458      2.138     4.48     839.9174     54.89193     84.34167         6     1.039     0.550 -57.59   0
       212    969.6025    651.4450 307.5135338  +6.4380145     5228.592      11041.7     12574.94     77.44238      155.382     311.0741      2.201     6.33     833.3887     54.89193     712.5889        49     1.951     1.287  59.37   0
       213     14.3108    650.7721 307.9102165  +6.4061592     774.4911     1727.467     1446.748     78.18584      155.506     311.3219      2.172     7.85     840.3193     54.89193     110.4512        14     1.749     0.986  53.46   0
       214   1023.2791    645.8282 307.4914330  +6.4421299     33981.36     53478.96     56685.08     72.42407     129.3028     240.5244      1.691     6.09     832.1757     54.89193     5403.973        47     1.880     0.876  86.63  24
       215    563.1648    646.6314 307.6824650  +6.4263678     35381.65     70362.57      76592.8     77.69099      155.506     311.1671      2.088     5.76      838.729     54.89193     5389.562        83     1.946     1.405  59.99   0
       216    206.4139    649.0126 307.8305148  +6.4133718     546.8842     1024.359     1037.971     77.93881      155.444     311.3529      2.030     4.06     839.2246     54.89193     86.10358         5     1.075     0.438  23.47   0
       217    170.6282    643.2853 307.8455669  +6.4145290     1997.633     4153.831     3988.162     78.18584      155.444      311.291      2.086     5.70     839.2625     54.89193     272.6659        29     1.740     1.083  49.95   0
       218    974.4609    643.7096 307.5117759  +6.4413708     580.9453     1146.901      1575.01     77.93881     155.8776     311.4767      2.595     5.11     833.1336     54.89193     88.64349         7     1.030     0.716 -85.87   0
       219     63.3681    637.7255 307.8902899  +6.4132029     1018.466     1989.388     2615.618     77.93881     155.8158     311.3839      2.100     7.53     839.8357     54.89193     158.3329        15     1.760     0.902  51.73   0
       220    460.4328    630.4191 307.7256689  +6.4296061     45375.91     90991.98     99520.62     77.56679      155.568      311.229      2.100     5.52     839.1291     54.89193     6603.685        90     1.951     1.462  59.57   0
       221    646.6812    628.8222 307.6483856  +6.4365266     695.2259     989.9625     629.1776       77.815      155.444     311.3529      1.737     3.77     837.6672     54.89193     129.3493         6     1.010     0.415 -76.73   0
       222    134.8900    625.7772 307.8609979  +6.4205509     1162.801     2135.234      1963.63     78.06242      155.568      311.291      2.000     7.35     839.3213     54.89193     146.3934        19     1.535     1.015  59.40   0
       223    414.6729    623.8710 307.7448907  +6.4307694     856.2936     1513.239     1502.321     78.30907     155.8776     311.4149      1.804     4.89     838.8351     54.89193     127.6813         8     0.959     0.706  80.12   0
       224    606.6106    622.6591 307.6652321  +6.4377250     713.7719     1278.072     1160.492     77.44238       155.63      311.136      1.893     4.72     837.6805     54.89193     109.4155         8     1.020     0.619  73.14   0
       225    305.6773    619.8564 307.7902842  +6.4287557     1547.211     3061.091     3534.125     78.06242     155.7539     311.3839      2.107     6.05      838.213     54.89193     247.6886        24     1.837     0.918  66.82   0
       226      3.8671    631.9411 307.9151906  +6.4135804     1250.982     2574.889     2729.589     78.18584     152.8166     271.4837      2.043     7.03     840.2434     54.89193     239.9329        20     1.680     1.025  52.05  24
       227    732.3266    614.0421 307.6133190  +6.4455040     3847.618     7440.678     8059.581     77.93881     155.8158     311.4458      2.071     5.42     836.7305     54.89193     629.8229        35     1.795     1.076  60.62   0
       228    786.0154    609.2788 307.5911848  +6.4492717     10263.24     20180.55     22175.67     77.69099      155.506       311.26      2.071     5.51      836.335     54.89193     1445.012        56     1.896     1.284  58.28   0
       229    528.4981    609.1855 307.6981216  +6.4406621     895.1051     1878.249     2536.103     77.93881      155.506      311.198      2.409     8.10      837.586     54.89193     116.7833        18     1.833     1.002  82.60   0
       230   1003.2158    609.8530 307.5009709  +6.4563115     714.7137     1457.734     1144.723     77.44238     155.8158      311.136      1.985     6.75       831.39     54.89193     98.14337        11     1.398     0.915  39.76   0
       231    610.4686    608.4984 307.6641070  +6.4437010     1860.693     2743.694     3385.836     78.06242     155.8776     311.4149      1.690     3.67     837.0936     54.89193     270.7025        15     1.197     0.880 -44.44   3
       232    609.3271    605.6673 307.6646763  +6.4448315      1483.21     2412.503     2741.622     78.18584     155.8776     311.3839      1.842     3.92     837.0204     54.89193     188.5189        14     1.051     1.007  69.07   3
       233     31.5211    609.8286 307.9044575  +6.4236439      498.788     789.7964     613.7858     77.93881     155.6919     311.4149      1.736     2.77     839.9059     54.89193     101.9813         5     0.731     0.464  70.88   0
       234    927.2885    603.2664 307.5327218  +6.4564889     817.1519     1485.283     2083.081     78.06242     155.9395     311.3839      1.785     6.39     833.4476     54.89193     137.7664        11     1.726     0.665  80.13   0
       235    186.0986    601.6809 307.8405503  +6.4322272     543.4068     1249.632     1964.879     77.93881     156.1866     311.4767      3.024     7.73     838.5616     54.89193     92.85187         7     1.470     1.139  61.87   0
       236    368.6298    601.2144 307.7647739  +6.4385730     784.3291     1261.684      1225.58     77.69099      155.506     311.3529      1.776     5.67     837.6597     54.89193     136.0203         8     1.436     0.630  68.94   0
       237    222.7544    600.9527 307.8253545  +6.4337644     968.2158     1997.816     2114.257     78.06242       155.63     311.4458      2.251     7.05     838.0873     54.89193     146.6191        16     1.670     0.834  68.13   0
       238    862.0955    592.5192 307.5601549  +6.4587419     2121.134     3911.985     4216.129       77.815     156.0013     311.5077      1.981     5.57     834.4468     54.89193     304.7161        25     1.658     0.989  53.37   0
       239    157.6333    593.2943 307.8526533  +6.4347290     604.5677     837.4803     893.2082     78.18584       155.63     311.5077      1.389     4.14     838.7092     54.89193     98.86353         6     0.729     0.673  24.12   0
       240    820.7757    589.9769 307.5773990  +6.4584064     1851.395     3727.996     4012.336     77.56679       155.63     311.3839      2.011     5.22     835.1725     54.89193     305.0313        26     1.685     1.016  55.29   0
       241    791.7145    585.7616 307.5896087  +6.4591722      1724.42     3810.489     4925.352     78.06242     155.7539     311.4149      2.467     6.44     835.4429     54.89193     291.1292        26     1.901     1.026  68.48   0
       242    248.9143    584.7906 307.8150384  +6.4413190      5680.43     11616.16     12737.84     77.69099      155.444       311.26      2.124     5.88     837.3461     54.89193     802.5298        51     1.872     1.361  62.43   0
       243    183.0132    579.3702 307.8425859  +6.4413339     42383.66     86895.68     97123.26     77.56679      155.568     311.3529      2.150     5.60     837.9982     54.89193     5552.514       107     2.036     1.533  62.49   0
       244    731.6555    582.3180 307.6146647  +6.4585791     478.1625     731.1323     1689.325     78.06242     155.7539     311.4458      1.836     4.22     835.5012     54.89193     74.90161         6     1.109     0.459  82.95   0
       245    107.0588    575.4382 307.8742572  +6.4403934     4400.849     9388.142      10121.3     78.06242     155.8158     311.4458      2.185     6.80     839.1167     54.89193     622.3679        47     1.828     1.419  61.24   0
       246    972.1125    573.0124 307.5151232  +6.4704807     972.1083     1775.647     1662.802     77.69099      155.506     311.3219      1.895     6.41      831.332     54.89193     135.7065        14     1.609     0.718  64.66   0
       247    993.6058    571.9577 307.5062329  +6.4716356     572.7621     876.0078     760.0901     77.44238      155.444      311.136      1.838     4.95     830.7797     54.89193     85.78271         5     1.173     0.591  41.15   0
       248    838.0030    568.3639 307.5709713  +6.4679072     3282.491     6709.433     7114.869     77.19297      155.568      311.229      2.097     5.60     834.2107     54.89193     455.2385        39     1.773     1.230  61.56   0
       249    356.4942    566.4861 307.7709854  +6.4525018      12817.6     25219.94      28345.6     78.06242     156.1866     311.4767      2.108     5.43       836.39     54.89193     1891.388        67     1.945     1.407  58.79   0
       250    444.9433    565.9893 307.7342738  +6.4556850     5163.079     5767.907     5728.638     77.44238     155.6919     311.1051      1.204     4.99     836.5508     54.89193     1346.651        12     1.029     0.686 -40.50   0
       251    158.2037    565.1536 307.8533683  +6.4463659     1320.152      2693.58     3987.893     77.44238      155.506     311.0741      2.194     6.97      838.153     54.89193     201.7175        21     1.842     0.823  62.60   0
       252    791.9116    561.7842 307.5903328  +6.4690782     4319.229     8579.051     9628.606       77.815      155.506       311.26      2.131     5.42     834.5396     54.89193     627.0463        37     1.791     1.168  62.51   0
       253    522.7093    561.5059 307.7021323  +6.4601522     4895.043     9570.577     9709.071     78.06242     156.2483     311.4149      2.045     5.13     836.2143     54.89193     664.3947        41     1.789     1.232  60.27   0
       254    801.4083    581.1272 307.5857389  +6.4614107     115861.2     230422.6     251915.7     77.69099     155.3199       311.26      2.088     5.58     835.2247     54.89193     18473.07       142     2.023     1.509  61.10   0
       255     96.0164    563.3022 307.8792530  +6.4450306     703.5851     1265.403     1305.123     78.06242      155.506      311.229      1.846     6.64      839.168     54.89193     88.18695        11     1.233     1.002  24.42   0
       256    381.4311    559.5381 307.7608649  +6.4562102     959.2778     1224.076     1819.309       77.815     155.8158     311.3529      1.270     2.90     836.2341     54.89193     169.1619         9     0.969     0.628  -6.36   2
       257    380.0565    556.1951 307.7615485  +6.4575440     763.1891     1201.671     1457.102     77.44238       155.63      311.136      2.022     5.80     836.0856     54.89193     109.3807        10     1.098     0.873  29.96   2
       258    169.8432    554.5218 307.8488948  +6.4511480      4795.03     9831.477     10754.53     77.93881     155.7539     311.4458      2.128     5.74     837.6837     54.89193     626.4042        44     1.899     1.231  60.57   0
       259    568.1904    555.2000 307.6834583  +6.4642848     1747.711     2969.272     3849.257     77.44238      155.444     311.1671      1.991     3.98     835.6505     54.89193      232.082        19     1.226     1.081 -47.09   3
       260    566.3078    552.3084 307.6843375  +6.4654153     995.6302     1370.113     2128.552     78.06242     156.2483     311.4458      1.712     3.53     835.5881     54.89193     165.0385         9     1.029     0.669 -43.65   3
       261     41.3379    553.3461 307.9022941  +6.4472938     3649.063     7344.107     7877.424     78.06242     155.6919     311.3839      2.086     5.21     839.5453     54.89193     507.1928        38     1.848     1.162  60.52   0
       262    808.3486    554.3890 307.5837555  +6.4726826     947.9965     1931.338     1927.932     77.44238       155.63     311.1671      1.990     6.36     834.1404     54.89193      157.896        13     1.473     0.811  55.04   0
       263    265.0235    551.0131 307.8094907  +6.4558072      61919.7     126849.9     140041.8       77.815      155.568     311.3219      2.141     5.50     836.1865     54.89193     8854.188       102     2.008     1.487  62.03   0
       264    554.6479    548.5278 307.6893068  +6.4665842      709.265     1284.795     1590.707     78.06242     155.8158     311.4458      2.290     6.10     835.6529     54.89193     114.7151         7     1.523     0.687  61.56   0
       265    248.8477    546.2255 307.8163694  +6.4572383     1161.141     2181.461     1183.568     77.69099     155.8158     311.3219      1.958     4.55     836.0329     54.89193     179.4573        15     1.387     0.921  68.78   0
       266    964.5465    544.7568 307.5192133  +6.4818931     1217.535     2345.961     2389.189     78.06242     155.7539     311.4149      2.058     7.13     830.7089     54.89193      169.664        18     1.780     0.799  66.35   0
       267    788.1864    543.5430 307.5924930  +6.4764844     11775.95     23623.83     25505.94     77.44238       155.63     311.1051      2.087     6.10     833.8751     54.89193     1753.754        59     1.879     1.369  58.64   0
       268    491.8008    541.8382 307.7156304  +6.4672325     29480.11     62888.34      70916.6     77.19297      155.568      311.198      2.223     5.70     835.5842     54.89193     4141.294        94     2.048     1.572  51.46   0
       269    642.0759    539.5086 307.6533046  +6.4732458     671.6211     1511.244     1405.286     78.06242     156.0013     311.4149      2.105     5.97     834.2584     54.89193     115.6784        10     1.582     0.634  56.56   2
       270    204.2513    538.5905 307.8351459  +6.4588862     1316.422     2873.358     3519.316     77.56679       155.63      311.136      2.234     6.57     836.3865     54.89193     179.5054        25     1.849     1.133  70.95   0
       271    651.6518    536.9937 307.6494127  +6.4746058     2102.802     4317.591     5060.509     77.56679      155.568     311.0741      2.222     6.03     834.0785     54.89193     296.1093        29     1.864     1.077  65.49   0
       272     40.0335    538.7932 307.9033286  +6.4532578     946.9929     1905.449     1887.349     77.44238      155.568      311.229      2.020     5.66     839.3071     54.89193      172.173        16     1.659     1.069  70.01   0
       273    662.1569    537.4096 307.6450362  +6.4747868      1026.85       1930.9     2603.284     77.56679      155.568     311.1671      2.151     7.60     833.9651     54.89193     149.1874        16     1.685     0.959  70.27   0
       274    714.0070    536.2606 307.6235429  +6.4770021     912.6823     1781.077     2462.607     77.44238      155.568     311.1671      2.132     6.55     833.8708     54.89193     169.9803        14     1.843     0.653  64.20   0
       275     71.6076    534.7538 307.8903547  +6.4559922     516.3492     547.6438     449.0538     77.56679       155.63     311.0741      1.151     3.43     838.9303     54.89193     81.76044         5     0.730     0.466  74.89   0
       276    389.6220    532.7570 307.7583675  +6.4675426     1350.584     2547.723     2785.321     77.56679       155.63      311.229      1.988     5.64     835.2122     54.89193      202.772        20     1.539     0.967  68.65   0
       277    320.9405    530.8306 307.7869530  +6.4660243     2603.568     5297.213     5749.624       77.815     155.7539     311.3839      2.153     5.71     835.3126     54.89193     398.7367        33     1.845     1.099  60.15   0
       278    136.1076    529.3584 307.8637544  +6.4603978     18405.15     37946.38     41853.23     78.06242     155.6919     311.5077      2.160     5.59     837.6567     54.89193     2495.206        74     1.981     1.418  63.13   0
       279    500.8539    530.1476 307.7122651  +6.4723636     1570.221     3105.871     3594.676     78.30907     155.6919     311.4458      2.055     7.03     835.1315     54.89193     211.9211        24     1.758     0.944  53.81   0
       280    864.2038    529.4825 307.5613969  +6.4848381     1062.809     2101.824     2036.317     77.56679      155.382      311.136      2.113     5.55      832.676     54.89193     156.0682        17     1.687     0.882  63.60   0
       281    101.2512    527.5405 307.8782897  +6.4599714     1950.505     4081.982     4596.771     78.06242     155.6919     311.4149      2.232     5.34     838.4643     54.89193     295.5873        29     1.737     1.125  58.74   0
       282    338.5616    526.5159 307.7797815  +6.4683993     805.8804     1477.611     1559.726     78.06242     155.6919     311.3529      1.763     5.98     835.1841     54.89193     134.0946        10     1.521     0.661  56.02   0
       283    961.6643    524.0992 307.5211035  +6.4903255     3611.664     7326.413      7863.06     78.06242     155.8158     311.4458      2.115     5.44     830.1902     54.89193     593.0146        37     1.767     1.208  58.17   0
       284    534.7533    516.7322 307.6986399  +6.4790423     1057.775     1957.269     2023.113     78.06242     155.6919     311.4149      2.008     7.14     834.4337     54.89193     130.2993        17     1.606     0.894  61.00   0
       285      1.6670    514.2424 307.9200913  +6.4620965     13605.83     19514.22      20544.4     72.02357     128.7798     239.8821      1.483     4.34     838.6364     54.89193     2788.375        35     1.665     0.859  89.90  24
       286    641.1952    510.2315 307.6546560  +6.4853035     8644.495     17792.85      19517.1     77.44238       155.63      311.198      2.122     5.71     833.6034     54.89193     1259.691        55     1.921     1.340  61.42   0
       287    433.1273    510.5141 307.7410519  +6.4781904     30188.68     61782.62      67938.8     78.18584     156.0631     311.4149      2.171     6.19     834.1757     54.89193     4405.789        85     2.009     1.434  61.07   0
       288    198.2925    508.1171 307.8386507  +6.4712659      13692.1     28881.86     32602.94       77.815     156.0631     311.5387      2.220     5.72     835.6028     54.89193     1765.517        69     2.020     1.425  59.66   0
       289    280.8578    511.0330 307.8042664  +6.4728467     556.7481     1342.678     1612.996     77.93881     155.8158     311.3529      2.605     5.64     834.4592     54.89193     94.78998         6     1.395     0.643  75.65   0
       290    164.2353    508.9741 307.8527641  +6.4697628     1050.829     2196.693     2112.593     77.44238      155.568      311.198      2.142     7.64     836.2172     54.89193     150.3506        18     1.643     0.994  73.75   0
       291    975.9235    509.7278 307.5156640  +6.4967363     817.3055     1519.276     1956.876     78.30907     156.0013     311.4149      2.219     2.58     829.4155     54.89193     133.1273         9     0.856     0.661 -65.21   2
       292    562.9569    507.2426 307.6872474  +6.4839084     2020.991     3943.169     3926.211       77.815     155.7539      311.229      2.040     5.41     833.8878     54.89193     276.5728        29     1.713     1.107  71.80   0
       293    903.7833    508.7409 307.5456566  +6.4947278     543.0332     1002.133     1241.654     77.56679       155.63     311.1671      2.236     3.64     831.1605     54.89193     107.3231         5     0.937     0.407 -85.46   0
       294    815.6190    508.8372 307.5822673  +6.4917331     605.7356     1088.876     923.3545     77.69099      155.568      311.198      1.505     4.43      832.371     54.89193     117.7328         5     1.207     0.463  82.43   0
       295    936.7256    504.2111 307.5321279  +6.4977014     3443.772     7069.618     7783.481     77.56679      155.382       311.26      2.120     5.50     830.3782     54.89193     461.1978        39     1.829     1.206  64.30   0
       296    609.9741    502.6889 307.6678756  +6.4873686     4751.244     9252.829      10202.5     78.18584      155.568       311.26      2.056     5.83     833.7532     54.89193     667.0135        41     1.878     1.145  58.22   0
       297     97.7085    504.1590 307.8805523  +6.4695046     855.6782     1196.983     1354.017     78.06242     155.7539     311.4767      1.526     3.15     837.9103     54.89193     145.2101         7     0.849     0.570  69.44   0
       298    959.2380    496.4785 307.5230381  +6.5016478     2376.211     4557.444     4557.088     77.93881     155.8158     311.4149      2.043     6.35     829.5171     54.89193     377.5531        28     1.821     1.059  62.58   0
       299    368.2179    494.2258 307.7685565  +6.4827294     1926.966     3880.352     4057.475     77.69099      155.568     311.3529      2.078     5.06     834.0618     54.89193     325.9406        30     1.939     1.013  70.51   0
       300    522.1584    493.8862 307.7046403  +6.4880508     5498.364     10842.97     11980.67     78.06242     155.6919     311.4458      2.071     5.36     833.5508     54.89193      850.062        46     1.810     1.275  60.38   0
       301    878.4597    489.7459 307.5568114  +6.5017216     2351.696     4653.902     5536.995     78.18584     155.6919     311.3839      2.098     5.82     830.9503     54.89193     425.1689        29     1.743     1.024  63.50   0
       302    226.8323    489.4810 307.8274294  +6.4799226     573.6728      907.272     499.9291     77.93881     155.7539     311.3839      1.750     6.08     834.6614     54.89193     81.07092         7     1.122     0.926  45.72   0
       303    886.0086    484.1052 307.5538658  +6.5043034     1563.843     3119.314     3727.145     77.69099      155.382     311.1671      1.980     7.20     830.6569     54.89193     239.0603        21     1.668     0.871  58.57   0
       304    925.9570    483.9588 307.5372801  +6.5057022     918.9049     1427.696     1238.122       77.815     155.7539      311.291      1.560     4.87     830.2634     54.89193     150.3937         9     0.990     0.779  78.20   0
       305    710.0956    480.1334 307.6270556  +6.5000434     2180.914     4363.682     4417.986     78.06242     155.8776     311.4458      2.030     6.37     832.9597     54.89193     351.2222        29     1.687     1.124  47.37   0
       306     71.8652    479.2148 307.8921281  +6.4789296     1506.597     3014.551     3088.409     77.56679       155.63     311.3529      2.093     5.50     837.2903     54.89193     233.7579        27     1.755     1.077  76.92   0
       307    380.9749    478.2191 307.7637992  +6.4897674     2594.681     5618.267     5968.501     77.69099      155.568     311.3529      2.190     5.64     833.2159     54.89193     338.8524        36     1.834     1.222  57.10   0
       308    421.1906    479.1859 307.7470659  +6.4907224     750.1398     1327.618     1475.559       77.815      155.506     311.3529      2.110     5.65     832.5765     54.89193     103.4873         9     1.189     0.757  41.72   0
       309    608.5449    474.7561 307.6694098  +6.4988529     7188.966     14587.69     16267.12     78.06242     155.7539     311.4149      2.115     5.95     832.9067     54.89193     1116.994        55     1.945     1.337  61.09   0
       310    771.5527    471.1814 307.6018337  +6.5058017     11570.68     23782.83     27502.48     77.56679     155.7539      311.229      2.181     6.54     831.8996     54.89193     1907.514        73     2.028     1.691 -88.28   0
       311    291.1749    471.8477 307.8013060  +6.4893720     1902.874     3942.654     4213.714     77.69099     155.7539     311.3219      2.156     5.73     832.5371     54.89193     273.8584        27     1.746     1.011  64.59   0
       312    414.9785    472.1794 307.7498821  +6.4934059     537.2607     847.2687     1467.219       77.815     155.6919     311.3529      1.730     4.88     832.2811     54.89193     78.47424         5     1.175     0.573  78.92   0
       313    800.6904    469.8023 307.5897792  +6.5073484     985.2105     1923.959     2647.322     77.44238      155.444      311.198      2.073     3.29     831.1969     54.89193     172.5573        10     1.025     0.675 -61.37   2
       314    373.9238    468.1878 307.7670660  +6.4936713     1067.834     2315.665      2874.64     77.69099      155.382      311.229      2.278     7.28     832.8254     54.89193     144.6132        19     1.840     0.807  56.62   0
       315    956.5948    466.5262 307.5251412  +6.5139256      1577.67     2815.997     2329.193     77.69099     155.3199     311.3219      1.882     6.02     828.7802     54.89193     218.1859        21     1.546     0.923  60.28   0
       316    108.6818    463.1472 307.8773837  +6.4868065     2999.641     6408.887     7364.828     78.06242     155.7539     311.4458      2.212     6.18     836.3525     54.89193     430.2675        38     1.855     1.262  62.33   0
       317   1010.5106    461.2308 307.5029270  +6.5179167     3118.034     6350.489     7413.179     78.18584      155.568     311.3529      2.200     5.72      826.937     54.89193     356.6008        38     1.881     1.203  53.46   0
       318    746.9666    462.4065 307.6123395  +6.5085996     1736.416     3445.279     3823.044     77.44238      155.568      311.229      2.071     6.60     832.0494     54.89193      247.956        26     1.667     1.041  61.34   0
       319    267.2098    461.2755 307.8116153  +6.4929288     1081.131     1938.938     2918.821     77.69099     155.3199      311.229      2.142     4.56     832.6321     54.89193     159.8712        15     1.394     0.810  84.48   2
       320    344.7339    458.0998 307.7795286  +6.4968529       2164.4     4519.997     4536.347     78.06242     155.8776     311.3839      2.133     6.38     832.4951     54.89193     288.3185        30     1.760     1.092  59.31   0
       321    700.6053    455.6106 307.6318220  +6.5098493     1220.336     2211.652     2539.873     77.56679      155.506     311.3219      2.050     7.09     831.9001     54.89193     185.3419        18     1.644     0.858  68.79   0
       322    975.4053    454.8353 307.5177214  +6.5193821     603.4578     1157.493      1357.16     77.31777      155.506      311.198      1.572     3.94     827.8983     54.89193     126.0615         5     0.917     0.485  84.51   0
       323    233.4220    453.3269 307.8259152  +6.4950709     579.1457      1114.62     1286.601     77.69099      155.568     311.3529      1.818     4.11     833.2667     54.89193      83.0835         7     1.022     0.473 -81.00   0
       324    542.3313    449.2400 307.6977676  +6.5071616     770.2079     1375.408     1923.981     77.93881     155.7539     311.5077      2.058     6.79     831.1842     54.89193     104.9685        13     1.678     0.770  55.54   0
       325    826.5877    446.0802 307.5798212  +6.5180108     1225.743     2380.433     2730.244     77.69099      155.444       311.26      2.184     7.14     830.0624     54.89193     160.4703        19     1.594     0.895  67.99   0
       326    464.6159    448.1605 307.7300787  +6.5049930     996.6533     1935.761     1909.152     77.69099      155.568      311.198      2.055     3.18     831.4982     54.89193     185.5099        11     1.003     0.753 -59.83   2
       327    812.4355    444.9632 307.5857364  +6.5179974     1464.764     2779.877     3231.389       77.815       155.63      311.198      2.095     7.40     830.3444     54.89193     228.4261        21     1.756     0.873  54.01   0
       328    709.7801    443.1555 307.6284309  +6.5152995     10563.15     21419.93     23157.39     77.56679       155.63       311.26      2.091     5.64     831.3372     54.89193     1507.408        54     1.886     1.289  58.87   0
       329    630.2820    439.1101 307.6615830  +6.5142999      1756.89     3907.721     4530.294       77.815     156.0013     311.4767      2.340     7.87     831.0335     54.89193     275.4913        28     1.968     1.408  22.91   0
       330    606.5201    437.4765 307.6715064  +6.5141759     3559.567     4713.536     5843.969     78.30907     156.0013     311.5387      1.438     2.94     830.7678     54.89193     501.8748        13     0.982     0.833 -36.09   3
       331    602.6309    433.8184 307.6732448  +6.5155555     11468.24     24009.79     28153.37     77.69099      155.568      311.291      2.302     5.49     830.5908     54.89193     1692.028        66     2.103     1.479  42.79   3
       332    935.0721    433.1815 307.5351993  +6.5269716     2691.236     5404.693     6084.472     77.56679     155.6919     311.3529      2.124     5.02     828.3334     54.89193     393.0961        34     1.768     1.145  62.25   0
       333    374.2313    428.9049 307.7682645  +6.5098996     20317.38     42000.01     46368.17     78.18584      155.568     311.4767      2.170     5.70     830.7424     54.89193     2953.329        73     1.980     1.404  61.30   0
       334    889.3052    426.9040 307.5544180  +6.5280301       1062.1     2616.381     3312.402     78.06242     156.3717      311.291      2.853     7.52     828.4026     54.89193     164.5311        18     1.691     0.936  40.81   2
       335    120.0270    428.2875 307.8738523  +6.5015811     1524.005      3356.37     3991.596     78.18584      155.506     311.3219      2.261     6.58     834.9314     54.89193     236.6377        27     1.831     1.042  67.19   0
       336    903.8103    423.3560 307.5485129  +6.5299810     3723.208     7437.722     7462.539     77.56679       155.63      311.136      2.030     5.62     828.2013     54.89193      533.979        38     1.821     1.168  60.47   0
       337     53.2976    424.4146 307.9016943  +6.5009259     1097.118     2430.991     2574.346     77.93881      155.506      311.198      2.161     7.77     836.1081     54.89193      149.173        22     1.888     0.895  55.41   0
       338    231.7671    419.4746 307.8277469  +6.5089908     9826.859     20121.96     21894.76     77.93881     155.7539     311.3839      2.135     5.85     832.0221     54.89193     1279.685        55     1.922     1.349  62.81   0
       339    148.0204    421.3735 307.8624612  +6.5053807     5156.778     5146.528     4930.376     77.69099      155.568     311.3219      0.624     0.80     834.0105     54.89193     2710.111         7     0.511     0.415  86.49   0
       340    138.6000    415.6671 307.8665664  +6.5074185     1715.323     1777.279      2195.36     77.31778     155.2578      311.136      0.870     1.77     834.1005     54.89193      649.403         6     0.846     0.352  63.69   0
       341     67.2931    414.1230 307.8962309  +6.5056475     597.9756      1175.27     1372.305       77.815     156.0013     311.4458      2.142     5.16     835.6466     54.89193     95.47443         8     1.216     0.620  78.24   0
       342    726.9329    414.0989 307.6222847  +6.5278715     563.7026     989.6973     1670.437     78.06242     155.8776     311.4148      2.308     4.42     829.8858     54.89193     89.08105         6     1.225     0.453  36.52   0
       343    955.9553    412.5338 307.5272192  +6.5361956      738.681     1410.338     1579.639     78.06242     155.6919     311.4458      2.003     4.89     827.2037     54.89193      95.0083         8     1.020     0.665  85.00   2
       344    131.9392    408.1981 307.8695853  +6.5102771     3497.848     7434.944     8274.104     77.44238      155.568      311.136      2.168     5.55     834.0714     54.89193     536.8132        38     1.883     1.166  63.72   0
       345    344.8433    408.9088 307.7811444  +6.5171650     898.1381     1837.579     1788.531     78.06242     155.6919     311.5077      2.043     7.05     829.7362     54.89193     112.4046        15     1.735     0.804  51.19   0
       346    237.1673    408.0454 307.8258907  +6.5138914     983.9049     1687.676     2096.173       77.815     155.7539       311.26      1.904     6.02     831.5178     54.89193      161.809        15     1.341     0.984  67.01   0
       347    430.4578    407.2759 307.7456438  +6.5207225     545.5665     987.1843     1063.349     78.18584     155.7539     311.3839      1.737     5.80     829.4785     54.89193     126.6639         7     1.647     0.575 -41.01   0
       348    154.1324    403.9488 307.8605126  +6.5127807     1668.613     3790.805     4328.699     77.93881       155.63     311.3529      2.325     6.06     833.4243     54.89193     227.2026        33     1.792     1.328  59.71   0
       349    818.0104    404.2559 307.5847894  +6.5349908     537.3026     990.8804     621.8777     77.44238     155.6919     311.1051      2.035     5.06     828.9648     54.89193     120.1829         6     1.561     0.463  51.36   0
       350    549.2704    403.2665 307.6964353  +6.5263753     643.6421     1324.521      1274.48     78.06242     155.8158     311.4149      1.900     4.51     828.9857     54.89193     121.5385         8     1.448     0.400  61.20   0
       351    966.0341    398.6550 307.5234990  +6.5422632     737.5703     1648.687     1674.694     77.93881     155.7539     311.4149      2.230     7.30     826.4719     54.89193      115.627        10     1.605     0.930 -77.78   0
       352    377.8276    398.6971 307.7677908  +6.5224920     1480.634     2914.531      2890.61     78.18584      155.506     311.3839      1.990     5.67     829.1608     54.89193     243.7652        20     1.596     1.008  65.23   0
       353    431.3206    392.2778 307.7457916  +6.5269436     5102.474     10551.91      11416.3     78.30907     156.0013     311.5696      2.148     5.90     828.6793     54.89193      719.688        44     1.925     1.231  60.30   0
       354     27.8584    393.0901 307.9133196  +6.5129980     2122.177     4866.242     5988.742     77.93881     155.7539     311.5387      2.460     6.41     836.1423     54.89193     353.2167        37     1.834     1.458 -88.44   0
       355    763.7468    391.3011 307.6077621  +6.5385192     1385.411     3006.622     3691.541     77.93881     155.7539     311.6624      2.459     7.86     828.9734     54.89193     204.1208        25     1.982     1.038  53.64   0
       356    772.0593    389.6744 307.6043644  +6.5394697     9228.125      18348.4     20060.51     78.18584     155.7539     311.3839      2.078     6.09     828.9386     54.89193     1354.372        51     1.876     1.271  58.95   0
       357    335.8130    388.2871 307.7855912  +6.5253743      859.773     1451.401     2167.978     77.69099      155.568     311.3219      1.907     5.37     828.9202     54.89193     106.2072        11     1.325     0.615  60.29   0
       358   1015.7954    384.8794 307.5032937  +6.5496164     2652.111     5228.419     5305.441     77.69099     155.2578     311.1671      2.007     5.15     824.6675     54.89193     372.2549        33     1.805     1.101  60.43  16
       359    180.7095    381.5644 307.8502327  +6.5229190     584.1504     908.8379      1098.72     78.18584     155.6919     311.4458      1.538     3.88     832.1633     54.89193      101.288         5     0.973     0.443  14.92   0
       360    479.6176    375.9868 307.7262829  +6.5352949     2170.104     4302.043     4486.741     77.69099      155.382     311.3219      1.987     5.56     827.8865     54.89193     331.7318        29     1.717     1.074  57.51   0
       361    451.7360    376.6259 307.7378410  +6.5340927     1575.627      2961.58     3205.166     77.69099     155.7539     311.3529      2.004     6.16     827.9042     54.89193      256.038        26     1.714     1.067  57.96   0
       362    909.1465    376.1666 307.5478815  +6.5496425     546.5114     973.8633     1234.333     77.93881     155.6919     311.3529      1.750     3.38     826.7118     54.89193     103.7476         5     1.484     0.223 -63.44   0
       363    837.3862    372.6215 307.5778054  +6.5487011     24284.64     49314.37     54450.43       77.815      155.568     311.3219      2.133     5.94     827.4803     54.89193     3676.162        79     1.993     1.425  65.00   0
       364    330.0691    369.4511 307.7886129  +6.5329571     609.7009     885.9984     781.3769     77.93881       155.63     311.3839      1.339     3.19     828.3039     54.89193     97.81372         6     0.782     0.497  -1.73   0
       365    609.1596    364.9027 307.6728549  +6.5442271     1871.589     3918.061     3579.761     78.06242       155.63     311.6315      2.068     6.51     828.1152     54.89193      271.527        26     1.769     1.013  69.74   0
       366     17.1990    365.4531 307.9186826  +6.5240473     632.5637     1074.182     1301.737     77.44238      155.382     310.9811      1.800     5.82     836.1426     54.89193     109.2184         8     1.634     0.583  67.67   0
       367    693.8464    358.5800 307.6378947  +6.5496822     56651.67     114461.7     125120.7     77.69099     155.7539      311.229      2.120     5.94     827.9088     54.89193      8362.04       106     2.027     1.460  59.63   0
       368    141.5031    364.5930 307.8670892  +6.5286020     523.4359     853.9585     1003.837       77.815      155.382     311.1671      1.874     4.14     832.7329     54.89193     86.24799         5     0.995     0.491   0.62   0
       369    851.9949    360.3991 307.5721486  +6.5542370     962.3782     1875.715     2343.544     77.44238      155.444      311.198      2.245     6.93      826.731     54.89193     121.5303        17     1.635     0.894  66.97   0
       370     73.3027    358.3463 307.8956240  +6.5288773     1056.286     1852.819     2209.116     77.93881     155.7539     311.6315      1.877     6.52     834.4191     54.89193     129.0417        14     1.479     0.808  63.79   0
       371    556.1943    355.3307 307.6951753  +6.5463986     2011.885     3894.655     4378.124     77.56679      155.382       311.26      2.027     5.66     826.8364     54.89193      298.218        31     1.744     1.192  57.02   0
       372    934.6404    354.9568 307.5380051  +6.5592532       703.83      1210.69     923.7706       77.815     155.7539      311.291      1.678     6.66     825.7903     54.89193     123.1111        11     1.634     0.763  53.42   0
       373     93.4657    354.0057 307.8873974  +6.5313505     4394.375     9189.524     9906.925     77.56679      155.506      311.229      2.117     6.14     833.7307     54.89193     590.2256        40     1.905     1.176  61.99   0
       374    539.5968    351.5274 307.7021969  +6.5474106     5243.067     10459.41     11041.69     77.56679     155.3199       311.26      2.073     5.39     826.5029     54.89193     827.4235        42     1.832     1.230  61.65   0
       375    268.6645    348.9477 307.8148076  +6.5393518     1815.931     3677.514     3038.087     78.06242     155.6919     311.3839      2.071     5.86     829.3127     54.89193     271.4833        26     1.769     1.023  59.11   0
       376    402.4731    346.6100 307.7593137  +6.5448262      17770.2     37414.61     41292.26     77.56679      155.382      311.291      2.175     5.98     826.4676     54.89193     2585.619        72     2.012     1.403  60.92   0
       377    510.4879    346.6493 307.7144512  +6.5484455     1017.932      1642.51     1885.577     78.06242      155.568     311.5077      1.907     4.01     826.3737     54.89193      177.153        11     1.043     0.900 -19.80   0
       378    383.1611    344.8381 307.7673942  +6.5449073      803.835     1551.739     2704.831       77.815       155.63      311.291      3.503     6.08     826.5793     54.89193     120.6949        11     1.241     0.838  82.21   0
       379    481.7527    342.2269 307.7265348  +6.5493045     904.3046     1734.108     1358.364     77.69099     155.8158     311.3529      1.858     6.55     826.2369     54.89193     112.6992        14     1.390     0.867  69.04   0
       380    633.5944    339.7865 307.6635523  +6.5554175     528.9527     959.1553     1711.084     77.69099      155.506      311.291      1.963     2.76     826.8721     54.89193     88.00476         5     0.718     0.455  70.56   0
       381    491.6143    337.0481 307.7226137  +6.5517744     5972.928     12509.11     13514.03     77.44238     155.6919      311.136      2.144     5.79     825.8796     54.89193     840.9126        45     1.864     1.260  63.91   0
       382    760.6209    335.8263 307.6109263  +6.5613175     2443.073     4727.221     5519.063     77.69099      155.568     311.3529      2.111     5.67     827.0454     54.89193     342.9588        29     1.747     1.033  57.13   0
       383    916.0051    335.3375 307.5464041  +6.5667290     675.4945     1127.903      1708.83     77.44238      155.506      311.198      2.110     6.07     825.4432     54.89193     141.6051         9     1.457     0.711  57.09   0
       384    709.1757    335.7277 307.6322970  +6.5596316     672.1665     1143.951     1484.436     77.69099       155.63     311.3529      1.753     4.29     826.9194     54.89193     111.6813         7     1.183     0.444  67.82   0
       385    318.4629    334.4425 307.7946157  +6.5470191     845.5528     1224.292     1233.867     78.06242     155.6919     311.4767      1.669     4.84     827.6943     54.89193     115.8383         8     0.971     0.683  47.57   0
       386    154.2840    328.4269 307.8630051  +6.5439643     704.6753     1414.625     1294.895     78.18584      155.506      311.291      1.780     3.84     831.3416     54.89193     96.62823         6     0.937     0.451 -89.59   0
       387    237.2955    321.9414 307.8287487  +6.5494432     1528.667     3175.819     2941.741     77.93881     155.7539     311.5387      2.112     6.10     829.3207     54.89193     184.6939        25     1.697     1.064  65.43   0
       388    381.4952    321.1938 307.7688844  +6.5546127     5264.406     10817.18     12014.36       77.815      155.444      311.229      2.148     5.76     826.1669     54.89193     751.3234        47     1.920     1.245  57.16   0
       389    735.2581    321.5853 307.6219398  +6.5663459     673.8823     1185.471     1023.059     77.44238     155.6919     311.1671      1.601     4.88     826.5291     54.89193      138.276         8     1.274     0.541  75.31   0
       390    749.3301    317.1528 307.6162441  +6.5686481      38600.8     77518.23      84297.1     78.06242     155.6919     311.4149      2.105     5.68     826.3669     54.89193     5868.043        83     1.963     1.381  61.23   0
       391    420.9995    316.6487 307.7526305  +6.5578195     1653.268     3336.811     3600.687     77.31777      155.382     310.9811      2.208     5.64     825.3835     54.89193     228.3741        26     1.667     1.106  70.12   0
       392    925.2689    313.6335 307.5432853  +6.5760001     1717.197     3295.503     3825.788     77.93881     155.7539     311.4767      2.109     6.31     824.7529     54.89193     246.9609        25     1.730     0.978  63.51   0
       393    984.6597    314.9940 307.5185710  +6.5774273     1049.012     2091.627     1875.033     77.44238       155.63      311.198      2.013     4.15     822.8264     54.89193     157.9762        10     1.030     0.832 -31.07   2
       394    567.2407    313.9995 307.6919804  +6.5638336     962.1334     1892.781     1440.325     77.44238      155.444      311.136      1.866     6.68     824.4272     54.89193     131.0823        15     1.531     0.899  74.16   0
       395    458.3763    308.3152 307.7373878  +6.5625183     692.9661     1593.733     2290.435     78.06242      155.506     311.3219      3.219     6.43     824.5505     54.89193     119.1263        10     1.459     0.796 -84.53   2
       396    407.5864    312.6653 307.7583358  +6.5590124     1491.139      3012.54     3523.555     77.56679      155.568     311.3529      2.371     5.33     825.4827     54.89193     198.7662        23     1.558     0.987  60.95   0
       397    829.1339    308.6870 307.5833820  +6.5748203     706.1589     993.0076     1242.098     78.06242     155.9395     311.4149      1.792     3.48     825.6489     54.89193     148.5516         8     1.017     0.639  44.89   2
       398    438.5454    304.9315 307.7457385  +6.5632476     787.3979     1401.908     2120.208     78.06242     155.6919     311.3839      2.598     4.08     824.7054     54.89193     104.9908         8     0.984     0.600 -46.28   0
       399    183.9765    303.4775 307.8515176  +6.5552667     1566.063     3408.353     3783.087     77.69099       155.63     311.3839      2.242     7.48     829.9871     54.89193     228.2594        25     1.754     1.081  64.94   0
       400    747.8118    301.7328 307.6173935  +6.5749635     4453.349     8926.142     10674.83     77.56679       155.63     311.3219      2.199     5.70     825.8314     54.89193     670.6429        43     1.875     1.222  63.90   0
       401    338.6316    302.0551 307.7873333  +6.5610699     584.7902     864.1271     570.8195     77.93881     155.8158     311.3839      1.644     4.73     826.6865     54.89193       87.867         5     0.977     0.651   2.19   0
       402     80.3187    300.7936 307.8946593  +6.5528743     700.7895     1505.093     1595.515     77.69099     155.3199      311.229      2.491     6.95     832.6583     54.89193     121.2891        13     1.684     0.804  38.62   0
       403    764.1900    299.6352 307.6106613  +6.5763791     1835.873     3603.693     3392.715     77.56679      155.506      311.198      1.996     6.23     825.7599     54.89193     307.6694        25     1.722     1.042  50.85   0
       404    353.6671    294.3290 307.7813495  +6.5647662     1392.499     3193.129     3498.703     78.06242     155.8776     311.4149      2.334     7.78     826.4088     54.89193     152.5491        27     1.688     1.227  36.90   0
       405     67.5254    294.9237 307.9001713  +6.5548653     1013.172     2140.725     2695.508     78.30907     156.0013     311.4767      2.322     7.36     832.7714     54.89193     118.3849        17     1.822     0.833  63.10   0
       406   1002.4362    290.6819 307.5120032  +6.5880599     4302.669     8486.952     9553.693     78.06242     155.7539     311.3839      2.064     6.11     821.3293     54.89193     699.8423        39     1.821     1.182  58.26   0
       407    480.5942    290.4217 307.7287635  +6.5706533     1384.684     2896.932     3302.814     77.69099      155.506      311.229      2.219     7.81     823.1416     54.89193     201.1001        22     1.687     1.011  52.61   0
       408    252.1031    288.3613 307.8237341  +6.5638060     464.6688     635.2271     1430.046     78.06242       155.63     311.5696      1.546     3.39     828.1819     54.89193     82.23792         5     0.771     0.431  19.39   0
       409    243.0111    285.8834 307.8275940  +6.5645223      4102.07     8884.902     9613.897     77.69099      155.506       311.26      2.182     5.79     828.4604     54.89193     598.7481        45     1.825     1.360  62.63   0
       410    762.7897    280.4259 307.6118891  +6.5842628     561.2128     1099.858      1465.03     77.69099      155.568      311.291      1.679     4.14     824.9695     54.89193     106.0667         5     0.997     0.490  -4.41   0
       411    377.3714    276.6310 307.7721019  +6.5728714     1221.947     2366.356     2388.964     77.56679      155.506      311.198      2.073     6.93     825.3423     54.89193      192.634        18     1.809     0.745  67.19   0
       412    964.2719    276.5076 307.5283314  +6.5926342     876.7642     1423.963     1916.305     77.93881     155.8776     311.4149      1.874     5.85     822.1559     54.89193     122.9678        10     1.460     0.660  54.28   0
       413    299.6134    273.2700 307.8045115  +6.5716384     889.0613     1441.707     1182.319     77.56679      155.506      311.291      1.766     5.97     826.6325     54.89193     135.5391        12     1.316     0.762  59.61   0
       414    146.9844    272.6240 307.8679253  +6.5667555     1327.544     2697.676     2863.014       77.815      155.568     311.3529      2.037     6.55     830.1503     54.89193     194.5964        22     1.781     0.930  54.36   0
       415    556.6016    268.1490 307.6979448  +6.5824054     1657.086     3212.702     3684.409     77.44238      155.382     311.0121      1.975     5.61     822.4628     54.89193     244.3503        25     1.721     0.984  67.80   0
       416    900.7102    268.4917 307.5550025  +6.5938146     1207.805     2348.552     2573.735     78.06242     156.2483     311.5077      2.176     4.73     823.0316     54.89193     241.3176        12     1.406     0.628  29.52   2
       417    720.1531    265.7521 307.6300926  +6.5888900     3794.348     7418.848     7789.124     78.06242       155.63     311.4148      2.059     6.01     824.1084     54.89193     540.8292        38     1.782     1.142  64.64   0
       418    661.1732    265.9342 307.6545846  +6.5868342     1536.421     3085.325     3268.344     77.69099     155.6919     311.3219      2.110     5.67     823.2909     54.89193     222.9221        23     1.590     1.000  69.18   0
       419    916.2130    258.3582 307.5489034  +6.5985177     701.5172     1267.038     1573.279     77.44238      155.568     311.1671      2.108     4.93     822.2264     54.89193     99.20074         8     1.372     0.502  70.10   0
       420    219.8560    251.4368 307.8383761  +6.5779621     1624.532     3257.336     3512.947     77.93881     155.7539     311.4458      2.079     5.69     828.4363     54.89193     233.2377        23     1.638     0.997  73.52   0
       421    862.4621    250.2701 307.5715021  +6.6000556     1255.909     2481.803      2643.87     78.06242     155.7539     311.4767      2.049     5.14     822.6728     54.89193     242.1525        20     1.683     0.929  57.40   0
       422    752.9663    250.0848 307.6169902  +6.5964596     1195.045     2192.336     2520.786     78.06242       155.63     311.3839      1.978     5.76     823.6441     54.89193     194.8211        15     1.592     0.906  63.17   0
       423    453.6542    240.9953 307.7416207  +6.5901522     16049.48     33438.24     37274.49     77.44238      155.506     311.1051      2.158     5.44     821.9365     54.89193     2215.571        71     1.991     1.465  62.80   2
       424    459.5308    236.3733 307.7393358  +6.5922582     1145.103     2192.188     2452.515     77.69099       155.63     311.3219      2.237     5.95     821.5859     54.89193      151.249        16     1.383     1.042  61.95   3
       425    779.6294    240.1254 307.6062500  +6.6014661     9314.222     19389.71     22108.78     77.93881     155.7539     311.4149      2.194     5.88     823.2023     54.89193     1359.484        63     1.887     1.533  55.33   0
       426    141.9601    234.5080 307.8713022  +6.5823215     1656.639     3497.797     3808.922     78.18584     155.6919     311.4767      2.281     6.29     829.8264     54.89193     260.1903        25     1.893     0.942  68.17   0
       427    116.8607    233.5399 307.8817597  +6.5818735     741.9291     1666.759     1787.428     78.06242     155.7539     311.4458      2.651     7.27     830.5574     54.89193     98.17914        14     1.792     0.825  77.62   0
       428    916.9182    231.5428 307.5495112  +6.6096123     1037.295     1808.115     2066.712     78.18584     155.7539     311.4458      1.923     5.93     820.6465     54.89193     125.6623        14     1.350     0.775 -70.22   2
       429    915.3008    229.0446 307.5502670  +6.6105895     748.0317     1012.316     1430.938     78.06242     155.6919     311.6315      1.391     3.46     820.5088     54.89193     100.0323         5     0.829     0.418 -70.88   3
       430    577.6464    226.6496 307.6906024  +6.6002460         3413     6848.367     6958.391     78.06242       155.63     311.4458      2.095     6.29     821.9255     54.89193     498.5365        34     1.865     1.139  62.77   0
       431    540.4881    226.8038 307.7060317  +6.5989329     1530.489     2980.002     2922.904     77.56679      155.444     311.1051      1.941     5.41     821.8197     54.89193     246.1738        21     1.691     0.890  70.01   0
       432    298.5589    228.9846 307.8064462  +6.5898858     665.9246     1352.735     1358.581     77.56679      155.568      311.198      2.207     3.20     826.1545     54.89193     117.1885         6     0.792     0.495  86.20   2
       433    884.8263    223.4797 307.5631127  +6.6118659     8405.909     16363.61     17879.67     77.93881       155.63     311.4149      2.049     6.00     820.8766     54.89193     1274.445        53     1.918     1.263  64.06   0
       434    382.2077    226.1819 307.7717968  +6.5938620     1016.391     2101.094     2343.016     77.69099      155.506       311.26      2.086     5.48     823.6165     54.89193     158.5235        15     1.450     0.788  55.66   0
       435    938.6580    224.0457 307.5407326  +6.6134358     2010.735     3904.439     4035.085     78.06242     155.7539     311.5077      2.030     5.77     819.9379     54.89193     299.7078        24     1.782     0.959  57.51   0
       436    971.3379    221.2285 307.5272522  +6.6156934     6854.279     13827.31     14858.85     77.69099     155.7539     311.3839      2.087     5.82     819.8322     54.89193     1080.518        46     1.890     1.186  60.46   0
       437    682.8300    221.2582 307.6470934  +6.6060063       2206.5     4468.746     5493.199       77.815     155.7539     311.3219      2.334     5.45     821.9501     54.89193     308.3259        35     1.853     1.157  65.42   0
       438    312.4327    223.1152 307.8008820  +6.5927767     760.7203     1707.119     1952.663     78.06242      155.568     311.3839      2.365     6.01     825.7245     54.89193     97.66779         9     1.514     0.670  61.18   0
       439     10.9018    219.8012 307.9262338  +6.5839644     17904.48     37863.45     41795.39     77.56679      155.382     311.0741      2.173     5.67     832.9103     54.89193     2367.779        74     2.003     1.422  61.52  16
       440    257.3090    221.3841 307.8238364  +6.5916326     859.7858     1502.916     1779.382       77.815      155.568      311.291      2.005     6.20     827.0735     54.89193     118.1882        11     1.453     0.812  46.16   0
       441    491.3376    215.7361 307.7268205  +6.6018487     1429.837     2947.371     2832.582     78.06242     155.7539     311.4458      2.010     7.70     820.5535     54.89193     202.0092        22     1.775     0.934  62.68   0
       442    823.2306    212.6547 307.5890627  +6.6142701     1479.113     2776.467     2772.056     77.93881     155.8158     311.3839      1.952     6.58     821.7702     54.89193     260.9775        20     1.759     0.821  58.93   0
       443    503.6429    212.0345 307.7218342  +6.6037910     1736.612     3609.038     3670.207       77.815     155.7539       311.26      2.067     5.92     820.6669     54.89193     289.0363        26     1.742     1.013  59.56   0
       444    875.4802    211.7119 307.5673904  +6.6164111     1496.114     3094.899     3779.373       77.815     156.0013     311.5387      2.360     6.08     820.7586     54.89193     250.0303        23     1.642     1.040  60.80   0
       445    734.9080    209.3092 307.6258633  +6.6126880     28866.53     58012.59     62910.82     78.06242     156.2483     311.4767      2.096     5.79     822.0498     54.89193     3821.706        79     1.963     1.396  58.16   0
       446    337.9650    208.6402 307.7907660  +6.5996132     4599.898      10957.6     13049.96       77.815     155.7539      311.229      2.537     7.10     824.8295     54.89193     557.1108        61     2.314     1.473 -89.95   0
       447    968.6783    208.2607 307.5287924  +6.6209582     2066.668     3962.778     4324.989     78.18584     155.8158     311.3839      2.032     5.82      819.427     54.89193     296.9132        28     1.724     1.101  61.66   0
       448    902.7842    206.4356 307.5562258  +6.6195044     5564.168     10916.29      11889.5     77.69099      155.506      311.229      2.030     6.14     820.0695     54.89193      813.074        40     1.801     1.155  60.14   0
       449   1007.1539    206.7678 307.5128599  +6.6228627     1276.058     2506.009     1840.967       77.815     155.7539     311.3219      1.990     6.61     819.1843     54.89193     170.3478        21     1.829     0.864  51.52   0
       450    446.3490    205.5473 307.7458513  +6.6045409     3799.357     7837.221     9075.336     78.18584       155.63     311.4458      2.238     6.13     821.0894     54.89193     547.2742        44     1.933     1.304  59.76   0
       451    221.2292    203.2850 307.8394344  +6.5978874     671.3954     1119.475     1258.064     78.06242      155.444       311.26      1.928     4.23     827.6293     54.89193     96.77661         6     0.784     0.651  87.64   0
       452    103.6074    196.7283 307.8885109  +6.5966229     3366.773     7099.824     7889.354     77.56679     155.2578     311.3529      2.146     6.02     830.1698     54.89193     471.3671        37     1.859     1.174  66.55   0
       453    923.0178    196.4153 307.5481575  +6.6243193     750.7714     1379.606     1635.966       77.815      155.444     311.3529      2.050     6.21      819.505     54.89193      129.381        11     1.322     0.819  57.17   0
       454    274.0438    193.4011 307.8178315  +6.6037495     24082.49     50053.51     54784.47     77.44238      155.444     311.0431      2.148     5.65     826.5643     54.89193     3188.087        80     2.001     1.426  62.28   0
       455    249.2959    194.5863 307.8280708  +6.6024255     4720.573     9607.771     10646.12       77.815      155.506      311.198      2.117     5.51     827.0304     54.89193     673.1678        43     1.834     1.242  65.78   0
       456    600.4994    195.4014 307.6821629  +6.6139151     559.3563     1165.012     1602.765     77.56679      155.506      311.136      2.307     5.25      820.618     54.89193     100.4299         5     1.331     0.586  65.90   0
       457    703.4284    193.4809 307.6394723  +6.6181659     705.8775     1447.059     1905.882     77.93881      155.568     311.3839      2.097     7.15      821.484     54.89193     87.30334        11     1.565     0.915  55.95   0
       458    398.0852    188.9250 307.7664599  +6.6097781      35514.3     73594.06      81062.9     78.18584     156.0631     311.4767      2.187     5.78     822.1896     54.89193     5013.943        91     2.022     1.445  61.82   0
       459    154.0865    190.0889 307.8677690  +6.6010689     2862.802     6124.192     6707.811       77.815     156.1866     311.5387      2.170     6.07     828.6086     54.89193     363.0747        35     1.859     1.165  59.92   0
       460    415.4129    189.7400 307.7592349  +6.6100252     1009.689     2148.928     2074.009     77.44238     155.6919     311.1051      2.157     6.94      821.489     54.89193     124.1951        15     1.543     0.876  72.77   0
       461    302.1158    186.6215 307.8064005  +6.6074950     13000.89      26782.5     29551.71       77.815      155.444      311.291      2.142     5.75     825.8323     54.89193     1793.784        61     1.983     1.335  61.70   2
       462    309.4537    186.7091 307.8033496  +6.6077063     1571.035     3550.858     5037.141     77.93881      155.568     311.5387      2.778     6.24     825.5937     54.89193     242.6122        27     1.793     1.128  61.21   3
       463    737.3812    185.2012 307.6256473  +6.6227241     24072.02     48199.52     52744.65     77.69099     155.3199      311.136      2.087     5.73     821.3465     54.89193      3512.17        72     1.952     1.345  62.49   0
       464    685.9103    188.4250 307.6469193  +6.6196650      710.313     1206.788     1355.725     78.18584      155.568       311.26      1.852     4.30     821.3365     54.89193     136.7219         9     1.165     0.696  22.54   0
       465    785.9037    186.3766 307.6054517  +6.6238671     884.5016     1569.701     1975.286     78.18584      155.506       311.26      1.909     4.83     821.3763     54.89193     151.8425        11     1.287     0.727  59.93   0
       466     25.1217    185.7600 307.9214814  +6.5984985      403.946     784.7964     673.9593     77.93881     155.7539     311.4148      1.807     5.68     833.3242     54.89193     70.53436         6     1.379     0.659  46.17   0
       467     54.1894    182.3497 307.9095237  +6.6008890      6573.78     13660.72     15312.12     77.44238       155.63     311.1051      2.145     5.99     832.0439     54.89193     919.3873        48     1.925     1.248  58.53   0
       468     88.2916    180.4572 307.8954234  +6.6028227     1033.679     2016.301     1964.256     77.93881     155.6919     311.5077      2.055     6.96     830.4052     54.89193     168.2733        14     1.698     0.800  57.15   0
       469    996.5143    180.6167 307.5181573  +6.6333032     905.0623     1316.759     1796.321     77.69099      155.506     311.3529      1.696     3.47     818.1998     54.89193     141.9871         7     0.863     0.635  32.07   0
       470    571.5271    170.3173 307.6950431  +6.6232971     730.0349     1300.854     1396.272     78.30907     156.0631     311.4458      2.058     5.12     819.5541     54.89193     101.7009         8     1.269     0.585  59.44   0
       471    997.3963    166.8389 307.5182535  +6.6390210     1576.809     2756.157     3078.007     77.19297      155.506      311.198      1.999     3.36     817.6397     54.89193     266.0446        14     1.203     0.750  85.65   3
       472    995.3867    164.3072 307.5191732  +6.6399990     1076.804     1405.943     2292.696       77.815      155.506      311.229      1.486     3.21     817.5574     54.89193        160.9         9     0.842     0.805 -35.54   3
       473    579.8917    164.0131 307.6917810  +6.6261810     906.0455     1710.912     2099.717       77.815      155.506      311.198      2.113     6.67     819.2988     54.89193      117.225        15     1.282     0.975  73.10   0
       474    588.1500    161.2678 307.6884431  +6.6275921     1341.531     2767.656     3254.548     77.93881       155.63     311.4149      2.176     6.64     819.1711     54.89193      208.518        23     1.733     0.959  66.78   0
       475    332.4538    162.2129 307.7946239  +6.6185946     759.9971     1242.818     1484.854     77.44238     155.6919     311.1671      1.921     5.14     824.5763     54.89193     117.9106         8     1.283     0.583 -74.60   0
       476    272.9232    159.7022 307.8194363  +6.6176240     21842.83        45634     50670.07     77.69099     156.0013     311.4458      2.172     5.84     826.4039     54.89193     2923.259        75     1.975     1.438  60.51   0
       477     18.2245    158.1729 307.9252811  +6.6096541     3213.903      6650.77     7516.604     77.56679      155.568       311.26      2.183     5.78     834.2659     54.89193     415.6668        36     1.838     1.186  58.08   0
       478    704.5102    156.2827 307.6402752  +6.6335596     5700.368     11586.02     12802.79       77.815     156.0013     311.5077      2.147     6.07     820.4545     54.89193     857.8606        42     1.884     1.170  58.78   0
       479    181.9286    157.5674 307.8573051  +6.6154349     618.1987     1266.139     1319.165     77.93881     155.7539     311.3839      2.095     6.70     827.4853     54.89193     87.35834         8     1.595     0.789  48.01   0
       480    115.3941    153.4335 307.8850813  +6.6148947     3543.714     7166.451     7889.302     77.44238      155.568      311.198      2.093     5.56     828.6574     54.89193     512.3235        37     1.862     1.141  64.95   0
       481    454.5512    152.3269 307.7442404  +6.6267889     910.3568     1834.121     2385.004     78.06242     155.8158     311.4458      2.607     4.71     819.5134     54.89193     144.5082        11     1.234     0.823 -81.56   2
       482    386.1639    149.4554 307.7727446  +6.6256713     2947.291     6177.533     6803.442     77.93881     155.7539     311.4458      2.200     6.48     821.9819     54.89193     361.7386        41     2.040     1.218  63.96   0
       483    350.5231    148.4552 307.7875830  +6.6248834     2403.652     4598.859     4914.575     78.06242     155.7539     311.4149      2.014     5.76     823.8445     54.89193     342.8488        27     1.723     1.003  61.32   0
       484    105.1872    148.4652 307.8894891  +6.6166010     1318.994     2636.408     2901.589     77.56679      155.568     311.3219      2.131     7.14     828.6493     54.89193      173.459        21     1.635     1.050  60.67   0
       485    666.3232    146.7106 307.6564605  +6.6362290     640.3868     1162.947     1678.934     78.06242     156.0013     311.4767      2.000     5.89     819.8983     54.89193     85.27557         8     1.254     0.780  55.99   0
       486    997.1824    142.9201 307.5191452  +6.6488889     1073.816     2124.298     2605.861     77.69099      155.444     311.3219      2.260     6.64     816.2737     54.89193     193.0837        16     1.813     0.722  59.54   0
       487    202.3615    137.2376 307.8495057  +6.6245175     4066.215     8212.433     8471.629       77.815       155.63      311.291      2.100     5.87     826.8239     54.89193     535.6567        39     1.815     1.227  59.82   0
       488     85.1982    136.9022 307.8981835  +6.6206992     1504.117     3157.072     3901.847     77.56679      155.506     311.1051      2.296     5.89     829.1389     54.89193     218.4811        29     1.736     1.201  57.55   0
       489    664.0723    136.1567 307.6577510  +6.6405105     4595.828     9451.188     9859.211     77.93881     155.8158     311.4458      2.112     6.08     819.2602     54.89193     649.2357        38     1.831     1.150  59.02   0
       490    616.3347    133.4409 307.6776729  +6.6400278     6893.345     14110.13     15858.45     78.06242     155.6919     311.5077      2.187     5.74     818.5036     54.89193     939.3083        52     1.988     1.288  65.31   3
       491    619.8236    124.9389 307.6765101  +6.6436551     38043.52     78102.38     85703.66     77.69099     155.6919     311.3219      2.147     5.60     818.2935     54.89193     5338.417        94     2.009     1.449  60.87   2
       492    251.3438    134.1225 307.8292649  +6.6274564     590.9343     944.5017     720.3269     78.06242     155.7539     311.3839      1.596     4.88     826.3862     54.89193      87.8175         7     1.390     0.485 -52.18   0
       493     15.1308    132.6685 307.9274306  +6.6200785     730.2571     1621.047     1646.967     78.06242     155.8776     311.3839      2.136     6.31     834.2885     54.89193     110.7076         9     1.905     0.588  88.61   0
       494    343.4621    129.2460 307.7911651  +6.6325758     2597.276     5731.055     6313.664     77.93881       155.63     311.4767      2.289     5.68     824.1002     54.89193     355.4803        43     1.858     1.475  58.15   0
       495    134.0829    132.5435 307.8780258  +6.6241501      3209.83     3082.046     3100.557     78.06242     155.7539     311.5077      0.668     0.62     827.3326     54.89193     1578.828         5     0.498     0.341 -87.84   0
       496    990.1728    129.1373 307.5225199  +6.6543446     773.1896     1445.084     1944.281     77.69099     155.7539     311.3529      2.172     4.90     815.5607     54.89193     94.13184         9     1.264     0.537 -60.98   0
       497    525.2753    128.3901 307.7156696  +6.6390511     1237.486     2602.609     2495.536     77.69099      155.382      311.229      2.032     6.63     818.2725     54.89193      210.772        19     1.771     0.847  59.12   0
       498    298.9269    118.5595 307.8100257  +6.6354863     2481.979      5434.57     6178.257     77.93881     155.8158     311.4767      2.272     5.78      825.454     54.89193     352.4484        38     1.949     1.242  53.86   0
       499    699.1597    113.2451 307.6439469  +6.6511481     743.7385     1457.848     1725.104       77.815     155.7539      311.291      2.052     7.29     817.9682     54.89193      101.793        13     1.376     1.081  47.49   0
       500    670.1937    111.9079 307.6560248  +6.6507273     898.7018     1912.958      1847.12     77.69099      155.444      311.229      2.050     6.85     817.9637     54.89193     127.4866        14     1.719     0.766  60.93   0
       501    684.1072    108.9033 307.6503461  +6.6524351     2466.408     4751.789     4831.801     78.06242     156.2483     311.3529      2.014     5.63     817.7681     54.89193     406.3149        28     1.820     0.969  57.47   0
       502      2.2980    101.1399 307.9338297  +6.6326604     20042.65     38963.29     52575.12     77.06796       137.12     249.5742      2.662     7.87      835.306     54.89193     4011.733       152     3.700     1.749 -86.75  24
       503    425.9685     99.8968 307.7578834  +6.6474719     2883.872     5908.055     6253.668     78.18584      155.568     311.5077      2.092     6.28     818.9486     54.89193      402.301        34     1.805     1.132  56.17   0
       504    898.5449     95.3486 307.5617196  +6.6652254     2923.052     5566.958     5501.206     78.06242     155.7539     311.4149      1.967     6.22     815.6277     54.89193     461.2902        32     1.834     0.992  58.27   0
       505    880.4897     96.2793 307.5691890  +6.6642360     1560.037     3067.045     2869.252       77.815     156.0013     311.5077      2.028     6.17     815.9741     54.89193     242.1467        22     1.681     0.949  59.45   0
       506    579.2418     96.2029 307.6943368  +6.6541545     618.5449     1326.822     1257.544     77.44238      155.444      311.136      2.260     5.45     817.4009     54.89193     90.72662         8     1.426     0.589  81.90   0
       507    590.6481     93.8991 307.6896761  +6.6554891     1245.159     2525.941     2616.002     78.06242     155.6919     311.6006      2.041     7.26     817.3383     54.89193     162.6528        18     1.592     0.926  64.39   0
       508    389.4507     92.1164 307.7733158  +6.6494540     1454.504     2987.638     3176.447     78.06242     155.6919     311.5077      2.122     6.08     821.1207     54.89193     209.0065        24     1.641     1.065  68.45   0
       509    236.7366     93.1563 307.8367181  +6.6438760     668.3954     1222.528     1528.072     78.06242     155.6919     311.4458      1.869     3.94     826.0375     54.89193     103.8899         7     1.443     0.308  51.69   0
       510    137.3843     88.5874 307.8781428  +6.6424081     2275.491     4603.195     4731.937     77.93881      155.444     311.3529      2.115     6.13     825.7326     54.89193     298.8041        31     1.865     1.089  55.58   0
       511    285.6865     87.0831 307.8165898  +6.6480344     1086.215     2085.521     3303.002       77.815     155.9395     311.4767      3.076     6.91     825.5671     54.89193     134.2067        18     1.516     1.090  74.82   0
       512     19.1770     86.2942 307.9273219  +6.6393599      8948.35     18831.43     21301.47     78.06242      155.568      311.291      2.220     5.67     832.3939     54.89193     1248.176        60     1.968     1.415  61.91   0
       513    547.2163     86.6801 307.7079618  +6.6570090     610.7133     1192.586     1244.052     77.69099      155.506       311.26      1.811     4.65     817.0876     54.89193     113.3837         5     1.262     0.487 -66.91   0
       514    765.9052     81.4725 307.6172888  +6.6665060     2383.188     4640.379     5303.132     77.93881     155.8158     311.4458      2.085     6.10     816.2305     54.89193     331.0125        31     1.873     1.054  60.59   0
       515    820.9599     81.0485 307.5944316  +6.6685281     4524.411     9191.442     10073.82     77.93881     155.7539     311.3219      2.152     6.35     815.7768     54.89193     606.9001        42     1.846     1.234  63.44   0
       516    753.3419     82.9184 307.6224592  +6.6654875     520.2369     1102.536     1746.015     78.18584     155.7539     311.4458      3.298     3.06     816.4285     54.89193     85.74847         5     0.863     0.473  86.72   0
       517    411.1425     82.5057 307.7646295  +6.6541524     801.8784     1471.704     1989.035     77.93881     155.7539     311.5696      2.175     3.91     819.3477     54.89193      119.537        10     1.017     0.700  60.64   0
       518     44.3929     80.5343 307.9170429  +6.6425904     753.7078     1168.784     968.6213     77.56679      155.506       311.26      1.565     3.99     829.9448     54.89193     122.3991         6     0.994     0.458  55.25   0
       519    528.2373     79.6511 307.7160830  +6.6592725     877.0485     1556.575     2011.454       77.815     155.6919     311.3839      1.708     5.47     816.9416     54.89193     109.9705        10     1.304     0.647  41.10   0
       520     59.4857     78.2149 307.9108521  +6.6440581     2444.696     4885.957     5479.677     77.69099      155.506     311.3219      2.092     5.92     828.6387     54.89193     333.4378        29     1.839     1.013  61.45   0
       521    421.1191     78.5634 307.7606182  +6.6561160     703.4028     1328.129     1536.937     77.93881     155.8158     311.4149      2.108     3.17     818.7098     54.89193     116.7834         7     0.984     0.565  73.48   2
       522    583.9190     76.6369 307.6930534  +6.6623895     737.5071     985.4102     1256.976     78.06242     155.8158     311.3839      1.344     4.83     816.7613     54.89193     127.9666         9     1.415     0.520  -1.80   2
       523    583.1421     73.4177 307.6934847  +6.6636924     729.2304     1106.226     1139.514     77.69099     155.6919     311.1671      1.636     5.76     816.6261     54.89193     85.28625        10     1.253     0.746  30.87   3
       524      2.2671     73.9910 307.9347630  +6.6438671     1944.605     3146.265     3971.515     76.69171      136.768     248.8779      1.857     5.96     832.1154     54.89193     269.9597        19     1.448     0.928  75.16  24
       525    760.3481     68.9380 307.6200192  +6.6714944     1580.244     3085.222     3583.432     78.06242     155.6919     311.3839      2.058     6.70     815.9128     54.89193     217.2285        21     1.614     0.993  58.39   0
       526    401.4206     69.8890 307.7690941  +6.6590336     745.8969       1470.1     1169.469     77.93881      155.506      311.291      2.047     3.92     819.9901     54.89193     126.2795         7     1.060     0.694  54.47   2
       527     74.9439     70.0043 307.9047092  +6.6479702     703.2003     1221.403     911.0179     77.44238      155.568      311.136      1.541     4.26     827.1918     54.89193     115.0215         6     1.157     0.447 -55.91   0
       528     98.9107     68.1269 307.8948172  +6.6495552     678.8246     944.9438      1093.92     78.06242     156.0013     311.4148      1.334     3.85     825.8464     54.89193     115.1697         5     0.792     0.537  38.09   0
       529     87.2893     62.4704 307.8998362  +6.6514976     6964.016      14126.6      15605.4     78.06242     156.0013     311.4149      2.168     5.49     826.2893     54.89193     989.4243        52     1.975     1.294  60.65   0
       530    416.3698     62.5980 307.7631302  +6.6625472     1945.761     3792.651     4038.847     77.56679      155.568      311.229      2.070     5.43     818.6316     54.89193     295.0326        28     1.869     0.942  54.82   0
       531    244.0179     43.3164 307.8353792  +6.6646974     2275.442     4496.799     5592.386     77.69099      155.444     311.3529      2.239     5.27     825.6129     54.89193     290.5708        33     1.730     1.208  66.88   2
       532    253.8024     56.8961 307.8308554  +6.6594212     1172.966     2471.492     3812.003     77.69099      155.444     311.1051      3.703     8.20     825.6749     54.89193     174.4844        23     2.097     0.897  51.39   3
       533    247.8467     51.0777 307.8335262  +6.6616224     1328.102     2830.831     4213.988     77.93881     155.8158     311.4148      2.692     6.79     825.6588     54.89193     181.0312        21     1.942     0.910  66.12   3
       534    629.9768     54.6157 307.6746619  +6.6730291     13424.52     27012.73     29748.08       77.815      155.568     311.3219      2.110     5.92     815.9749     54.89193     1867.705        60     1.933     1.319  61.14   0
       535    938.8725     54.2137 307.5463480  +6.6835593     474.2171     882.2532     831.4106     77.56679      155.506      311.229      1.810     4.70     813.2381     54.89193     73.49963         6     1.546     0.406  57.65   0
       536    529.7157     50.6482 307.7164471  +6.6712959     3881.514     7803.844      8492.94     78.06242     155.7539     311.4458      2.097     5.36     816.0868     54.89193     578.7933        39     1.939     1.157  60.10   0
       537    616.2391     45.0070 307.6806929  +6.6765343     2707.596     5391.949     7103.394     77.44238      155.444      311.136      2.383     6.42     815.6675     54.89193     383.9711        39     2.270     1.060  68.21   0
       538    435.3156     46.2645 307.7558112  +6.6699284     16457.55     33910.05     37458.62     78.18584     155.8776     311.4767      2.156     5.86     817.8109     54.89193     2314.994        69     1.983     1.371  62.69   0
       539    744.4431   1010.0272 307.5949756  +6.2824233     5717.992     12033.12     13527.04     77.69099     155.8158     311.3219      2.198     5.43     847.6477     54.89193     824.7992        52     1.969     1.340  57.10   0
       540    520.9776     47.3181 307.7201895  +6.6723767     663.1655     1254.647     2091.345       77.815      155.444     311.3529      2.552     4.74     816.0991     54.89193     89.56244         7     1.059     0.664  65.67   0
       541    316.6309     48.0156 307.8050560  +6.6652064     813.9525     1151.925     1696.689     77.69099      155.506     311.3529      1.504     4.91     824.9259     54.89193     121.7354         8     1.038     0.667  59.03   0
       542     21.1291     46.0867 307.9278739  +6.6560247     1514.936     3522.996     3497.235     78.18584     156.0013     311.4458      2.228     7.78     827.7115     54.89193     246.1085        26     1.949     0.993  58.48   0
       543    297.2907     42.4548 307.8132781  +6.6668500     769.4466     1387.134     2246.864     77.93881       155.63     311.5387      1.599     5.03     825.3711     54.89193     149.9378         8     1.350     0.529 -53.95   2
       544    933.4963     36.3944 307.5491802  +6.6907359      727.605     1413.232     1209.814       77.815      155.444      311.198      1.916     7.27     812.8617     54.89193     114.6243        14     1.696     0.872  62.68   0
       545    685.0049     35.8687 307.6524328  +6.6826175     1390.489     2824.303     3260.512     77.56679      155.382      311.229      2.230     6.40     815.3486     54.89193     226.9021        21     1.806     0.847  63.32   0
       546    913.1560     46.4862 307.5572915  +6.6858880     1649.619     3054.564     3205.278     78.06242       155.63     311.4149      1.924     5.34     813.6106     54.89193     234.7484        21     1.550     0.955  59.42   0
       547    196.6227     31.7363 307.8554595  +6.6678785     630.2632     1220.894     1223.514     77.69099     155.7539      311.291      1.904     5.19     825.5292     54.89193     96.51172         7     1.223     0.766  60.46   0
       548    173.4423     28.6744 307.8651926  +6.6683599     7973.667     15904.65     17044.81     77.93881     155.8158     311.4458      2.096     5.75     825.5211     54.89193     1186.786        51     1.910     1.282  60.03   0
       549    918.9804     26.5275 307.5555424  +6.6943232     2988.787     6024.005     6174.979     77.69099     155.6919     311.3529      2.077     5.61     812.8627     54.89193     434.4854        35     1.771     1.145  62.69   0
       550    517.6996     26.8542 307.7222416  +6.6807148      2163.17     4172.283     4300.261     77.93881     155.7539     311.6934      1.932     5.64     815.6262     54.89193     311.5222        26     1.748     1.003  67.29   0
       551    455.9879     25.5831 307.7479216  +6.6791626     1315.658     2547.726     2889.005       77.815      155.444     311.3219      2.151     6.00     816.9642     54.89193     195.5255        21     1.707     0.991  65.58   0
       552    719.8756     24.7869 307.6383192  +6.6883636     1467.265     2619.885     2757.666     77.69099      155.444      311.229      1.913     6.43     815.0427     54.89193      212.942        21     1.666     0.866  57.79   0
       553    984.0282     22.8310 307.5286420  +6.6980280     1488.495     2896.813      3459.32     77.56679      155.506      311.198      2.065     5.75     809.1815     54.89193     213.6531        23     1.720     0.989  64.55   0
       554    539.9108   1010.6347 307.6798595  +6.2753047     3165.707      6471.29     8267.934     78.18584     155.6919     311.4149      2.426     6.06     848.5034     54.89193     457.6025        35     1.888     1.124  59.90   3
       555    537.1411   1002.9567 307.6812678  +6.2783815     6075.363     12429.07     14272.22     77.93881     155.7539     311.5077      2.216     5.51     848.3303     54.89193     916.6906        50     1.988     1.265  63.68   3
       556    510.8245   1012.9933 307.6918540  +6.2733532     846.5305     1652.197     1713.768     77.56679      155.568       311.26      2.243     3.82     848.5153     54.89193     149.5854        10     1.061     0.864  69.19   2
       557    290.1606   1009.2678 307.7835773  +6.2674645      10594.2     22108.28     25737.34     77.93881     155.6919     311.5077      2.257     5.68     847.6199     54.89193     1343.418        75     1.930     1.721  60.41   0
       558    805.8935   1010.3036 307.5694569  +6.2843698     893.0742     1526.919     1155.143     78.06242       156.31     311.3219      1.736     5.47     845.1927     54.89193     130.3067        12     1.101     0.900  40.68   0
       559    500.2769     12.7396 307.7299559  +6.6859557     628.9223      1085.03     1103.709     78.18584     155.8158     311.3839      1.685     3.54     815.6924     54.89193     110.0197         5     0.919     0.430   6.30   0
       560    414.6203   1010.7673 307.7318638  +6.2710363     736.6352     1393.482     1361.588     77.56679      155.568       311.26      2.044     6.13     848.1572     54.89193     103.1556        10     1.392     0.758  29.27   0
       561    261.6408   1007.4539 307.7954770  +6.2672523     788.0151     1532.012     1761.583     77.93881     155.7539     311.4149      2.306     6.68     847.6528     54.89193     123.6048        12     1.491     0.841  43.42   0
       562    905.7992   1003.5895 307.5282089  +6.2904895     6072.877     12705.73     14265.07     77.69099      155.444      311.229      2.201     5.27     844.0897     54.89193     799.4134        49     1.939     1.322  59.90   0
       563   1001.1969    999.3010 307.4887502  +6.2954536     3291.933     7062.748     7780.347       77.815      155.506     311.1051      2.236     5.46      839.938     54.89193     420.6604        42     1.949     1.340  61.56   0
       564    879.4321    999.6829 307.5392858  +6.2912192     8856.772     18698.45     21231.05     78.06242      155.568      311.291      2.253     5.29     844.3502     54.89193     1030.107        64     1.958     1.545  52.07   0
       565    592.3224    999.9536 307.6584623  +6.2814757     967.7095     2077.125       2107.9     77.93881     155.8158     311.4149      2.185     7.25     847.5687     54.89193     153.1994        17     1.791     0.822  63.63   0
       566    523.4924    998.5908 307.6870805  +6.2797252     3000.011     6429.286     7683.769     77.69099      155.382      311.229      2.353     5.74     848.2782     54.89193     436.7159        42     1.907     1.344  68.70   0
       567    632.9196    997.9800 307.6416762  +6.2836540     941.4427     1765.748     1357.913       77.815      155.444     311.3529      1.962     6.42     847.3146     54.89193     130.1655        13     1.674     0.692  65.86   0
       568    476.8062    995.4626 307.7065659  +6.2794470     1648.597     3226.737     3055.872     77.44238      155.568      311.198      2.000     6.24     848.3332     54.89193     240.0141        24     1.715     0.996  67.23   0
       569    911.1600    987.2880 307.5265305  +6.2973993     30983.46     65322.62     73601.16     78.06242     155.6919     311.4458      2.235     5.37     843.3447     54.89193      3757.45        90     2.047     1.538  59.46   0
       570    219.0419    986.5142 307.8138668  +6.2744612     1151.173     2194.087     2028.652     78.06242       155.63     311.4149      2.102     5.05      847.357     54.89193     178.7459        10     1.155     0.646  42.02   2
