#   1 NUMBER                 Running object number                                     
#   2 X_IMAGE                Object position along x                                    [pixel]
#   3 Y_IMAGE                Object position along y                                    [pixel]
#   4 ALPHA_J2000            Right ascension of barycenter (J2000)                      [deg]
#   5 DELTA_J2000            Declination of barycenter (J2000)                          [deg]
#   6 FLUX_APER              Flux vector within fixed circular aperture(s)              [count]
#   9 FLUXERR_APER           RMS error vector for aperture flux(es)                     [count]
#  12 FLUX_RADIUS            Fraction-of-light radii                                    [pixel]
#  13 FWHM_IMAGE             FWHM assuming a gaussian core                              [pixel]
#  14 BACKGROUND             Background at centroid position                            [count]
#  15 THRESHOLD              Detection threshold above background                       [count]
#  16 FLUX_MAX               Peak flux above background                                 [count]
#  17 ISOAREA_IMAGE          Isophotal area above Analysis threshold                    [pixel**2]
#  18 A_IMAGE                Profile RMS along major axis                               [pixel]
#  19 B_IMAGE                Profile RMS along minor axis                               [pixel]
#  20 THETA_IMAGE            Position angle (CCW/x)                                     [deg]
#  21 FLAGS                  Extraction flags                                          
         1    758.3857     17.6524 307.6196459  +6.6705418     883.5803     2252.473     2676.548     92.09948     185.1589       370.06      2.583     8.55     1194.632     65.28103     140.0566        15     1.939     1.053  35.31   0
         2     85.1319     11.5261 307.8997883  +6.6504810     3288.585     10562.29     14365.15     92.98366     185.3797     370.3178      3.050     7.80     1226.356     65.28103     365.0023        73     2.274     2.044  27.64  16
         3    413.4207     11.5689 307.7632883  +6.6614980     729.0192     2186.054     3189.897     92.24744     185.0116     370.2073      3.064     6.41     1211.234     65.28103     91.43127         9     1.601     0.720 -74.71  16
         4    627.6749      3.5764 307.6744666  +6.6719784     6648.177     18963.26     23022.27     92.39515     178.9415     318.1431      2.700     6.96     1198.761     65.28103     728.6959        67     2.275     1.770   4.58  24
         5    527.2977      1.5702 307.7162716  +6.6694440     1216.482       2168.6     2489.307     84.37179     151.3619     283.0759      2.076     6.68     1201.583     65.28103     234.0641        15     1.813     0.691   6.27  24
         6     62.5687   1004.2127 307.8759140  +6.2399916     4359.841     10083.33     12182.14     92.24744     184.9378      370.281      2.470     5.78     1252.841     65.28103     584.2888        54     2.040     1.550  36.22   0
         7    566.2519   1023.8533 307.6659979  +6.2487873     552.9523      876.849     1027.427     77.63779     143.5945      274.913      1.709     3.69     1257.319     65.28103     128.3586         5     1.231     0.318   7.53  24
         8    791.6508   1003.0544 307.5730408  +6.2649095     8983.261     18786.42     21095.84     92.83688     185.2325     370.3915      2.259     5.07      1253.67     65.28103     954.5553        58     2.046     1.435  30.52   0
         9    566.4572    982.6668 307.6672844  +6.2657945      2362.46     5716.279     9454.062     92.98366     185.1589     370.3178      3.270    13.92     1255.442     65.28103     342.7319        55     3.425     1.573  24.43   3
        10    575.2453    994.1053 307.6632521  +6.2613673     88782.04     207037.2     252989.8     92.68987     185.1589     370.5019      2.527     5.48     1255.947     65.28103     10009.14       135     2.336     1.839  31.43   3
        11    577.1276    986.9486 307.6627084  +6.2643844     41248.29      95514.7     113287.1     92.83688     185.2325     370.3915      2.445     5.57     1255.617     65.28103      4823.31        79     2.178     1.585  28.33   3
        12    209.2661    997.3351 307.8151982  +6.2477618     2111.171      4814.31      5334.36     92.83688     185.2325     370.3915      2.334     6.82     1256.289     65.28103      246.292        36     1.845     1.449  28.84   0
        13    786.1144    990.9590 307.5757431  +6.2697173     4414.057     9582.379     10849.24     92.83688     185.1589     370.3178      2.295     5.33     1253.199     65.28103     522.4309        53     2.075     1.450  29.77   0
        14    884.0745    988.1591 307.5351340  +6.2741437     1122.932     2308.747     2449.633     92.68987     185.2325     370.3915      2.287     7.65     1252.724     65.28103     130.7437        17     1.308     1.253 -57.44   0
        15    206.9005    985.7933 307.8165668  +6.2524463      1199.74     2636.207     3549.152     92.54263     184.7903     370.0968      2.574     6.67     1255.849     65.28103      181.158        14     1.449     0.862  30.32   2
        16    424.8707    983.5363 307.7260820  +6.2606925     2181.641     5172.353     7110.518     92.83688     185.2325     370.3546      2.830     7.39     1255.437     65.28103     269.8367        39     2.100     1.432  39.81   0
        17    709.7025    983.4325 307.6077420  +6.2702705     4466.074     9797.048     11990.56     92.83688     185.0853     370.5019      2.583     5.58     1254.053     65.28103     527.1697        50     2.002     1.516  24.11   2
        18    742.0521    978.4045 307.5944681  +6.2734272     765.5615      1779.44     2011.999     92.09948     185.0116     369.9125      2.472     5.88     1253.204     65.28103     98.83228         7     1.207     0.805 -74.22   0
        19    949.4558    972.6544 307.5084826  +6.2827249     4812.214     9584.944     11131.36      93.1302     185.2326     370.3546      2.158     5.17     1251.509     65.28103     533.7185        44     1.908     1.302  33.58   0
        20    709.3313    971.0533 307.6083080  +6.2753678     1556.752     3798.075     5788.222     92.68987     185.1589     370.2442      3.372     9.97     1253.179     65.28103     223.1627        30     1.885     1.536  26.70   2
        21    234.3109    972.3275 307.8056287  +6.2589251     790.9865     1562.629     1785.665     92.83688     185.5268     370.3915      2.030     5.96     1255.677     65.28103     101.8024         8     1.196     0.837  -9.17   0
        22    356.4360    968.6133 307.7550130  +6.2645573     979.8632     2412.444     2931.321     92.24744     185.0116     370.0231      2.585     8.68     1255.616     65.28103     137.6024        16     1.750     1.238  22.93   0
        23    288.3843    957.7346 307.7836503  +6.2667640     7491.137     19011.35     24732.35     92.24744     185.0853     370.2442      2.698     5.85     1255.354     65.28103     976.9623        77     2.292     1.760  34.99   0
        24    538.2227    958.7509 307.6798122  +6.2747209     2433.397     5904.193     7384.888     92.39515     185.3062     370.2442      2.521     6.31     1254.458     65.28103     287.8756        42     1.988     1.440   6.93   3
        25    535.3240    951.1432 307.6812701  +6.2777640     4262.133     10969.19     14128.37     92.83688     185.1589      370.281      2.791     6.76     1254.115     65.28103     509.1838        65     2.231     1.754  39.57   3
        26    805.4767    956.3748 307.5688474  +6.2846393     690.7977     1346.133     986.4134     92.39515     185.1589     370.3178      1.868     5.03      1251.28     65.28103     134.1221         7     1.333     0.536 -19.56   0
        27    742.6611    958.0385 307.5948923  +6.2818540     4746.994     10480.32     12005.98     92.83688     185.3062     370.3546      2.322     5.42     1251.912     65.28103      499.803        50     2.036     1.424  26.53   0
        28    903.9453    951.2789 307.5281021  +6.2900299     5906.465     12206.74     13442.72     92.98366     185.2325     370.3915      2.221     5.14     1250.625     65.28103     660.5707        50     1.940     1.397  34.06   0
        29    877.4684    947.4985 307.5392290  +6.2907068     8320.164     17743.16     20303.62     92.83688     185.3797     370.3915      2.339     5.07     1250.421     65.28103      863.374        62     2.029     1.516  27.47   0
        30    591.3571    948.0019 307.6580932  +6.2809366     834.3958     1804.975     1874.279     92.09948     184.8641     369.9862      2.102     8.05     1253.694     65.28103     114.2495        12     1.509     1.201 -66.03   0
        31    999.4112    946.9155 307.4885794  +6.2950149     3348.452     6956.305     7865.273     92.39515     184.9378     370.1705      2.195     5.35     1249.871     65.28103      396.856        38     1.824     1.290  41.95   0
        32    521.4780    946.8036 307.6871677  +6.2790915     2232.383     5437.007     6740.965     92.24744     184.6426     370.1336      2.605     6.48     1253.965     65.28103     266.8698        41     1.897     1.538  15.31   0
        33    475.5395    943.4097 307.7063680  +6.2789535     1148.022     2677.148     2670.492     92.09949     185.0853     370.0231      2.297     6.84     1253.865     65.28103     173.2214        18     1.678     1.036  -2.81   0
        34    909.2717    935.0449 307.5264278  +6.2969086     28531.22     60723.19     70154.33     92.68987     185.2325     370.3546      2.299     5.14     1249.714     65.28103     3079.114        90     2.123     1.590  30.59   0
        35    219.7704    934.4050 307.8129374  +6.2740894     606.2783     741.6052     1558.656     92.24744     185.0116     370.1336      1.497     3.72     1254.159     65.28103      107.501         5     0.979     0.407  83.21   2
        36    216.3126    933.4244 307.8144068  +6.2743780     918.4652     1865.146     2400.251     92.83688     185.0116     370.2073      2.659     7.33     1254.057     65.28103     140.6364        13     1.517     0.993 -76.63   2
        37    807.4483    928.9799 307.5689385  +6.2960131     1472.721     3051.823     3553.329     92.24743     185.2325     370.1336      2.235     6.86     1250.001     65.28103      172.083        23     1.659     1.154  30.05   0
        38    755.4307    926.8197 307.5906244  +6.2951670     3709.554     8743.666     10722.48     92.24744     185.0116     370.2073      2.494     5.90     1249.963     65.28103     478.5375        51     2.074     1.545  22.92   0
        39     50.3896    924.5600 307.8836405  +6.2724586     1540.656      3733.01     4300.173     92.09949     185.0116       370.06      2.528     7.59     1252.123     65.28103     217.6339        26     1.824     1.383  33.35   0
        40    226.3199    925.7248 307.8105063  +6.2778922     831.1547     1508.609     1929.042      93.1302     185.5268     370.4651      1.721     4.59     1253.987     65.28103     107.5923         8     1.018     0.589  71.67   0
        41    943.6041    921.8436 307.5126001  +6.3035031     4464.385     9573.385     10520.29     92.09948     184.7903     369.9862      2.250     5.41     1248.893     65.28103     487.0708        49     2.012     1.379  30.26   0
        42    917.1592    913.4189 307.5238683  +6.3060985     1312.448     2902.129      3480.12     92.39515     185.0116     370.0231      2.379     7.47     1248.323     65.28103     146.4694        21     1.579     1.222  56.27   0
        43    250.6111    910.1180 307.8009352  +6.2851499      2073.43     5335.781     6374.059     92.39515     184.9378     370.1705      2.583     7.00     1253.851     65.28103     249.9221        39     2.020     1.507  26.44   0
        44    775.9960    910.7972 307.5826118  +6.3024677     653.8214     1512.461     1243.789     92.09948     184.7165     370.1336      2.313     4.92     1249.179     65.28103     91.68811         6     1.334     0.513  76.41   0
        45    638.1497    909.5555 307.6399306  +6.2983718     2339.356     5663.959     6591.671     92.98366     185.0853     370.3915      2.467     7.12     1250.783     65.28103     218.0048        37     1.907     1.401  33.01   0
        46     19.2810    907.5025 307.8971365  +6.2784522     1205.235     2902.506     3149.462     92.68987     185.6003     370.4283      2.524     8.39     1251.683     65.28103     142.5197        18     1.476     1.333  50.85   0
        47    461.0308    907.6003 307.7135903  +6.2932482     622.3062     1089.026     1218.092     92.09948     185.0116     370.1336      2.149     5.59     1252.759     65.28103     84.29614         6     1.121     0.787 -75.77   0
        48    871.4424    906.1959 307.5431045  +6.3075544     654.4426     1151.444     1016.172     92.09948     184.8641     370.0231      1.394     3.50     1247.937     65.28103     95.43445         5     0.798     0.442  70.14   0
        49    563.4415    901.2006 307.6712511  +6.2993201     812.0594     1581.219     1826.385     92.09948     184.8641     369.9494      2.193     5.69      1251.88     65.28103     114.9174        10     1.309     0.698   7.13   0
        50    282.5387    895.4744 307.7881588  +6.2922662     805.5599     1529.453     1959.446      93.1302     185.2326     370.3546      1.588     4.70      1253.98     65.28103     144.8932         8     1.468     0.426  36.04   0
        51    886.3251    888.7861 307.5374985  +6.3152374     4305.557     9492.237     11039.85     92.24744     184.9378     370.1336      2.349     5.44     1246.816     65.28103       462.09        48     1.957     1.426  31.67   0
        52    324.0504    884.7657 307.7712683  +6.2980796      4364.48     11632.29     14724.04     92.68987     185.2325     370.2442      2.711     6.40     1253.335     65.28103     508.1997        63     2.189     1.745  32.63   0
        53    422.2683    885.7773 307.7304243  +6.3009566     1051.318     2597.324     2845.752     92.39515     185.1589     370.3178      2.437     6.94     1252.572     65.28103     161.4578        12     1.491     0.905 -23.61   0
        54    244.1292    883.7948 307.8045081  +6.2957973     3238.484     8715.727     10709.52     92.24743     184.7903     370.2073      2.671     6.69     1253.243     65.28103     416.1581        56     2.155     1.717  37.96   0
        55    901.8787    873.3650 307.5315475  +6.3221219     748.9456     1517.509     1795.751     92.68987     185.3062     370.3546      2.131     5.95      1245.75     65.28103     131.2896         9     1.397     1.221 -14.74   0
        56    738.7505    866.3128 307.5995674  +6.3195851     769.3519     1579.364     2330.521     92.83688     185.0853     370.4651      2.718     2.99     1247.026     65.28103     152.3501         6     1.109     0.569  62.85   0
        57    969.9543    862.8566 307.5036081  +6.3287303     854.8878     1936.402     2578.491     92.83688     185.2325     370.3915      2.638     5.39     1245.014     65.28103     110.8881         7     1.262     0.650  68.48   0
        58    656.7077    860.0500 307.6338672  +6.3194269     1155.511     2904.553      4013.62     92.68987     185.0853     370.5755      2.732     9.57     1248.403     65.28103     160.6879        22     1.721     1.483  38.06   0
        59     53.8798    856.6516 307.8844642  +6.3006053     1536.427     3477.215     4404.673     92.83688     185.2325     370.3546      2.509     8.09     1250.515     65.28103     222.9796        22     1.811     1.347  39.29   0
        60     71.8018    855.2358 307.8770651  +6.3017926     1013.189      2412.93     3131.288     91.80286     185.0116     370.1336      2.562     7.27     1250.383     65.28103      145.822        17     2.100     0.706  32.87   2
        61    651.6068    849.5529 307.6363362  +6.3235892      3219.51     8472.021     10013.54     92.24744     185.0116     369.9494      2.625     6.64     1247.867     65.28103     355.8723        54     2.113     1.660  24.30   0
        62    889.3680    845.9964 307.5376550  +6.3330015     1536.985     3648.155     3930.639     91.95129     185.0853     370.0968      2.248     8.81      1244.11     65.28103     180.6012        26     1.793     1.298  46.14   0
        63    334.7128    843.0486 307.7682310  +6.3156566     7356.188     19933.88     26332.65     92.83688     185.0853     370.4283      2.823     6.47     1251.989     65.28103     906.0645        76     2.351     1.827  30.70   0
        64    197.8432    855.5534 307.8246841  +6.3058992     1235.185     2684.128     3184.878     92.83688     185.2325      370.281      2.311     8.60     1252.299     65.28103     150.4249        21     1.598     1.406   7.28   0
        65    204.8433    840.5988 307.8222756  +6.3123071     497.1255     1125.495     1246.954     92.09948     184.8641     369.9125      1.998     4.91     1252.053     65.28103     102.5802         5     1.412     0.483   3.50   0
        66     97.2821    833.9308 307.8671912  +6.3114434      902.136     2378.511     2544.736      93.1302     185.5268     370.3915      2.399     6.95     1249.585     65.28103      127.113        14     1.754     0.771 -65.89   2
        67    879.3359    827.6335 307.5424336  +6.3402464     1096.146     2499.562     2896.246     92.68987     185.3062     370.3178      2.351     7.55     1243.092     65.28103     151.9904        15     1.465     1.088  42.29   0
        68     82.1847    826.8494 307.8737013  +6.3138584     1107.649      2915.73     4248.398     92.09948     185.2325     370.0231      2.880     9.00     1249.323     65.28103     153.1132        22     1.938     1.167  35.40   0
        69    850.2855    827.1105 307.5545230  +6.3394925     1028.359     2553.531     2713.713     92.54263     185.6003     370.5019      2.260     7.80     1243.492     65.28103     148.0438        14     1.709     0.995  32.75   0
        70    814.0364    826.4055 307.5696097  +6.3385730     1546.045     3929.423     4020.416     91.80286     184.9378     370.1336      2.443     7.90     1244.292     65.28103     211.2623        33     1.826     1.438  30.62   0
        71    549.7311    818.0425 307.6797188  +6.3331860     147215.6     396816.8       509490     92.68987     185.1589     370.4283      2.769     6.39     1248.525     65.28103     17229.06       204     2.536     2.048  32.30   0
        72    394.1533    820.7865 307.7442752  +6.3268396     3379.774     9373.577     11917.04     92.09948     185.0116     370.0968      2.707     6.56     1250.825     65.28103     407.8313        58     2.043     1.844  32.69   0
        73    337.2551    819.2814 307.7679683  +6.3255521     5210.005     14706.63     19198.17     92.83688     185.2325     370.3915      2.835     6.86     1251.318     65.28103     609.1875        77     2.366     1.920  33.24   0
        74    655.6439    815.3801 307.6357961  +6.3378297      1616.29     3929.772     4667.557     92.24744     185.0853     370.1705      2.586     8.47     1245.499     65.28103     192.5144        34     1.856     1.493   3.54   0
        75    887.9047    813.8711 307.5393299  +6.3462132     3024.053     6948.958     8460.575     92.68987     185.3062     370.3546      2.515     5.98     1242.182     65.28103     319.1464        49     2.058     1.524  23.46   0
        76    621.9784    806.0241 307.6500972  +6.3405652     1030.349     1897.612     4127.367     92.39515     185.0116     370.3178      3.069     3.92     1245.525     65.28103     158.3312         9     1.249     0.512  17.53   3
        77    623.0322    802.6609 307.6497713  +6.3419887      1010.59     1871.905     3476.142     92.54263     185.3062      370.281      3.278     5.64     1245.301     65.28103     138.6089        11     1.307     0.789   8.73   2
        78    630.5792    809.4072 307.6464105  +6.3394566      1481.98     3801.696     5389.164     92.39515     184.9378     370.1336      3.038     8.63     1245.566     65.28103     202.6472        29     1.883     1.590  -5.71   2
        79   1020.9825    807.8209 307.4842288  +6.3531490      2909.32     6446.386     7024.329     92.54263      182.936      324.971      2.260     5.60     1239.691     65.28103     323.2091        41     1.863     1.407  37.73  24
        80    818.6900    808.2875 307.5682780  +6.3462071     885.4634     2031.994     2456.005     92.54263     185.7472     370.5019      2.419     6.64     1243.123     65.28103     107.1619        10     1.514     0.817  78.53   0
        81    906.7428    801.9396 307.5318978  +6.3517668     1764.203     4049.537      4211.51     92.98366     185.1589     370.3915      2.309     7.60     1241.255     65.28103       189.59        27     1.601     1.333  12.10   0
        82    365.1754    796.9909 307.7571108  +6.3356895     1096.064     3100.351      4369.67     92.39515     185.0116     370.2073      2.974     8.68     1250.222     65.28103     142.5455        22     2.092     1.005  26.20   2
        83    501.5192    787.7817 307.7007616  +6.3440618     1417.776     3682.689     4220.934     92.39515     184.8641      370.281      2.548     7.71     1248.315     65.28103     189.7041        30     1.866     1.537   8.46   0
        84    548.6619    783.7348 307.6813063  +6.3473113     2771.601     7396.351     10440.06     92.83688     185.2325     370.3915      2.956     8.20     1246.387     65.28103     301.8512        57     2.389     1.751   0.56   0
        85    518.9084    777.7386 307.6938703  +6.3487898     8321.144     23274.26     30194.26     92.68987     185.3062     370.4651      2.855     6.91     1246.816     65.28103     899.0753        86     2.384     1.906  34.62   0
        86    884.5738    781.0019 307.5418058  +6.3596696     673.3759     1500.104     1759.575     92.39515     184.8641     370.1336      2.281     4.71     1240.366     65.28103     89.15942         7     1.528     0.412  25.29   0
        87    932.3449    775.7392 307.5221283  +6.3634359     2128.745     4945.425     5498.479     92.98366     185.2326     370.3178      2.435     5.77      1239.68     65.28103     283.3052        37     1.784     1.412  41.50   0
        88    270.8320    776.9881 307.7969820  +6.3407794       1685.2     1852.459     2252.406     92.24744     184.9378     370.2442      0.638     1.65     1251.009     65.28103     838.8962         6     0.778     0.317  38.36   0
        89    310.2256    768.1566 307.7809075  +6.3457472     1024.937     1891.597     2457.872     92.39515     185.2325     370.2442      2.163     7.69     1250.395     65.28103     161.5948        13     1.968     0.840  49.90   3
        90    312.0332    765.4910 307.7802454  +6.3469082     1457.375     2517.148     3499.413     92.98366     185.0853     370.3546      2.052     7.23     1250.247     65.28103     205.4965        18     2.057     0.712  44.09   2
        91     29.7076    768.1801 307.8974709  +6.3363084     641.2817     1546.728     1833.648     92.68987     185.0116     370.1705      2.482     4.89     1247.452     65.28103       108.53         5     1.075     0.629 -23.92   0
        92    776.8843    762.1160 307.5871858  +6.3638689     26775.03     67602.23     83882.45     92.54263     185.3797     370.4651      2.629     5.95     1240.178     65.28103     2956.058       109     2.346     1.859  28.69   0
        93    233.8002    739.0175 307.8136394  +6.3552083     738151.2      2433705      3390996     92.39515     184.7165     369.9862      3.114     9.09     1248.647     65.28103     63479.42       621     2.981     2.470  48.67   4
        94     12.2308    764.0985 307.9048696  +6.3374048     1050.023      2226.54     2894.631     92.83688     184.9378     370.4651      2.335     6.97     1247.334     65.28103     143.0929        15     1.820     0.748  23.10   0
        95    902.0447    757.1849 307.5353363  +6.3700837     4749.822     10866.58     13316.29     92.24744     185.0116     370.0968      2.465     5.53     1238.969     65.28103      547.318        59     2.093     1.602  31.06   3
        96    898.7681    748.5079 307.5369862  +6.3735560     3622.777     8597.619      10118.1     92.98366     185.0116     370.3915      2.513     5.97     1238.575     65.28103     399.4724        51     2.018     1.587  24.06   3
        97    700.0425    753.9052 307.6193919  +6.3646897     35249.66     105582.1     157259.7     92.83688     185.1589     370.5019      3.274     8.64     1241.706     65.28103     4402.266       180     3.692     1.946  29.13   0
        98    342.6561    756.3229 307.7678264  +6.3517202     5264.743     8409.083     9698.202     92.83688     185.2326     370.3178      1.793     5.63     1249.602     65.28103     653.7913        20     1.698     0.793  43.25   3
        99    344.3351    753.2359 307.7672318  +6.3530507      8462.98     18147.33     24407.64     92.68987     185.1589     370.4283      2.603     7.26     1249.523     65.28103      1053.96        68     2.672     1.503  32.36   3
       100    405.7440    752.3104 307.7417441  +6.3554927     8537.318     25156.81     33196.36     92.68987     185.0853     370.5019      2.904     6.95     1248.198     65.28103     1039.147        88     2.452     1.952  33.33   0
       101    942.7554    751.0752 307.5186207  +6.3739639     1029.687     2279.321     3206.682     92.68987     185.3062     370.3915      2.684     7.45     1238.416     65.28103     122.0203        15     1.345     1.155 -43.60   0
       102    639.5737    747.9638 307.6447186  +6.3651195     2580.656     7368.311     9023.251     92.39515     185.0116     370.0968      2.754     7.44      1242.57     65.28103     291.6005        56     2.266     1.743  29.09   0
       103    674.8387    738.1203 307.6303912  +6.3703623     1004.616     2705.572     3219.923     92.68987     185.3062     370.3178      2.536     9.39     1241.866     65.28103       114.77        22     1.806     1.362 -57.60   0
       104    408.6290    734.8953 307.7411265  +6.3627778     20948.78      61271.9     81730.15     92.98366     184.9378     370.3178      2.927     6.90     1247.338     65.28103      2374.95       114     2.534     2.040  35.12   0
       105    525.4639    735.4964 307.6925542  +6.3664455     2448.922     4491.748     6123.975     92.68987     185.3797     370.3915      2.090     5.08     1242.838     65.28103     273.5121        20     1.552     0.898  43.04   3
       106    526.9351    732.8160 307.6920322  +6.3676012     2699.316      6124.18     8405.958     92.24743     185.0853     370.2442      2.613     7.02     1242.724     65.28103     331.0811        38     2.339     1.120  33.19   3
       107    443.2032    732.2538 307.7268469  +6.3650274     1717.364     5377.441     8945.386     92.09948     184.9378     369.9125      3.736    12.84     1245.608     65.28103     247.6735        54     2.644     1.734  36.85   2
       108    771.5156    730.3287 307.5904738  +6.3768105     5279.487     13603.48     17497.64     92.98366     185.5268     370.3915      2.718     6.39       1238.1     65.28103     543.1262        66     2.241     1.728  23.62   0
       109    128.7420    722.2988 307.8578551  +6.3585779     4646.224     13619.74     21755.71     92.54263     185.2325     370.5387      4.062    12.34     1246.371     65.28103     545.5796       129     4.470     1.894  22.75   2
       110    138.2329    721.6100 307.8539342  +6.3591813      1002.03     2217.206      2724.31     92.24744     184.9378     370.1705      2.281     6.89     1246.513     65.28103     180.2511        14     1.904     0.699  30.26   3
       111    916.8931    718.7029 307.5304434  +6.3864636     3363.423     7876.521     9669.218     92.83688     185.8206      370.281      2.517     6.02     1236.924     65.28103      375.954        53     2.142     1.542  22.87   0
       112    965.6317    717.9678 307.5102125  +6.3883929     776.0045      2060.89     2446.888     92.24743     184.9378     370.0231      2.623     7.41     1236.721     65.28103     120.0443        12     1.555     0.988 -81.89   0
       113    672.9351    715.6486 307.6319303  +6.3795743     746.5188     1741.029     2475.989     92.68987     185.0853     370.3546      3.294     5.02     1240.186     65.28103     107.2848         5     1.196     0.596  49.50   0
       114    560.1050    714.6384 307.6788536  +6.3762152     1080.698     2275.759     3117.506     92.98366     185.0853     370.5019      2.660     4.74     1241.467     65.28103      152.801        13     1.184     0.914  17.34   0
       115    940.5493    710.2961 307.5208912  +6.3907230     1838.342     4232.678     4775.454     92.68987     185.1589     370.5755      2.384     6.46     1236.348     65.28103     241.0585        33     1.768     1.420  34.38   0
       116    911.3173    710.9716 307.5330174  +6.3894688     1623.175     3820.014     4837.962     92.68987     185.0116      370.281      2.566     7.08     1236.548     65.28103     179.5144        29     1.621     1.419  46.54   0
       117    971.7925    709.8284 307.5079222  +6.3919581     1065.622     2341.946     2725.754     92.39515     185.0116     370.1336      2.297     6.57     1236.253     65.28103     126.0916        13     1.291     0.939 -58.39   0
       118    236.1733    704.1515 307.8138189  +6.3696792     855.0796       2513.8     4354.852     92.39515     185.3062      370.281      3.587     8.61     1246.321     65.28103     117.1295        14     2.043     1.014  14.40   2
       119    955.5309    698.0717 307.5150707  +6.3962687     1329.406     2952.458     3576.703     92.83688     185.3797      370.281      2.463     7.43     1235.642     65.28103     168.1534        25     1.633     1.333 -23.47   0
       120    997.3124    690.9030 307.4979442  +6.4006210     1185.939     2119.533     1712.604     92.83688     185.7472     370.3915      1.905     6.38     1235.043     65.28103     179.9351        14     1.409     0.930   4.96   0
       121    798.3641    689.7426 307.5806654  +6.3944603      538.186     1151.115     1559.131     92.68987     185.2326     370.3915      2.040     5.34     1235.853     65.28103      106.446         7     1.267     0.636 -75.15   0
       122     86.8348    687.9451 307.8764195  +6.3713479     3475.763     3538.866     3342.973     92.68987     185.2325     370.3546      0.442    -2.30     1243.653     65.28103     2922.591         4     0.395     0.220  25.61   3
       123     83.7055    686.5282 307.8777673  +6.3718274     2251.954      2078.17     1750.993     92.68987     185.3062     370.3546      0.774     0.92     1243.588     65.28103      746.501         5     0.563     0.477  28.24   2
       124    841.8532    678.0474 307.5629802  +6.4007404     715.8257     1499.724     1477.144     92.83688     185.2325     370.3915      2.243     6.87      1235.25     65.28103     99.22034         7     1.418     0.932  46.58   0
       125     41.3818    677.0245 307.8956734  +6.3743258     1010.111     2381.935     3771.642     92.39515     185.0853      370.281      3.056     5.82     1242.936     65.28103     145.7731        13     1.464     0.751  31.51   0
       126    653.7966    666.3754 307.6415245  +6.3992726     2477.661     6752.211     8718.332     92.39515     184.8641     370.1705      2.850     7.72     1236.541     65.28103     298.7151        55     2.236     1.771  25.86   0
       127    117.2869    661.4744 307.8646511  +6.3832981     1684.118     3997.363     5676.659     92.98366     185.6003     370.4283      3.072     9.76      1242.52     65.28103     172.9904        30     2.064     1.404  12.14   2
       128    991.0978    661.4999 307.5015027  +6.4125507     1467.257     2953.229     3349.473     92.83688     185.6738     370.1705      2.065     7.52     1233.176     65.28103     158.5697        19     1.418     1.117 -52.67   0
       129    770.4150    658.2360 307.5933287  +6.4065316     8760.181     23909.07     29682.02     92.39515     185.0116     370.1336      2.725     6.46     1234.672     65.28103     929.3145        79     2.288     1.839  32.45   0
       130    900.2131    657.8491 307.5393966  +6.4110259     1727.469     4356.102     5219.986     92.09948     185.1589     370.0231      2.550     7.39     1233.568     65.28103     211.0089        35     1.826     1.485  37.64   0
       131    628.0854    660.6155 307.6524017  +6.4007898     765.8787     2041.539     2800.309     92.39515     184.9378     370.2442      2.725     5.66     1236.624     65.28103     137.2034         8     1.424     0.634  22.75   0
       132    470.9714    657.5895 307.7177980  +6.3967769     541.0071     1046.762     1096.435     92.24743     185.0116     370.1705      2.138     4.14     1241.155     65.28103     96.12122         5     0.804     0.608  86.50   0
       133    243.9988    652.3781 307.8122978  +6.3913119     2242.297      7022.59     10218.78     92.39515     184.8641     370.0231      3.296     8.31     1242.419     65.28103     308.2579        63     2.334     1.987  21.50   0
       134    649.5374    652.5135 307.6437561  +6.4048518     2169.696       3986.6     4058.147     92.98366     185.4533     370.3915      2.074     7.55      1235.61     65.28103     284.0654        25     2.145     0.851  52.15   3
       135    651.5109    650.0123 307.6430192  +6.4059503     2481.516     5333.694     6271.907     92.54263     184.9378     370.2442      2.322     7.90     1235.348     65.28103     281.4436        32     2.278     1.188  39.14   3
       136    910.7379    642.7196 307.5355249  +6.4176222     653.1108     1253.841     1336.846     92.98366     185.3062     370.3178      2.298     5.34     1232.347     65.28103     119.6113         5     1.024     0.786  30.52   0
       137    722.2871    641.3193 307.6138937  +6.4119056     1172.289     2321.915     3412.427     92.54263     185.5268     370.5019      3.199     7.83     1234.013     65.28103     141.3298        15     2.037     0.842   0.45   3
       138    723.5778    638.4974 307.6134512  +6.4131136     1345.868      3366.35     5141.864     92.83688     184.9378     370.1336      3.550    10.29     1233.785     65.28103     159.8063        28     2.408     1.312   4.65   2
       139      8.1101    638.9188 307.9107764  +6.3889338     787.0375     1557.624     3005.462     92.54263     185.4533     369.1745      3.956     6.20     1243.008     65.28103      113.236        10     1.387     0.779  28.31  18
       140      9.5644    635.5602 307.9102846  +6.3903691     808.2616     1606.669     2371.527     92.54263     185.0853     370.1336      2.947     3.80     1242.993     65.28103     145.8705         6     0.979     0.845  38.14   3
       141    988.9446    635.8406 307.5032491  +6.4230705     4877.993     11563.38      14096.2     92.68987     185.3062     370.3915      2.529     5.90     1231.439     65.28103     530.6766        58     2.187     1.568  29.46   0
       142    927.3505    636.4677 307.5288280  +6.4207572     1255.444     3054.985     3553.093     92.68987     185.1589     370.3546      2.403     7.88     1231.645     65.28103     138.9612        23     1.515     1.361  78.35   0
       143     65.6480    633.3263 307.8870530  +6.3931790     6839.317     12100.67      13661.4     92.83688     185.3062     370.3915      1.906     5.35     1241.675     65.28103     816.0862        25     1.656     1.002  34.93   3
       144     67.3423    630.4811 307.8864442  +6.3944104      10327.3     22385.66     30764.71     92.83688     185.2326     370.3915      2.704     7.17     1241.574     65.28103     1212.779        72     2.822     1.461  32.55   3
       145    529.6900    631.3665 307.6942693  +6.4095684     779.2397     1548.086     2352.656     92.98366     185.0853     370.3546      2.375     4.89     1237.997     65.28103     103.5344         7     1.212     0.558  32.81   2
       146    526.3011    631.0820 307.6956872  +6.4095723     607.4196      1580.17     2004.509     92.83688     185.7472     370.4651      2.541     3.94     1238.111     65.28103      106.907         5     1.034     0.429  76.77   2
       147    710.9911    624.9857 307.6191319  +6.4182700     1204.757      2072.29     2940.337     92.54263     184.9378     370.2073      1.971     6.80     1232.962     65.28103     149.8286        16     1.544     0.840  31.23   3
       148    712.8720    622.2440 307.6184414  +6.4194646     1562.613     2938.136     3619.837     92.68987     185.2325     370.3915      2.347     6.64     1232.734     65.28103     247.5964        18     1.608     0.842  23.57   3
       149    734.5999    621.8204 307.6094251  +6.4203659     1695.924     4945.204     5755.031     92.39515     184.8641     369.9862      2.816     9.90     1232.571     65.28103     182.8821        42     2.114     1.566  28.13   0
       150    564.2943    620.6934 307.6802434  +6.4151329     962.1799     2300.185      3707.27     92.83688     185.8206     370.3178      3.120     8.78     1235.907     65.28103     139.8267        14     2.271     0.949  44.44   2
       151    566.6287    617.7560 307.6793711  +6.4164235     1081.797     2369.545     3754.686     92.39515     185.3062     370.2442      2.810     6.32      1235.53     65.28103     142.5336        13     1.347     0.834   6.09   3
       152   1006.9442    617.2696 307.4963843  +6.4313363     2623.418     6035.881     6792.406     92.83688     185.0853     370.3178      2.431     6.20     1230.094     65.28103     260.2616        38     1.755     1.470  25.12   0
       153    972.6619    616.2253 307.5106676  +6.4306242     4048.831     9938.959     12135.17     92.39515     185.1589      370.281      2.552     6.23     1230.053     65.28103      438.606        61     2.235     1.612  33.66   0
       154    310.5448    617.5824 307.7858053  +6.4079089     628.2731      1131.08     1490.093     92.24744     185.1589       370.06      2.110     5.15     1239.481     65.28103     108.9446         6     1.286     0.583 -22.48   0
       155    130.4720    612.4752 307.8608119  +6.4039662     6749.249     12332.61     13808.97      93.1302     185.5268     370.3546      1.997     5.26     1240.051     65.28103     819.3413        30     1.785     0.984  26.90   3
       156    132.1538    609.1590 307.8602240  +6.4053915     8984.595     19424.03     26900.17     92.68987     185.2325     370.1705      2.660     7.12     1239.885     65.28103     1051.207        69     2.838     1.399  30.65   3
       157    418.2247    610.0583 307.7413052  +6.4146277     999.1221      3049.77     4442.016     92.39515     185.2325     370.1705      3.062    10.17     1238.697     65.28103      141.663        23     2.222     1.299  35.30   2
       158    967.5254    599.2634 307.5133655  +6.4374544     3765.583     9157.646     11618.01      93.1302     185.2326     370.3178      2.641     6.50     1228.964     65.28103     373.8285        51     2.091     1.539  32.37   0
       159   1021.9501    594.1747 307.4909136  +6.4413696     48110.32     102595.1       112347     92.39515     173.4462     309.6276      2.178     5.80     1228.676     65.28103     5303.879        85     2.047     1.501  65.21  24
       160    560.3046    596.6797 307.6827020  +6.4249113      14553.6     30283.93     35292.96     92.54263     185.5268     370.4283      2.207     5.71     1234.316     65.28103     1686.813        40     2.058     1.031  28.60   3
       161    561.5065    593.5074 307.6823081  +6.4262610     17610.89     37718.01      49948.7     92.83688     185.8206     370.3178      2.579     7.16     1233.975     65.28103      1829.87        74     2.760     1.329  25.56   3
       162    169.0315    592.0409 307.8454710  +6.4136971     1092.407     3634.506      5121.02     92.39515     185.0853     370.2073      3.195    10.51     1238.968     65.28103     145.9293        34     2.199     1.856  64.57   0
       163    457.0431    580.5258 307.7261575  +6.4281192     17085.81     32897.18     37911.34     92.68987     185.3062     370.3915      2.109     6.02     1236.025     65.28103     1989.461        42     2.117     1.008  35.26   3
       164    458.9991    577.4918 307.7254458  +6.4294371     22132.82     50927.04     68516.59     91.95129     184.7165     370.0968      2.697     7.32     1235.685     65.28103     2361.257        84     2.860     1.395  32.92   3
       165    134.5429    572.5338 307.8604571  +6.4205890     667.1041     1582.127      2155.33     92.98366     185.1589     370.3178      2.681     4.63     1238.552     65.28103     89.81482         6     1.244     0.489   4.87   0
       166    305.4318    567.1982 307.7896138  +6.4285338     874.2784     1749.938     3384.784     92.09948     185.0116     370.1336      2.935     5.58     1235.868     65.28103     128.3387         9     1.760     0.498  23.05   0
       167    730.5433    562.3607 307.6130896  +6.4447735     1971.898     5658.303     7313.218     92.83688     185.3062     370.3178      2.847     8.22     1229.548     65.28103      208.359        53     2.139     1.857  16.38   0
       168    783.9454    557.3774 307.5910595  +6.4486153     5599.667     16248.98     21133.19     92.24743     185.2325     370.1336      2.882     6.69     1228.405     65.28103     594.9298        73     2.309     1.886  29.51   0
       169    608.1751    553.8042 307.6642347  +6.4442117       998.43     2589.189     4227.776     92.24743     184.9378     370.1705      3.285     6.92     1230.346     65.28103     130.2404        14     1.620     0.829  18.69   2
       170   1023.1183    556.1238 307.4916905  +6.4571150     1080.048     1808.932     2042.881     88.32019     156.7615      289.318      1.902     5.53      1226.46     65.28103     141.6379        12     1.209     0.714  79.82  24
       171    860.3470    539.9658 307.5598826  +6.4583544     1281.604     3208.455     4527.376     92.68987     185.2325     370.2442      2.762     7.78     1225.661     65.28103     128.6265        16     1.893     0.894  35.66   2
       172    818.2063    537.8670 307.5774680  +6.4578133     1087.455     2693.004     3062.287     92.24743     184.9378     370.1336      2.393     8.01     1226.617     65.28103     171.9432        18     1.587     1.130 -57.53   0
       173    245.8112    535.1799 307.8154631  +6.4397472      2190.78      4535.32     5645.614     92.39515     184.8641     370.2442      2.307     6.37     1234.218     65.28103     268.7102        24     1.937     0.809  44.65   3
       174    247.6199    532.0443 307.8148163  +6.4411022     2668.663     5955.479     7485.005     92.24743     185.0853     370.1705      2.505     7.82     1234.013     65.28103      291.063        43     2.476     1.222  36.30   3
       175    799.2026    529.1776 307.5856558  +6.4607652     63171.97     180873.9     239509.3     92.39515     184.8641     370.0968      2.885     6.75     1226.657     65.28103     6330.826       184     2.599     2.214  19.82   0
       176    179.8439    529.8319 307.8430589  +6.4397376     15991.16     32502.53     38228.89     92.39515     185.2325     370.2073      2.208     6.55     1235.586     65.28103      1935.28        48     2.236     1.082  35.95   3
       177    181.9695    526.6329 307.8422825  +6.4411295     20329.49     44177.23     58846.37     92.24743     184.9378     370.0231      2.595     7.46     1235.348     65.28103     2180.703        82     2.885     1.340  34.20   3
       178    105.1578    524.3584 307.8742824  +6.4394851     2218.002     7063.154     9595.495     92.54263     185.2325     370.2073      3.097     8.70     1236.727     65.28103     248.0781        64     2.297     1.965  26.74   0
       179    970.4280    521.0331 307.5147560  +6.4698428     714.1006     1491.722     1523.953     92.24743     184.9378     370.0968      2.168     6.15     1223.367     65.28103     89.02673         9     1.378     0.771 -76.80   0
       180    834.9957    518.5023 307.5711333  +6.4663673     1345.746     2604.717      3463.36     92.54263     184.8641     369.9862      2.193     7.09     1225.275     65.28103     207.0365        15     1.726     0.816  21.40   3
       181    835.9929    515.2634 307.5708265  +6.4677376     1833.973     3835.072     5009.583     92.09948     184.9378     370.0968      2.754     6.84     1225.056     65.28103      246.408        29     1.939     1.123  25.91   2
       182    353.0370    516.8305 307.7715111  +6.4509216     4554.723     8362.068     10599.89     92.39515     184.9378     370.1705      2.158     6.32     1231.083     65.28103     543.9971        31     2.121     0.897  33.56   3
       183    354.9510    513.4702 307.7708278  +6.4523728     5807.618      13235.4     18117.97     92.83688     185.1589     370.3915      2.689     8.07     1230.835     65.28103     642.0654        60     2.811     1.327  34.67   3
       184    160.7260    514.5809 307.8515149  +6.4453898     598.9065     1271.096      3324.78     92.39515     185.1589      370.281      4.322     4.30     1235.354     65.28103     100.2592         5     1.022     0.708  73.35   0
       185    788.9371    511.4636 307.5905118  +6.4677341      2044.76      3900.67     5303.143     92.83688     185.2325     370.3915      2.298     5.93     1225.964     65.28103     256.2751        26     1.940     1.007  27.74   3
       186    789.9581    508.3125 307.5901922  +6.4690688     1940.056      4165.36     5526.188     92.83688     185.2325     370.3915      2.471     7.32     1225.802     65.28103     225.8253        24     2.185     0.794  22.20   3
       187    519.6662    511.3198 307.7024383  +6.4587838      2053.44     3906.492     5131.815     92.98366     185.4533     370.3178      2.276     6.18     1228.482     65.28103     249.6353        24     1.895     0.907  31.23   3
       188    521.2051    508.3338 307.7018982  +6.4600678     2339.927     5624.159     7740.657     92.24744     184.8641     370.1336      2.720     7.97     1228.228     65.28103     250.6619        39     2.439     1.136  34.14   3
       189    156.8331    512.8500 307.8531908  +6.4459733     793.4738     1959.729     3751.245     92.68987     185.2325      370.281      3.491     4.65     1235.296     65.28103     102.3135         6     0.952     0.645 -22.73   0
       190    167.9834    503.2684 307.8488772  +6.4503031     2143.633     7144.325     9943.479     92.24744     185.1589     370.2442      3.096     8.62      1234.43     65.28103     280.4382        62     2.353     1.965  40.86   0
       191    567.4554    503.0240 307.6828516  +6.4638087     879.1128      2101.24     3274.048     92.39515     185.3062     370.1336      2.832     7.24      1227.47     65.28103     126.0599        13     1.625     0.904  87.81   2
       192    379.4236    505.1511 307.7609341  +6.4566278     714.2066      1352.18     1717.499     92.39515     185.3062     370.2442      2.573     4.85     1230.375     65.28103     102.9019         6     0.994     0.669  13.12   0
       193    261.6956    501.3611 307.8099920  +6.4542398     23018.86     41233.54      45270.7     92.83688     185.0853     370.5019      1.954     5.72     1231.689     65.28103     2741.832        36     1.829     1.073  41.63   3
       194    263.7454    498.0887 307.8092495  +6.4556593     29526.67     68153.13     96738.91     92.83688     185.0853     370.5019      2.869     8.07     1231.426     65.28103     3149.187       108     3.016     1.697  30.72   3
       195     38.0568    503.8000 307.9028589  +6.4457123     1294.426      2433.82      3806.42     91.95129     184.7903     369.9494      2.357     7.87     1236.596     65.28103     170.9604        19     2.011     0.861  36.48   3
       196     40.3555    500.7650 307.9020052  +6.4470424     1874.801     4114.587     5864.915     92.54263     185.1589     370.2073      2.629     7.42     1236.433     65.28103     223.4658        32     2.201     1.147  34.55   2
       197    786.0828    491.5882 307.5923593  +6.4758427      6032.57     17845.85     23177.17     92.39515     184.9378     370.1705      2.904     6.94     1225.078     65.28103     607.7909        83     2.364     1.962  31.04   0
       198    488.7934    492.2085 307.7159078  +6.4656377     12266.02     27367.44     32855.14     92.09948     185.0116     370.1705      2.377     6.63     1227.296     65.28103     1352.768        44     2.319     1.048  34.31   3
       199    490.2816    488.8755 307.7154004  +6.4670633     14696.06     34461.71     47611.09      93.1302     185.5268     370.4283      2.779     7.67     1226.993     65.28103     1425.778        90     2.939     1.587  29.22   3
       200    962.5186    491.1447 307.5190360  +6.4819161     763.4863      1685.15     2288.942     92.83688     185.2325     370.3915      2.646     5.51     1220.465     65.28103     101.0065         8     1.523     0.563   9.18   0
       201    650.4988    484.0248 307.6489676  +6.4744309     1028.252     2856.147     4793.722     92.98366     184.9378     370.1705      4.630     8.73     1226.112     65.28103      141.395        22     2.208     0.965   6.49   2
       202    133.0081    480.0143 307.8641921  +6.4587251     6858.795     14200.56     16971.49     92.39515     184.9378     370.1705      2.261     6.65     1233.693     65.28103      885.302        39     2.169     1.053  30.68   3
       203    135.0714    476.8979 307.8634389  +6.4600808     8964.372     20165.36     26785.21     92.68987     185.3797     370.3546      2.622     7.46     1233.459     65.28103      978.748        65     2.812     1.285  30.05   3
       204    318.8598    479.2524 307.7869718  +6.4652851     1259.193     4248.042     5727.783     92.83688     185.1589     370.3546      3.089    11.56     1228.896     65.28103     163.9231        37     2.069     1.800 -66.60   0
       205    387.2511    479.8539 307.7585255  +6.4673321     925.6809     1993.746     2379.694     92.98366     185.1589     370.3915      2.666     6.03     1228.559     65.28103     113.0804        11     1.316     0.779  -8.45   0
       206     98.9231    475.2914 307.8785168  +6.4595278     1173.193     3090.772     4622.503     92.54263     185.5268     370.3546      3.052     8.02     1233.914     65.28103     170.4257        24     2.044     1.397   3.34   2
       207    498.8038    477.2304 307.7122466  +6.4721556     794.9523     2007.847     3514.377     92.24743     185.0853     370.0968      3.206     6.64     1225.789     65.28103     93.32129        10     1.568     0.788  29.54   0
       208    959.5950    471.9859 307.5208874  +6.4897269     2598.607      6176.58     7344.877     92.39515     184.9378     370.2073      2.469     6.16      1219.03     65.28103     288.9183        40     1.882     1.464  43.08   0
       209      1.8287    463.1418 307.9192785  +6.4612739     5134.788     8458.329     9030.136     87.23266      156.064     288.1372      1.747     6.35     1235.381     65.28103     742.9252        28     1.846     0.902  88.78  24
       210    637.9675    460.4669 307.6549610  +6.4837355     3261.732     6043.243     7358.932     92.68987     185.3062      370.281      2.042     6.24     1224.421     65.28103     413.4315        27     2.179     0.822  31.19   3
       211    639.3794    457.2660 307.6544808  +6.4851040     4088.309     9956.313     13154.12     92.39515     185.2326     370.2073      2.670     7.49      1224.19     65.28103     395.9247        55     2.567     1.305  28.62   3
       212    429.9718    460.9883 307.7413986  +6.4765521     11609.69     23081.88     26971.52     92.24744     185.0116     370.2442      2.199     6.44     1225.761     65.28103     1437.517        47     2.302     1.052  29.06   3
       213    432.2128    457.7783 307.7405743  +6.4779522     13566.89     31896.71     43198.15     92.54263     185.0116     370.2442      2.708     7.99     1225.351     65.28103     1408.167        67     2.877     1.255  29.11   3
       214    195.1935    458.4209 307.8390687  +6.4697288     5281.183     10271.91     11843.22     92.39515     185.0116     370.1336      2.112     6.02     1230.594     65.28103     600.8452        32     2.012     0.996  34.57   3
       215    197.0283    455.3929 307.8384074  +6.4710404     6728.566     14986.83     20768.34     92.24743     185.0116     370.1336      2.697     7.81     1230.307     65.28103     769.4458        68     2.960     1.309  37.48   3
       216    560.6688    453.4845 307.6873239  +6.4840297      964.614     2422.564     4238.744      93.1302     185.5268     370.3915      3.510     5.42     1223.474     65.28103     121.9003        10     1.134     0.861 -31.49   2
       217    973.0744    456.1808 307.5158091  +6.4967004     561.1329     1345.384     2056.007     92.39515     185.0853      370.281      2.422     5.77     1217.615     65.28103      84.7301         7     1.477     0.636   2.74   0
       218    934.5452    452.2877 307.5319542  +6.4970221     2295.976     5580.831     6873.216     92.83688     185.0853     370.5387      2.588     6.99     1218.894     65.28103     247.2281        40     1.926     1.539  54.55   0
       219    606.3525    452.6680 307.6683621  +6.4858964     1734.795     3397.506     5499.469     92.83688     185.1589     370.3546      2.404     6.55     1223.906     65.28103     199.0101        16     1.722     0.699  36.49   3
       220    607.8511    449.3287 307.6678505  +6.4873249     2270.906     5167.141     7398.758     92.83688     185.2325     370.3915      2.828    10.46     1223.597     65.28103     210.5437        40     2.601     1.282  40.60   2
       221    957.0485    443.3064 307.5228982  +6.5014801     1554.508     3635.564     4372.442     92.68987     185.0853     370.5019      2.611     7.58     1217.501     65.28103     169.3973        22     1.652     1.122  13.18   2
       222    518.6314    443.6320 307.7051258  +6.4866882     2255.038     4970.343     6965.557     92.24744     184.9378     370.0231      2.644     9.09     1222.451     65.28103     255.7876        35     2.456     1.123  22.16   3
       223    520.5087    440.3707 307.7044543  +6.4880972     2420.328     4960.401     6987.491     92.98366     184.9378      370.281      2.481     8.65      1222.05     65.28103     277.0677        29     2.429     0.860  26.26   3
       224    366.9640    440.6290 307.7682679  +6.4828419     731.6271     1641.685     2702.477     92.39515     184.9378     370.1336      2.371     5.50     1224.703     65.28103     131.0797         8     1.936     0.440  20.46   0
       225    876.1272    437.6027 307.5567253  +6.5011339     1398.615     4054.014      5947.75     92.24744     184.7165     370.1705      3.061     9.60     1219.601     65.28103     176.1516        32     1.915     1.521  52.65   0
       226    882.5901    431.3372 307.5542470  +6.5039359     729.5192     2294.105     3342.554     92.24744     185.0116     370.1336      3.266     8.93     1219.061     65.28103     128.8817        12     1.650     1.349  -3.66   2
       227    706.7349    429.9439 307.6273930  +6.4986350     1037.051     1754.656     2705.173     92.98366     185.1589     370.3546      2.373     4.69     1222.164     65.28103     147.7021         9     1.112     0.623  89.95   3
       228    707.4702    426.5078 307.6272017  +6.5000779     980.3539     1872.788      2811.78     92.83688     185.3797     370.3915      2.693     5.25     1221.971     65.28103     129.5155        10     1.184     0.857  13.41   3
       229    377.7585    427.0192 307.7642356  +6.4888217     1188.865     3499.105     5044.059     92.24743     185.0116     370.0968      3.530    10.64      1223.02     65.28103      151.184        29     2.184     1.450 -88.87   2
       230     70.1091    427.2364 307.8921025  +6.4783928     816.1032     2090.208     2961.318     92.98366     185.1589     370.3915      3.138     7.69     1231.927     65.28103     122.3326        11     1.349     1.227 -77.89   0
       231    605.5087    424.9940 307.6696351  +6.4972911     2820.505     4988.826     6612.414     92.39515     184.8641     370.0968      2.012     5.81      1221.59     65.28103     337.8147        21     1.661     0.846  37.89   3
       232    606.6925    421.7428 307.6692514  +6.4986727     3238.138     7585.338        11212     92.68987     185.1589     370.5019      2.836     8.66      1221.36     65.28103     334.5654        54     2.777     1.450  29.07   3
       233    768.2488    421.2531 307.6021121  +6.5042790     4771.179     8691.381     11011.27     92.98366     185.2326     370.3546      2.044     6.77      1221.34     65.28103     563.1747        34     2.275     0.908  24.11   3
       234    769.4783    418.5010 307.6016926  +6.5054560     6157.019     14699.92     19384.06     92.54263     185.5268     370.3915      2.640     6.95     1221.219     65.28103      606.688        53     2.502     1.269  24.22   3
       235    287.9828    417.6853 307.8018635  +6.4896605     788.5537     1785.086     2256.585     92.39515     184.9378      370.281      2.515     6.23     1223.272     65.28103     100.1456        10     1.716     0.635  47.62   2
       236    373.2505    415.3704 307.7664985  +6.4934786     570.2781      1383.58     2158.967     92.39515     185.3797     370.2442      2.495     4.97     1221.985     65.28103      104.666         8     1.862     0.375  25.45   0
       237    107.1769    412.0690 307.8772036  +6.4859006     1520.788      5004.56     6971.213     92.39515     185.1589     370.3178      3.209    10.01      1230.31     65.28103     197.4404        47     2.144     1.854   0.00   0
       238    953.6536    412.9701 307.5253168  +6.5138889      606.999     1486.061     1655.954     92.54263     185.3062      370.281      2.701     4.72     1215.949     65.28103     93.55347         5     1.026     0.617  18.03   0
       239   1008.5626    409.2858 307.5026138  +6.5172409      2043.45     5271.207     7025.224     92.83688     185.1589     370.3546      2.737     7.53      1212.38     65.28103     206.2952        41     1.912     1.539  45.52   0
       240    745.1483    410.0797 307.6120864  +6.5081188     941.0604     2565.485     3449.001     92.83688     185.2325     370.3546      3.042     9.45     1220.556     65.28103     126.6202        16     1.688     1.476 -24.52   0
       241    343.9603    406.2236 307.7789790  +6.4962709      1031.57     2882.818     4296.037     92.39515     184.9378     370.0968      3.160     9.05     1222.109     65.28103     160.4282        21     1.968     1.163  70.72   0
       242    265.3775    408.1708 307.8115777  +6.4928284     617.3713     1442.907     2538.033     92.24744     185.0116     370.1705      2.477     4.93     1223.937     65.28103     115.7909         6     1.461     0.471  66.10   0
       243    700.0640    405.9134 307.6309660  +6.5083310      549.993     1329.685      1847.47     92.83688     185.3797     370.3915      2.466     4.66      1220.18     65.28103     98.73315         5     1.234     0.500  22.18   0
       244    810.3117    393.4917 307.5855506  +6.5171436     666.6032     1752.519      1974.27     92.83688     185.7472     370.5019      2.616     7.27     1218.314     65.28103     107.2666         9     1.873     0.790 -60.76   0
       245    707.6169    391.2959 307.6283130  +6.5146172     5277.944     16226.53     21973.59     92.68987     185.0116     370.1705      3.021     7.53     1218.617     65.28103     563.3784        81     2.481     1.972  35.40   0
       246    599.3365    383.6714 307.6735779  +6.5141410     4981.597     10955.54      14373.3     92.83688     185.2326     370.4283      2.525     8.29     1217.562     65.28103     513.6089        34     2.493     0.963  41.58   3
       247    601.4626    381.0042 307.6727830  +6.5153131     5265.938     13155.19     20322.88     92.09948     184.9378       370.06      3.222     9.66     1217.291     65.28103     547.5237        80     3.477     1.520  36.48   3
       248    629.8457    386.3351 307.6608069  +6.5140628     809.5906     1857.298     2783.007     92.83688     185.1589     370.3546      2.924     5.52     1217.942     65.28103     131.9335         8     1.495     0.574  14.94   0
       249    931.0229    381.6686 307.5357641  +6.5260543     1388.423     3064.489     3918.416     92.39515     185.1589     370.3178      2.525     6.87      1214.91     65.28103     169.0056        15     1.874     0.706  39.96   3
       250    932.7884    380.0226 307.5350848  +6.5267926     1482.198     3272.078     4352.775     92.39515     185.0116     370.2442      2.492     8.31     1214.649     65.28103     171.4438        25     2.100     1.047  21.36   2
       251    370.8587    379.0576 307.7687057  +6.5083867     8204.395     17518.17     21304.27     92.83688     185.1589     370.3915      2.349     6.47     1219.763     65.28103     923.6263        42     2.310     1.073  33.85   3
       252    372.9814    375.9898 307.7679258  +6.5097242     9110.521     21389.09     28517.46     92.39515     184.8641     370.2073      2.661     7.88     1219.493     65.28103     927.8555        69     2.805     1.343  33.43   3
       253    888.5967    374.9617 307.5536236  +6.5274067     746.7204     1734.148     3297.434     91.80286     185.0116       370.06      3.897     5.96     1215.141     65.28103     97.58826         6     1.231     0.811  57.51   0
       254    118.4197    376.2203 307.8737311  +6.5010754     886.9372      2071.03     2907.255     92.54263     185.1589      370.281      2.962     5.31     1228.843     65.28103      115.569         9     1.027     0.774 -13.08   0
       255    901.4642    371.2934 307.5483965  +6.5293504     2061.406     5487.651     6494.542     92.83688     185.4533     370.4283      2.656     7.20      1214.64     65.28103     232.6379        40     1.773     1.653  -2.02   0
       256    228.6558    370.3210 307.8281075  +6.5072172     3822.818     7572.322     9284.065     92.98366     185.2326     370.3915      2.306     6.39     1223.832     65.28103     430.9136        37     2.188     1.119  27.21   3
       257    230.4456    366.7589 307.8274827  +6.5087476      4359.69     10586.78     14426.55     92.68987     185.2326     370.1705      2.707     8.02     1223.609     65.28103     454.2748        53     2.778     1.199  31.58   3
       258     53.2173    372.0090 307.9009740  +6.5006192     617.9839     1253.477     2323.378     92.54263     184.9378     370.1705      2.289     3.85     1230.922     65.28103     71.55591         5     0.834     0.511  34.48   0
       259    128.5538    358.8726 307.8700997  +6.5085766     1232.003     2169.239      3120.18     92.68987     185.3062     370.3546      1.986     6.92     1227.957     65.28103     163.8728        16     1.764     0.761  33.19   3
       260    130.9582    355.5007 307.8692132  +6.5100493     1921.005      4658.35     6157.081     92.83688     185.0853     370.6123      2.663     9.16     1227.801     65.28103     237.2524        41     2.482     1.262  37.37   2
       261    153.2190    351.5394 307.8600927  +6.5124331     753.5733     2020.252     3523.385     92.39515     185.1589     370.1705      3.572     6.63     1226.902     65.28103     108.3929         7     1.470     0.839  15.16   0
       262     26.2237    340.4939 307.9132504  +6.5127180     1141.099     2708.218     4820.137     92.98366     184.9378     370.1705      3.595     9.20      1231.61     65.28103     141.6423        19     1.624     1.455  74.84   2
       263    427.8836    342.8064 307.7462122  +6.5252629     1780.159     3244.751     3843.677     92.39515     184.8641     370.2073      2.045     5.62      1215.22     65.28103     246.3025        16     1.771     0.633  30.12   3
       264    429.9416    339.4858 307.7454675  +6.5267026     2304.622     6005.412      8181.38     92.83688     185.2325     370.5019      2.800     8.47     1214.937     65.28103     247.9252        52     2.380     1.518  21.64   2
       265    769.5771    337.7514 307.6043383  +6.5387903     4655.086     14285.62     20435.54     92.39515     185.2326     370.2442      3.179     7.59     1213.603     65.28103     455.7327        86     2.570     2.050  16.58   0
       266   1013.4000    332.9695 307.5031360  +6.5489036     1733.263     4367.021     4676.088     91.95129     184.9378     370.0968      2.411     7.33     1207.288     65.28103     209.6173        35     1.886     1.388  61.44  16
       267    476.2882    326.1205 307.7266476  +6.5337733     953.4565     2618.233     4194.403     92.54263     185.5268     370.5019      3.461     8.07     1212.765     65.28103     123.4467        15     1.536     1.186  15.85   2
       268    447.5573    325.7738 307.7386026  +6.5329531     834.1417      1685.67     2932.767     92.39515     185.2326     370.2073      3.195     6.62     1213.611     65.28103     119.5693        10     1.482     0.831  77.79   0
       269    835.0645    320.7305 307.5776804  +6.5480041     13321.52     37999.28     51161.27     92.83688     185.3062     370.3915      2.934     6.67     1211.859     65.28103     1205.218       107     2.451     2.076  39.96   0
       270    607.8499    311.8314 307.6724333  +6.5440790      811.907     1851.905      3420.24     92.54263     185.2325      370.281      3.644     7.87     1210.968     65.28103     141.2496        10     2.198     0.788  47.75   2
       271    690.5067    308.5103 307.6381823  +6.5482161      24930.9     48139.97     55967.52     92.83688     185.8206     370.3915      2.140     6.13      1210.92     65.28103     2716.135        46     2.110     1.073  26.15   3
       272    692.1232    305.6409 307.6376059  +6.5494546     25999.54     60127.35      80740.7     92.68987     185.2325     370.4283      2.727     7.43      1210.68     65.28103     2659.692        92     2.937     1.409  23.89   3
       273    553.3450    305.8865 307.6952898  +6.5447075      954.041     2424.507     4026.083     92.83688     185.1589     370.5387      3.419     7.92     1210.409     65.28103     122.9139        14     1.452     1.208  47.09   2
       274     91.7741    302.6285 307.8872719  +6.5305537     1927.962     6804.251     9610.285     92.24744     185.0116     370.2073      3.144     9.11     1229.108     65.28103     264.1426        64     2.320     2.037  39.19   0
       275    535.8967    301.6623 307.7026841  +6.5458666     2107.377     4201.807     4742.149     92.54263     185.3062     370.4283      2.032     7.58     1210.146     65.28103     251.4937        28     2.126     1.063  37.63   3
       276    537.6646    298.1825 307.7020652  +6.5473621     2228.426     5077.328     7094.306     92.24744     185.1589     370.1336      2.670     8.76     1209.804     65.28103     261.2853        41     2.542     1.152  32.15   3
       277    399.0179    297.0100 307.7597409  +6.5431975     7251.416      14619.7      18102.3     92.54263     184.9378     370.2073      2.298     6.75     1213.312     65.28103     832.1282        45     2.377     1.039  31.54   3
       278    401.2701    293.7784 307.7589126  +6.5446069     8053.717      19143.8     26017.27     92.39515     185.1589     370.3546      2.776     8.26     1213.092     65.28103     788.0901        63     2.822     1.255  31.20   3
       279    268.5547    297.6122 307.8139542  +6.5385687     720.5103     2069.394     2433.809     92.24744     185.0116     370.0231      2.576     4.51     1219.274     65.28103     131.6412         6     1.294     0.447 -79.73   0
       280    487.8655    287.0727 307.7231380  +6.5502789     2624.561     5054.454     7368.851     92.83688     185.3062     370.3546      2.234     6.62     1209.205     65.28103     313.5535        24     1.997     0.820  35.94   3
       281    489.6539    283.7686 307.7225048  +6.5517026         2779      6549.55      10000.4     92.68987     185.3062      370.281      2.884     9.68     1208.905     65.28103     290.4325        46     2.820     1.216  33.29   3
       282    758.3370    284.2988 307.6107898  +6.5604781     1224.093     3322.792     4503.782     92.54263     185.3062     370.3915      2.795     9.42     1209.856     65.28103     150.2421        22     1.816     1.364 -37.38   0
       283    378.3324    271.7978 307.7691822  +6.5529099     2090.279     4372.645     5930.919     92.09948     184.7903     370.1336      2.467     7.31     1212.586     65.28103     263.5544        34     2.245     1.016  28.28   3
       284    380.2847    268.2524 307.7684891  +6.5544388     2295.733     5166.394     7370.671     92.83688     185.1589     370.5019      2.727     9.21     1212.412     65.28103     248.2612        39     2.715     1.109  30.00   3
       285    233.9447    271.7228 307.8292076  +6.5480917     861.2479     2069.324     3255.049     92.83688     185.2325     370.3915      3.112     7.75     1219.228     65.28103     122.4078        12     1.454     1.155  49.73   0
       286    747.0405    265.3005 307.6161185  +6.5679423     19122.89     58349.92     79656.67     92.83688     185.0853     370.6123      3.018     7.40     1209.322     65.28103     2087.973       123     2.574     2.135  33.61   0
       287    980.5363    263.4024 307.5191082  +6.5765231     829.2195     2036.393     2474.486     92.09949     185.0116     370.0968      2.461     5.47     1204.094     65.28103     125.3755         9     1.432     0.590  39.12   2
       288    922.7252    261.2988 307.5432127  +6.5754626     1133.975     2627.477     2778.915     92.24744     185.3797      370.281      2.321     7.58     1206.941     65.28103     125.3546        17     1.450     1.110 -46.48   0
       289    744.8047    251.7811 307.6174980  +6.5734479      1896.63     3554.907     5463.874     92.39515     184.7903     370.1336      2.561     7.13     1208.957     65.28103     235.0532        28     2.096     0.985  28.89   3
       290    745.7777    248.7756 307.6171935  +6.5747210     2021.847     4677.483     5971.653     92.24743     185.0116     370.3546      2.468     8.11     1208.873     65.28103     212.9043        26     2.180     0.906  29.62   3
       291    184.3353    252.0045 307.8504902  +6.5545626     735.9075     1935.117     2460.655     91.95129     184.8641     370.1336      2.616     6.36     1222.439     65.28103     96.42419        11     1.569     0.725  46.48   0
       292    762.1167    247.7319 307.6104355  +6.5756981     908.0092     2767.489     3539.218      93.1302     185.5268     370.3915      2.910    10.54     1208.845     65.28103     100.9142        21     1.782     1.736 -26.33   0
       293    351.7025    244.5270 307.7811639  +6.5632722     709.8201     1925.457     3225.436     92.39515     185.3797     370.3546      3.608     9.13      1212.88     65.28103     110.7528        11     1.796     1.296  24.27   0
       294   1000.0468    238.4925 307.5118239  +6.5874558     2922.265     7709.456     9407.804     92.83688     185.1589     370.5019      2.658     6.58     1201.723     65.28103     288.3958        50     2.041     1.582  39.60   0
       295    477.9954    239.0201 307.7288449  +6.5697822     669.7455     2111.401     2973.964     92.39515     184.8641     370.1336      2.646     6.39     1204.858     65.28103     122.2356         8     1.908     0.601 -82.45   0
       296    239.5998    236.8089 307.8280248  +6.5626925      1613.09     2946.588     4509.125     92.09948     184.8641     370.0968      2.217     7.10     1218.491     65.28103     227.6125        24     1.842     0.982  29.24   3
       297    241.8636    233.5411 307.8271930  +6.5641174     1793.219     4168.174     6612.249     92.98366     185.1589     370.3915      3.363    10.92     1218.291     65.28103     201.9249        37     2.697     1.233  29.51   2
       298    960.8027    224.0666 307.5286190  +6.5921015     552.2979     981.4373     1458.157     92.09948     184.8641     370.0968      1.881     4.36     1203.001     65.28103      91.1366         5     1.022     0.529 -56.03   0
       299    717.0062    212.9870 307.6303467  +6.5885312     1686.224     4935.627     6898.777     92.39515     185.0116     370.2073      3.079    10.12      1206.49     65.28103     188.5309        29     1.846     1.547  68.89   2
       300    657.7169    216.0721 307.6548933  +6.5852742     862.6748     2190.872     3299.807      93.1302     185.6003     370.3915      2.817     4.52     1204.714     65.28103     121.6604         8     1.247     0.465  47.53   0
       301    896.3789    215.6194 307.5556843  +6.5934383     630.4061     1661.495     2437.893     92.54263     185.1589     370.2442      2.367     3.53     1205.119     65.28103     100.0834         5     1.100     0.327  70.04   0
       302    216.9100    202.1264 307.8386179  +6.5762451     754.9124     1698.433     2593.352     92.83688     185.5268     370.3915      2.811     6.84     1221.615     65.28103     126.7512        10     1.339     0.978   3.54   0
       303    750.2367    198.1185 307.6170260  +6.5957796     720.5463     1711.536     2087.166     92.83688     185.3062     370.3178      2.634     6.08     1206.025     65.28103     112.7827         7     1.180     0.881  68.71   0
       304    450.2544    191.1733 307.7419751  +6.5886011     6675.377     14765.44     18119.26     92.39515     185.3062     370.1705      2.366     6.85     1204.486     65.28103     711.5295        42     2.376     1.036  30.43   3
       305    452.2139    188.0159 307.7412659  +6.5899701     6965.969     16726.46      24445.6     92.54263     184.8641      370.281      2.853     8.66     1204.226     65.28103     678.4744        61     2.731     1.357  28.08   3
       306    777.1707    188.2433 307.6061567  +6.6007562     4868.605     14973.07     20785.98     92.39515     185.2325     370.2442      3.029     7.65     1205.151     65.28103     493.4556        79     2.431     1.980  35.45   0
       307    139.3842    183.4919 307.8714710  +6.5813292     710.6633     2049.704     2883.501     92.54263     185.0116     370.1705      2.113     4.21      1225.84     65.28103     96.58032         6     1.749     0.289 -31.66   0
       308    575.2557    175.0929 307.6905425  +6.5994281     1556.375     4887.762     6333.593     92.68987     185.2325     370.5755      2.984    10.67      1202.32     65.28103     192.2904        45     2.066     1.823  30.91   0
       309    936.2426    171.9229 307.5405625  +6.6128054     1183.097     3131.018     3591.238     92.68987     185.2325     370.3915      2.548     8.58     1201.708     65.28103     142.3746        20     1.743     1.248 -63.09   0
       310    882.3040    171.5146 307.5630023  +6.6111734     4666.152     13039.14     16502.58     92.83688     185.6738     370.4651      2.766     6.72     1202.433     65.28103     486.9036        72     2.311     1.826  32.47   0
       311      7.9476    170.8179 307.9265367  +6.5821352     7216.482     14379.76     17087.94     92.24744     185.3062     367.9905      2.207     6.58     1234.273     65.28103     826.0232        40     2.273     1.045  33.75  19
       312      9.6074    167.4458 307.9259598  +6.5835829      8804.21     20628.23     26990.92     92.24744     185.0116     369.9494      2.672     7.82     1234.158     65.28103      914.089        60     2.672     1.260  35.47  19
       313    968.9840    169.2403 307.5270386  +6.6150050     4505.865     11642.26     14151.19     92.24743     185.0116     370.0968      2.630     6.34     1200.402     65.28103     453.3204        66     2.272     1.687  37.98   0
       314    680.0835    169.4361 307.6471480  +6.6052723     1189.711     3322.474     4551.544     92.83688     185.2325      370.281      3.040     7.65     1203.408     65.28103     188.9655        25     1.786     1.529 -84.48   0
       315    872.8892    158.1302 307.5673617  +6.6163837     793.5984     1569.572     2424.143     92.83688     185.5268     370.3546      3.225     4.60     1201.485     65.28103     127.8934         7     0.886     0.680 -73.80   2
       316    821.5085    160.6696 307.5886400  +6.6136193     820.9355     1963.329     2467.979     92.83688     185.3797     370.3546      2.683     7.86     1202.475     65.28103     98.01819        11     1.568     1.102  24.20   0
       317    501.9373    158.7446 307.7215705  +6.6037192      877.818     2208.524     3738.527     92.98366     185.2325     370.3546      3.442     6.54     1201.684     65.28103     106.3597        10     1.319     0.909  19.19   2
       318    335.9784    157.4244 307.7906122  +6.5986963     2565.382     7587.215     12222.79     92.39515     185.0116     370.3546      3.384     8.27     1214.475     65.28103     259.7958        79     2.489     2.140  82.01   0
       319    732.4797    157.4734 307.6257619  +6.6119627     14491.48     44051.82     58560.56      93.1302     185.5268     370.3915      2.974     7.29     1202.882     65.28103     1445.883       107     2.525     2.097  32.28   0
       320    966.2354    156.4570 307.5286061  +6.6201899     1294.554     3162.511     3616.358     92.68987     185.2326     370.3915      2.494     7.70     1199.935     65.28103     148.7177        21     1.881     0.881  75.42   2
       321    969.2921    155.6512 307.5273619  +6.6206245      698.228      953.189     1331.808     92.68987     185.0853     370.5755      1.734     3.55     1199.846     65.28103     107.2019         5     0.952     0.383  45.44   3
       322    900.3956    154.4459 307.5560477  +6.6188228     3109.351     8556.788     9990.711     92.09949     184.9378     369.9862      2.648     6.95     1201.032     65.28103     308.5917        53     2.120     1.652  40.20   0
       323    442.6885    155.3899 307.7463155  +6.6031172     1384.816     3281.864     5619.741     92.39515     184.8641     370.1336      3.300     7.59     1203.359     65.28103     183.4125        17     1.783     0.904  57.98   3
       324    443.7532    151.7437 307.7459946  +6.6046579      1283.15      2814.67     5126.459     92.83688     185.2326     370.4651      3.256     8.69     1203.308     65.28103      157.645        18     1.910     1.104  58.31   2
       325   1004.0418    154.7128 307.5129448  +6.6221708     787.9291     1564.027     1329.717     92.83688     185.1589     370.3915      1.935     4.68     1198.787     65.28103     122.8756         8     1.747     0.356  70.57   2
       326   1006.7116    153.9723 307.5118594  +6.6225655     552.0843     859.5352     1021.959     92.98366     184.9378     370.2442      1.573     4.37     1198.678     65.28103     101.1455         5     1.178     0.461 -73.12   2
       327    100.1961    147.1958 307.8889786  +6.5949915     1468.573     3464.516     4821.342     92.09948     184.7165     370.1336      2.624    10.73     1226.978     65.28103     167.3387        32     2.428     1.321   9.64   3
       328    102.4823    143.8312 307.8881408  +6.5964572     1538.321     2979.398     4293.698     92.68987     185.0116      370.281      2.221     6.85     1226.885     65.28103     186.4388        18     2.120     0.621  21.76   3
       329    270.4293    143.9147 307.8183158  +6.6020707     9867.415     19831.21     24143.77     92.98366     184.8641     370.1705      2.279     7.33     1220.647     65.28103     1069.242        50     2.471     1.076  33.12   3
       330    272.5680    140.8532 307.8175290  +6.6034062     10584.44     26708.08     35462.65     92.68987     185.3062     370.2442      2.764     8.16     1220.452     65.28103     1104.188        65     2.784     1.294  32.91   3
       331    246.1615    145.1742 307.8283628  +6.6007353     1877.916      3736.01      5181.64     92.39515     185.0116     370.1705      2.298     7.90      1222.53     65.28103      211.726        32     2.317     1.052  32.95   3
       332    249.3422    142.6833 307.8271238  +6.6018703     1701.642     3399.549     3810.996     92.83688     185.2326     370.4283      2.333     5.89     1222.315     65.28103     198.3918        16     1.369     0.883  49.38   3
       333    246.5403    141.5022 307.8283282  +6.6022637     1708.078     3554.476     4876.539     92.54263     185.2326     370.5019      2.700     5.90     1222.483     65.28103     230.6093        17     1.555     1.024  34.48   3
       334    394.7782    139.4418 307.7667671  +6.6080925     15240.75      30896.5     37454.62     92.39515     185.0116     370.0968      2.275     6.74     1207.458     65.28103     1708.042        58     2.447     1.147  29.23   3
       335    396.4839    135.9923 307.7661732  +6.6095735     15353.34     36369.42        47684     92.39515     184.8641     370.1705      2.679     8.13     1207.343     65.28103     1583.597        70     2.871     1.231  29.71   3
       336    150.5695    140.9334 307.8682463  +6.5992714     1230.781     2699.366     3492.873     92.54263     185.2325      370.281      2.547     6.49     1225.471     65.28103     206.1166        15     1.666     0.709  37.72   3
       337    152.9811    137.5246 307.8673579  +6.6007595     1326.894     3215.859     4838.223     92.24743     184.9378      370.281      2.882     9.71      1225.41     65.28103     151.0367        28     2.207     1.193  41.23   2
       338    298.8713    137.1664 307.8067167  +6.6058116     5583.707     12429.38     14957.83     92.68987     185.2325     370.4283      2.385     7.37     1218.333     65.28103      616.931        48     2.330     1.219  29.89   3
       339    300.9941    133.8780 307.8059442  +6.6072402     5515.893      13401.8      20870.3     92.39515     184.6426     370.0968      3.311     8.70     1218.201     65.28103     555.8469        73     3.495     1.433  21.58   3
       340    734.9425    133.3860 307.6255400  +6.6219875     12033.94     37116.88     49951.14     92.09948     185.0853     369.9862      2.967     7.34     1201.562     65.28103      1328.71       103     2.521     2.047  37.45   0
       341     50.8041    133.0106 307.9099879  +6.5991834     2689.659      5818.19     7243.071     92.39515     184.8641     370.2442      2.383     7.88     1230.244     65.28103     285.6664        35     2.255     1.119  28.46   3
       342     53.3028    130.1285 307.9090457  +6.6004571     2756.577     6421.138     8591.862     92.68987     185.3797     370.3546      2.589     9.22     1230.026     65.28103     307.4308        40     2.676     0.998  31.44   3
       343    993.6596    114.6403 307.5185924  +6.6383653     1081.313     2335.266      3895.36     92.83688     185.2326     370.4283      3.393     7.11     1197.816     65.28103     125.7371        16     1.716     0.826  59.19   0
       344    269.4666    110.2911 307.8198408  +6.6159165     9022.516     18042.33     22956.51     92.83688     185.3797     370.3915      2.384     7.18     1221.183     65.28103     1003.826        49     2.452     1.108  25.94   3
       345    271.4754    106.9987 307.8191157  +6.6173429     9166.223     22542.26     30731.14     91.95129     184.5688     370.1705      2.791     8.35     1221.076     65.28103      933.632        70     2.811     1.360  29.35   3
       346    583.9388    111.1010 307.6890665  +6.6261322     632.7602     1632.731     2956.817     92.54263     185.1589     370.5019      3.277     4.88      1201.14     65.28103     104.8164         5     1.114     0.606 -70.50   2
       347     15.3824    108.4721 307.9255367  +6.6081184     1561.817     3731.823     5173.218     92.24744     185.1589      370.281      2.640     8.93     1232.027     65.28103     203.7257        26     1.993     1.117  15.14   3
       348     17.1744    105.4752 307.9248923  +6.6094156     1392.442     3043.838     4055.161     92.39515     185.0116     370.3178      2.424     8.21     1231.794     65.28103      207.046        18     1.899     0.993  21.72   3
       349    701.0427    106.4838 307.6405308  +6.6319578     2356.687     5024.756     6855.677     92.83688     185.1589      370.281      2.545     9.15     1200.189     65.28103      333.976        38     2.791     1.346  27.84   3
       350    702.3466    103.3169 307.6400942  +6.6333086     2710.056     6599.655     8443.893     92.83688     185.2326     370.5019      2.619     7.78     1200.027     65.28103     278.6431        31     2.007     1.110  13.98   3
       351    112.3672    104.6230 307.8853450  +6.6129728     1527.893      2994.13     4174.278     92.24744     185.0116     370.0968      2.798     6.90     1226.219     65.28103     198.5006        24     1.940     1.015  33.39   3
       352    114.0088    101.1380 307.8847793  +6.6144665     1574.891      3637.63     5799.259     92.09948     185.0853     370.1336      3.679     9.64      1226.14     65.28103     181.7039        33     2.514     1.032  39.38   2
       353    383.7138     98.1851 307.7727458  +6.6247500     1379.131     4761.074     6985.341     92.39515     184.9378     370.2442      3.205    11.22     1209.485     65.28103     161.1577        49     2.229     1.850  70.50   0
       354    450.3915    101.2128 307.7449220  +6.6257375     465.9641     1230.213     1840.353     92.39515     185.0116     370.2442      3.270     5.15     1202.839     65.28103     71.52673         5     1.028     0.729  12.82   0
       355    346.4565     98.3835 307.7882295  +6.6234174     1091.425      2992.58     5298.396     92.09949     185.1589       370.06      3.832    10.37     1214.873     65.28103     132.6541        23     2.681     1.119  -3.95   2
       356    198.9919     87.7138 307.8498968  +6.6228662      1671.96     3665.858     4202.328     92.39515     184.8641     370.1705      2.237     7.93     1224.696     65.28103     182.4995        25     1.938     0.988  33.65   3
       357    200.8188     84.6889 307.8492385  +6.6241762     1708.577     3793.082     4922.797     92.54263     184.9378     370.2442      2.526     9.41     1224.639     65.28103     192.1055        35     2.466     1.042  37.84   3
       358    660.8118     86.1714 307.6579351  +6.6389959     2153.462     4097.238     6097.858     92.24743     185.0116     370.2442      2.413     6.05     1199.821     65.28103     267.1321        26     1.966     0.946  24.52   3
       359    662.1097     82.9737 307.6575020  +6.6403592     2055.873     4539.805         6296     92.98366     184.9378     370.1705      2.454     8.60     1199.752     65.28103     222.5695        29     2.235     0.925  25.25   3
       360     83.3319     83.7059 307.8981174  +6.6206288     815.6508     2064.733     4311.325     92.68987     185.4533     370.3915      4.270     5.72     1227.201     65.28103     123.9521         7     1.133     0.813 -33.63   2
       361    613.8071     81.7320 307.6776271  +6.6392547     3116.354     10423.91     14395.03     92.24744     184.9378     370.2073      3.095     8.16     1200.488     65.28103     340.9126        68     2.362     1.936  44.48   3
       362    617.4794     73.2991 307.6763813  +6.6428585     18079.73     58396.99     81893.85     92.68987     185.6003     370.3915      3.109     7.52     1200.262     65.28103     1993.287       126     2.633     2.213  39.56   3
       363    341.9034     76.6385 307.7908495  +6.6322398      1435.72     3932.332     6981.562     92.83688     185.0853     370.5387      3.788    10.61      1215.86     65.28103       201.23        31     2.260     1.618  26.54   2
       364    522.2835     77.6234 307.7158184  +6.6378845     715.3316     1673.444     2035.174     92.68987     184.9378      370.281      2.204     6.64     1201.151     65.28103     113.2252        10     1.982     0.624 -87.06   0
       365    296.3877     67.3814 307.8100833  +6.6345319     1332.753     4196.046     6566.336     92.54263     184.8641     370.2442      3.641    10.94     1221.049     65.28103     144.8429        38     2.085     1.793  19.61   2
       366    681.1198     57.6009 307.6504431  +6.6514682     1194.975     3268.558     3992.908     91.95129     184.5688       370.06      2.814     9.15     1198.961     65.28103       166.83        27     1.732     1.609  87.38   0
       367      2.0638     50.0265 307.9330343  +6.6317924     6741.077     13666.02     20292.87     89.69908     159.6064     292.4124      3.072     7.24     1232.761     65.28103     1206.722        71     3.259     1.283 -89.32  24
       368    422.1801     49.7577 307.7583703  +6.6460294     1235.717      2431.17     4382.484     92.24744     185.0853     370.1705      2.589     6.47     1207.494     65.28103     162.0643        15     1.804     0.651  33.54   3
       369    424.5347     47.1503 307.7574784  +6.6471846     1368.115     3146.104     5127.194     92.68987     185.0853     370.3546      3.229     9.44     1207.396     65.28103     149.5331        26     2.536     0.979  35.23   2
       370    896.1172     43.5268 307.5615141  +6.6644636     1862.156      4766.14     6007.015      93.1302     185.6003     370.3915      2.717     7.12     1194.194     65.28103     204.7877        38     1.930     1.549  57.22   0
       371    878.1102     44.8871 307.5689564  +6.6633009     1064.879     2583.266     3053.541     92.54263     185.7472     370.5019      2.367     8.50     1194.242     65.28103     128.6149        19     1.626     1.265 -34.92   0
       372    134.0524     39.3950 307.8785146  +6.6406250     1008.042      2117.71     3302.874     92.09948     184.9378     369.9125      3.134     5.91      1224.76     65.28103     131.9519        11     1.252     0.785  43.84   3
       373    135.1463     35.0167 307.8782064  +6.6424690     958.8767     2044.108     2926.266     92.24744     185.3062     370.0231      2.024     7.97     1224.667     65.28103     136.8394        14     1.927     0.923  44.55   2
       374     15.7240     36.9985 307.9277919  +6.6376298     3903.055     7947.952     10651.96     92.09948     184.5688     370.1705      2.377     6.69     1231.786     65.28103     410.0432        35     2.130     1.064  26.94   3
       375     17.7718     33.9822 307.9270417  +6.6389438     4248.853     9686.537     13519.43     92.39515     185.0116     370.2442      2.701     8.44     1231.645     65.28103     440.1188        52     2.681     1.278  32.54   3
       376    818.5236     29.3676 307.5942497  +6.6677163     2503.765     7125.688     9170.771     92.68987     185.2326      370.281      2.805     7.74     1193.394     65.28103     278.9061        54     2.128     1.745  29.03   0
       377    763.1290     30.5026 307.6172457  +6.6653963     1349.031     3475.013     4787.491     92.68987     185.3797     370.3915      3.065    10.23     1195.177     65.28103      189.985        27     1.978     1.650  32.55   2
       378     58.8066     26.1971 307.9102419  +6.6435392     1001.793     2736.219     3655.336     92.09948     184.8641     370.2073      2.891     9.10     1228.502     65.28103     136.5839        21     1.906     1.212  43.75   2
       379      1.6063     21.8056 307.9341712  +6.6434248     693.0352     1259.179     1070.868        84.21     151.9015     283.7495      1.952     4.30     1232.927     65.28103     101.7119         6     0.777     0.680 -25.00  26
       380    273.5319   1016.5319 307.7878570  +6.2419964     923.7438     2085.951     2691.447     92.83688     185.3797     370.3915      2.471     7.66     1257.222     65.28103     155.5431        13     1.835     0.894  47.03  16
       381    696.4940   1014.1444 307.6122084  +6.2571520     2676.273     5810.441     6924.526     92.68987     185.2325     370.5755      2.384     5.75     1256.709     65.28103      298.946        36     1.810     1.327  30.38  16
       382      1.1924   1014.9214 307.9010537  +6.2335064     1626.413     1976.143     1492.641     78.16296     144.3523     275.6561      1.103     3.36     1251.234     65.28103      430.869         8     1.121     0.392  88.00  24
       383    607.0615   1011.7501 307.6494455  +6.2551490     863.7358     1899.142     2108.583     92.83688     185.1589     370.4283      2.612     6.26     1256.871     65.28103     148.2761        11     1.202     1.046 -54.95   2
