#   1 NUMBER                 Running object number                                     
#   2 X_IMAGE                Object position along x                                    [pixel]
#   3 Y_IMAGE                Object position along y                                    [pixel]
#   4 ALPHA_J2000            Right ascension of barycenter (J2000)                      [deg]
#   5 DELTA_J2000            Declination of barycenter (J2000)                          [deg]
#   6 FLUX_APER              Flux vector within fixed circular aperture(s)              [count]
#   9 FLUXERR_APER           RMS error vector for aperture flux(es)                     [count]
#  12 FLUX_RADIUS            Fraction-of-light radii                                    [pixel]
#  13 FWHM_IMAGE             FWHM assuming a gaussian core                              [pixel]
#  14 BACKGROUND             Background at centroid position                            [count]
#  15 THRESHOLD              Detection threshold above background                       [count]
#  16 FLUX_MAX               Peak flux above background                                 [count]
#  17 ISOAREA_IMAGE          Isophotal area above Analysis threshold                    [pixel**2]
#  18 A_IMAGE                Profile RMS along major axis                               [pixel]
#  19 B_IMAGE                Profile RMS along minor axis                               [pixel]
#  20 THETA_IMAGE            Position angle (CCW/x)                                     [deg]
#  21 FLAGS                  Extraction flags                                          
         1    172.9963     16.1795 307.8648554  +6.6682910     11112.92     16927.91     17119.62     77.66525     155.3925     311.0949      1.558     4.23     835.3758     54.87374     1632.806        35     1.574     0.881 -39.54   0
         2    918.6024     13.6469 307.5550856  +6.6942345     3883.716     5898.893     6261.486     77.41672     155.3925       310.94      1.619     4.40     824.9575     54.87374     598.7904        24     1.539     0.784 -42.47   0
         3    517.1986     14.1821 307.7218845  +6.6806336     3005.177     4447.402     4795.337     77.66525     155.2684      311.033      1.523     4.18     824.8743     54.87374     444.6027        20     1.463     0.751 -40.09   0
         4    455.4146     12.5342 307.7476153  +6.6792497     2018.125     3096.505      3606.09     77.54108     155.5784     311.2497      1.674     4.62     827.2737     54.87374     321.9771        19     1.521     0.750 -37.35   0
         5    719.4377     12.4477 307.6378960  +6.6880980     1959.813     2670.386     2700.671     77.91299     155.7022     311.2188      1.524     4.45     823.8796     54.87374     289.4881        14     1.302     0.651 -40.51   0
         6    983.3543     10.0886 307.5282935  +6.6978569     1900.588     2781.816      2669.09     78.03655     155.5784     311.3426      1.541     4.10     820.4993     54.87374     279.5923        18     1.415     0.797 -47.84   0
         7    702.8024      6.5093 307.6450075  +6.6899956     7588.517      11389.7     11550.41     77.41672     155.3925     299.7051      1.589     4.38     823.7295     54.87374     1146.479        31     1.550     0.870 -42.61  16
         8    622.9365      5.7669 307.6782232  +6.6876385     3928.933     5688.729      5669.42     77.91298     155.7641     293.0402      1.521     4.22     823.5839     54.87374      574.881        19     1.405     0.736 -38.98  16
         9    324.7208      5.7423 307.8021547  +6.6776828     1009.048     1594.756     1806.369     78.03655     155.7022     292.7441      1.646     5.96     835.3818     54.87374     135.2962        14     1.455     0.686 -42.62  16
        10    378.7975      3.7531 307.7797488  +6.6803136     784.0348     1219.133     1214.608     77.41672     151.6264      269.577      1.531     5.90     832.6927     54.87374     128.8743        11     1.576     0.622 -49.46  24
        11    423.1023      2.2049 307.7613888  +6.6824346      6517.11     8711.745     9127.515     76.79187     135.8743     247.8641      1.422     4.47     829.5528     54.87374     996.5107        21     1.407     0.733 -32.03  24
        12     23.9706      2.0603 307.9272566  +6.6691213      8252.87     11166.06     10915.04     75.52668     134.1615     245.7952      1.443     4.60      836.492     54.87374     1184.525        24     1.422     0.798 -26.01  24
        13    669.2355      1.3820 307.6591285  +6.6909936     653.3584     847.3887     1233.294     68.00803     124.2427     234.8493      1.389     4.41     823.4661     54.87374     149.6321         7     1.152     0.479  -4.37  24
        14    805.9320    996.8204 307.5691748  +6.2844965     1140.467     1983.846      1809.16     77.66525     155.6404     311.2188      1.818     6.52     852.7394     54.87374     147.3291        16     1.660     0.718 -31.17   0
        15    711.8456   1022.5463 307.6073881  +6.2707404      6467.63     9861.207      10160.8     78.03655     139.1674     251.8364      1.668     4.35     856.5791     54.87374     795.7579        29     1.550     0.988 -24.97  24
        16    704.2222   1022.3288 307.6105609  +6.2705763     1079.188     1821.531     2080.648     77.66525       141.57     254.9167      1.832     6.57     856.5252     54.87374     129.2344        14     1.460     0.830 -43.14  24
        17    579.6843   1023.7047 307.6622285  +6.2658565     9452.723     11601.16     13297.37     67.43891     123.4647     233.7389      1.071     2.49     857.2676     54.87374      3108.01        26     1.478     0.608   2.52  24
        18    567.8881   1021.9227 307.6671862  +6.2661989     3846.938     6377.939     7093.006     78.03655     146.2568     260.8945      1.813     4.19     857.2024     54.87374     460.9825        29     1.542     1.021 -35.92  24
        19    426.7986   1022.6325 307.7257479  +6.2611957     3596.072     5474.958     6146.335     76.91725     137.7057     250.2628      1.664     4.85      857.191     54.87374     485.3653        24     1.611     0.853 -31.87  24
        20    414.2815    997.0651 307.7317993  +6.2713350      853.961      1385.14     1707.421     78.28312     155.8878     311.3116      1.762     5.44     856.8868     54.87374      134.555        10     1.294     0.646 -38.06   0
        21    261.6174    994.3057 307.7952832  +6.2673700      898.849     1285.567     1323.086     77.91298     155.5165     311.1878      1.579     5.77     856.7454     54.87374     141.4036        13     1.565     0.599 -37.65   0
        22    905.9597    990.8986 307.5278341  +6.2902694     7401.326     13721.74     14546.25     78.03655     155.5784     311.5282      1.970     4.40     851.6624     54.87374     839.3862        45     1.779     1.264 -41.48   0
        23    537.1793    990.3212 307.6809919  +6.2782235     7848.448     12625.34     13616.37     77.66525     155.3925     311.3116      1.712     4.24     856.7808     54.87374     949.4439        36     1.665     0.986 -40.74   0
        24    879.4890    987.0405 307.5389547  +6.2909823     10504.73     19234.05      20766.5     78.03655     155.6404     311.3426      1.957     4.65     851.7178     54.87374     1206.168        50     1.797     1.254 -40.76   0
        25   1001.3240    986.4214 307.4883812  +6.2952876       4008.1     7741.424     8133.893     77.66525     155.5165     311.2497      2.042     4.71     847.9722     54.87374     458.9722        40     1.754     1.315 -42.27   0
        26    592.5040    987.1979 307.6581224  +6.2813589     1436.849     2283.818     2349.593     77.54108     155.3925      311.002      1.780     4.75     856.5267     54.87374     172.0535        16     1.227     0.872 -55.40   0
        27    523.6417    986.2230 307.6867501  +6.2794640     3973.135     6592.257     7088.833     77.66525     155.5165     311.0949      1.792     4.26     856.7904     54.87374     514.6012        31     1.614     1.049 -27.53   0
        28    633.4578    985.2498 307.6411811  +6.2835291     1408.879     2562.022     2616.489     78.03655     155.7022     311.3426      1.925     4.70     856.1581     54.87374     178.5134        20     1.456     0.896 -37.20   0
        29     58.3026    984.8267 307.8800224  +6.2644741     815.4359     1086.443     767.6332     78.15993     155.4545     311.2497      1.500     4.33     852.6305     54.87374     128.3231         8     1.040     0.593 -30.75   0
        30    789.2829    983.8101 307.5765213  +6.2893147      606.688     957.5524     699.8392     77.66525     155.4545     311.1568      1.571     4.15     853.2917     54.87374     88.17493         6     0.757     0.649  34.43   0
        31    476.4865    982.6699 307.7064498  +6.2793570     2083.482     3386.585      3596.05     78.15993     155.9496     311.3426      1.742     4.28     856.9316     54.87374     318.6679        24     1.629     0.914 -35.16   0
        32    911.2696    974.5902 307.5261710  +6.2971803     37658.94     68017.36     73675.02     77.54108     155.5165     311.1568      1.939     4.37      851.504     54.87374     4460.208        80     1.855     1.346 -42.67   0
        33    317.0260    975.3569 307.7729092  +6.2770480     396.6207     562.3065     370.6097     77.66525     155.7022     311.2188      1.169     3.86     856.4997     54.87374     74.58875         5     1.338     0.320 -50.54   0
        34    218.4758    973.1362 307.8139054  +6.2746674     1708.032     2971.106     2652.424     78.28312     155.7022     311.2807      1.748     4.88     855.3649     54.87374      211.379        20     1.535     0.864 -33.93   0
        35    106.6502    972.2159 307.8603699  +6.2713020      681.485     983.1629     772.1995     77.54108     155.7641      311.033      1.641     4.87     852.8062     54.87374     94.36621         7     1.078     0.624 -59.79   0
        36    617.5334    970.9453 307.6482706  +6.2889049     680.0057     984.2641     787.0622     78.03655     155.6404     311.3116      1.544     4.26     855.9979     54.87374      112.094         7     0.968     0.590 -31.89   0
        37    809.1757    968.2861 307.5687771  +6.2963874     2064.465     3521.294     3642.321     78.03655     155.5165     311.1568      1.784     5.06     852.6898     54.87374      235.243        22     1.499     1.005 -48.31   0
        38    757.3571    966.2630 307.5903630  +6.2954977     6134.256     10448.72     11121.75     78.03655     155.6404     311.3426      1.836     4.32     854.1196     54.87374     784.4468        37     1.691     1.097 -39.89   0
        39    544.1929    965.9061 307.6788939  +6.2885393     801.2765      1278.59     1187.578     77.66525     155.3925     311.1259      1.595     5.24     856.4492     54.87374     140.4319         8     1.332     0.597 -43.85   0
        40    226.8303    965.4208 307.8106945  +6.2781330     1521.632     2409.048     2222.059     77.54108     155.5165     311.1878      1.671     4.20     855.2037     54.87374     209.3253        20     1.532     0.858 -44.24   0
        41    191.2705    964.9266 307.8254768  +6.2771465      753.869     1232.622     1026.699     78.15993      155.826     311.3116      1.650     5.75     854.1949     54.87374     112.7953         9     1.471     0.633 -27.53   0
        42     51.6989    963.5073 307.8834791  +6.2730559     2628.085     4518.731     4248.113     78.03655     156.2582     311.2497      1.790     4.53     851.8948     54.87374     366.0312        25     1.600     0.945 -38.87   0
        43    945.6218    961.2552 307.5123486  +6.3038289     5759.063     10685.44     11237.09     77.54108     155.7022     311.1259      1.957     4.36     850.4662     54.87374      712.877        43     1.714     1.270 -46.25   0
        44    201.4816    957.9906 307.8214690  +6.2803525     606.6385     788.4141     268.7326     77.66525     155.3305     311.1568      1.466     4.77     854.2474     54.87374     95.66406         7     0.968     0.666 -30.91   0
        45    919.2221    953.2043 307.5235793  +6.3062758     1698.005     3178.249     3111.503     77.66525     155.4545     311.0949      1.854     5.22     851.2232     54.87374     236.0073        24     1.672     1.033 -44.26   0
        46    627.7607    955.9588 307.6445231  +6.2954344     708.9022     953.0274      1333.25     77.78921     155.7641     311.1878      1.877     3.90     855.5648     54.87374     100.6202         8     0.965     0.606 -26.91   0
        47    640.0783    949.0049 307.6396398  +6.2987165     4456.643     7336.995     7513.164     77.66525     155.2064     311.0949      1.680     4.32     855.3105     54.87374     563.0742        30     1.631     0.953 -40.21   0
        48    252.1999    949.3162 307.8006988  +6.2856321     4219.257     6587.585     6550.293     77.29215     155.2064      310.971      1.641     4.36     854.6335     54.87374     552.5444        29     1.599     0.934 -34.97   0
        49    778.9313    949.3961 307.5819653  +6.3031810     1188.375     2032.848     2266.146     77.41672     155.3305     311.0949      1.814     4.13     853.2703     54.87374     177.9459        16     1.308     0.833 -46.32   0
        50    989.6272    949.1462 307.4944764  +6.3102915     514.3163     1035.327     838.8317     77.78922      155.826     311.2188      1.866     3.41     848.4955     54.87374     77.57721         5     0.766     0.439 -71.12   0
        51    462.2907    947.4971 307.7135188  +6.2934068     1062.244      1542.75      1185.28     78.03655     156.1348     311.3116      1.662     5.34     856.4825     54.87374     137.4213        12     1.093     0.760 -46.43   0
        52     20.9316    946.7880 307.8968151  +6.2789277     1940.929     3300.764     3497.538     77.54108     155.5165     311.2188      1.717     5.00     850.9382     54.87374     262.7493        23     1.635     0.854 -33.48   0
        53    871.6136    945.4657 307.5436073  +6.3078882     859.9985     1532.241     1660.117     77.54108     155.5165     311.2497      1.972     6.69     851.6823     54.87374     107.7147        14     1.481     0.847 -47.72   0
        54    287.6846    943.4310 307.7861607  +6.2892495     786.9645     1430.637     1475.416     78.03656     155.5165     311.1878      1.632     5.28     854.7919     54.87374      107.722        10     1.436     0.548 -38.07   0
        55    943.6500    942.4146 307.5137935  +6.3115434     609.6444     1256.483     867.6512     77.41672     155.7022      311.033      2.040     5.63     850.3707     54.87374     90.32703         7     1.360     0.657  27.11   0
        56    995.6620    941.1089 307.4922372  +6.3138109     755.1529     1520.956     1846.361     78.03655      155.826     311.4045      2.201     6.68     848.2469     54.87374     106.3015        12     1.337     0.936  75.88   2
        57    564.8069    941.5825 307.6711450  +6.2992711     1669.375     2570.925     2384.887     77.66525     155.4545     311.1568      1.678     5.54     855.9089     54.87374     216.9928        19     1.499     0.852 -23.84   0
        58     53.3826    938.6820 307.8836121  +6.2833631     746.3936     1169.662     1998.275     77.66525     155.3925     311.2497      2.696     5.45     851.1177     54.87374     104.6672        10     1.200     0.845 -17.61   2
        59    603.9279    937.9714 307.6550197  +6.3020672     1261.521     2080.476     1924.507     77.91298     155.7022     311.2807      1.521     4.52      855.364     54.87374     164.6326        14     1.261     0.750 -37.63   0
        60    283.7656    935.7244 307.7880458  +6.2923006     1587.543     2744.507     3687.201     77.91298     155.7022     311.2807      1.796     4.87     854.4667     54.87374     231.9293        22     1.596     0.860 -41.93   0
        61    552.3496    933.9389 307.6765731  +6.3020118     510.9685     803.7687    -11.45535     78.03655     155.6404     311.3735      1.450     3.87     855.9496     54.87374     100.2622         6     1.361     0.316 -47.34   0
        62    751.0140    931.5451 307.5941528  +6.3096228     861.7806     1496.899     1310.154     77.41672     155.6404      311.033      1.692     5.36     853.3852     54.87374     110.4662        11     1.383     0.752 -17.93   0
        63    888.2982    928.1692 307.5372536  +6.3155856     6248.168     10945.11     11069.86     78.03655     155.4545     311.3735      1.861     4.35     851.4133     54.87374     753.7001        40     1.696     1.176 -42.22   0
        64    126.9434    930.0598 307.8533557  +6.2893891     606.8245     898.2062     910.2075     78.15993     155.7022     311.3426      1.448     5.16     852.2804     54.87374     99.60522         7     1.091     0.690 -65.88   0
        65    325.7597    923.9665 307.7710007  +6.2985605     9522.298     14861.24     15714.73     77.78921     155.6404     311.1568      1.654     4.25     854.7231     54.87374     1292.991        37     1.605     0.981 -38.43   0
        66    245.8809    922.9134 307.8042062  +6.2963229     7182.266     11237.99     11652.44     77.78922     155.9496     311.4354      1.649     4.17     853.5646     54.87374     964.2762        33     1.597     0.934 -38.44   0
        67    758.5626    916.6543 307.5915137  +6.3160231     726.5565     1426.273      1404.17     77.91299     155.7022     311.3426      2.118     5.00     853.1786     54.87374     110.6666         8     1.233     0.665 -61.01   0
        68    573.9051    917.1678 307.6681811  +6.3096563     1101.058     1681.033      1468.64     78.15993     155.5784     311.3735      1.679     5.87     855.2883     54.87374     179.1757        15     1.513     0.722 -29.28   0
        69    904.2495    913.1854 307.5311274  +6.3223034     859.4131     1376.434     1414.514     77.41672     155.6404      311.033      1.779     4.62     851.0215     54.87374     147.4708         8     1.088     0.558 -35.49   0
        70    208.0055    912.7896 307.8202729  +6.2992354     542.2543     784.6455     800.6592     77.54108     155.4545     311.2188      1.474     3.68     853.1147     54.87374     89.99286         6     0.897     0.476 -36.36   0
        71    424.1186    925.6372 307.7301002  +6.3011583     2185.546     3482.778     3350.311     78.03655     155.7641     311.2807      1.643     4.81     855.9039     54.87374     320.2341        18     1.471     0.758 -35.79   0
        72    402.5043    911.9180 307.7395342  +6.3061012     622.6578     771.3395     1189.511     77.78921     156.0114     311.4354      1.541     4.78     855.1376     54.87374     109.2027         6     1.145     0.566 -25.98   0
        73    860.7396    911.2734 307.5492601  +6.3216459     629.2366      922.706     720.8049     78.15993     155.7022     311.3426      1.707     4.58     851.6459     54.87374     92.19977         7     1.161     0.513 -36.54   0
        74    740.4188    906.2861 307.5993938  +6.3197003     1602.013     2348.839      2684.54     77.66525     155.4545     311.2188      1.580     4.52     853.2717     54.87374     224.3374        16     1.390     0.756 -43.26   0
        75    604.2269    903.5065 307.6560447  +6.3163090     723.4242     1240.585     1107.436     78.15993     155.4545     311.1568      1.839     6.66     854.8217     54.87374     130.5511        10     1.805     0.690 -63.59   0
        76    972.1033    901.8632 307.5033244  +6.3292343      1092.12     2000.639     2615.793     77.91298      155.826     311.3735      1.967     5.29     848.6512     54.87374      168.338        18     1.349     1.122 -52.63   0
        77    616.4973    902.5894 307.6509796  +6.3170969     610.1211       885.81     739.5837     77.78922     155.3305     311.1568      1.825     5.39     854.7101     54.87374     107.0638         8     1.296     0.633 -51.96   0
        78    525.4156    902.2669 307.6888147  +6.3141913     1154.692     1858.215     1926.508     77.54108     155.5784     311.2188      1.980     5.47     855.1413     54.87374     161.2712        12     1.315     0.641 -46.10   0
        79    658.8926    899.6876 307.6334702  +6.3197086     2496.516     3774.705     3869.634     78.03655     156.1348     311.4045      1.579     4.24     854.1998     54.87374     322.4055        24     1.545     0.920 -34.17   0
        80     55.3778    896.1575 307.8842092  +6.3009891     2943.232     4873.208     4927.571     77.66525     155.5784     311.1568      1.802     4.33     849.7822     54.87374     392.6316        25     1.589     0.900 -39.17   0
        81    819.4534    896.2249 307.5669065  +6.3264862     727.5187     1033.815       1068.1     77.54108     155.7641     311.1568      1.707     5.70     852.4302     54.87374     101.7865         8     1.195     0.765 -68.26   0
        82    198.9902    895.0892 307.8246091  +6.3062425     2177.491     3339.133      2932.72     77.78922     155.3925     311.1259      1.561     4.14     852.8181     54.87374     299.8326        20     1.515     0.741 -36.89   0
        83     72.9374    895.4361 307.8769418  +6.3018758     2052.869     3018.731     2474.334     78.03655     155.7022     311.3116      1.564     4.49     849.9797     54.87374     279.3521        18     1.394     0.797 -30.31   0
        84    936.8924    894.7966 307.5181821  +6.3309822      655.365     1098.182     873.6424     77.66525     155.3925     311.0949      1.706     4.90     850.1121     54.87374     106.7503         6     1.032     0.660  89.38   0
        85    338.2986    890.9896 307.7668963  +6.3125968     1004.236     1576.141     2532.673     77.78921     155.3305     311.1259      1.857     4.93      853.733     54.87374      138.824        11     1.173     0.669 -52.57   0
        86    233.1308    891.8625 307.8105398  +6.3087179      749.233     1100.298     842.7197     78.03655     155.7022     311.3735      1.700     5.13     853.2538     54.87374     128.6387         9     1.417     0.524 -38.93   0
        87    791.4301    889.7357 307.5787602  +6.3282331     669.1533     1135.721     620.9749     77.78922     155.7641     311.2497      1.813     4.69     852.8896     54.87374     126.3223         8     1.258     0.497 -41.97   0
        88    653.5367    888.8552 307.6360555  +6.3240032     6779.395     10332.06     10795.58     78.15993     155.6404     311.3116      1.665     4.04     854.0522     54.87374     895.8424        30     1.578     0.898 -35.88   0
        89     13.1682    887.4316 307.9020294  +6.3031766     1129.693     2073.047      2055.04     77.54108     155.4545     311.0639      1.844     4.79     848.9766     54.87374     179.5568        13     1.352     0.697 -25.04   0
        90    891.3262    885.0665 307.5374291  +6.3334851     2735.332     4469.589     4573.623     78.15993      155.826     311.2807      1.729     4.30      850.915     54.87374     301.1315        23     1.463     0.947 -39.06   0
        91     26.9553    885.6142 307.8963653  +6.3043895     1066.554     1897.801     1819.281     77.41672     155.5165     311.0639      1.779     5.85     849.1194     54.87374     146.7466        14     1.448     0.730 -33.87   0
        92     71.1440    883.2809 307.8780939  +6.3068348     1205.329     1970.989     1672.347     78.15993     155.7022     311.3426      1.681     5.28     849.5643     54.87374     185.9243        15     1.556     0.655 -44.58   0
        93    336.5218    882.1519 307.7679296  +6.3161868     16525.78     25382.79     27062.31     78.03655     155.7641     311.2497      1.660     4.23     853.4185     54.87374     2182.551        42     1.634     0.944 -38.52   0
        94    207.3817    881.6791 307.8215734  +6.3120608     1332.044     2085.393      1983.35     77.66525     155.3925     311.2497      1.672     4.46     852.8105     54.87374     202.8691        14     1.368     0.710 -45.60   0
        95    387.3416    881.0862 307.7468610  +6.3183258     741.1066     1209.321     1439.537     78.03655     155.7022     311.4354      1.661     6.50     853.6979     54.87374     101.5888        10     1.366     0.868  -8.98   0
        96    414.4521    873.3217 307.7358620  +6.3224380     1125.735     1502.256     1123.991     78.03656     155.7022     311.3116      1.622     4.07     853.6588     54.87374     143.9472        13     1.153     0.893 -17.58   0
        97     99.8668    872.9221 307.8665137  +6.3120750     1670.771     2814.276     3762.636     78.15993     155.7641     311.2807      1.792     4.70     849.6434     54.87374      227.993        21     1.603     0.881 -38.37   0
        98    494.6610    869.5162 307.7026795  +6.3266885     830.5327     1123.872     1407.592     78.15993     155.7641     311.3735      1.733     5.87     854.0015     54.87374     115.4902        11     1.306     0.743 -31.43   0
        99    668.1557    868.8922 307.6306495  +6.3327339     884.9788     1294.398     1807.794     78.03655     155.6404     311.4354      1.657     5.35     853.4659     54.87374      166.021        11     1.343     0.601 -34.87   0
       100    881.5029    866.5511 307.5421243  +6.3408042     1712.875      2965.18     2306.206     77.91299     155.6404     311.4664      1.817     5.22     850.8504     54.87374     203.3391        22     1.567     1.023 -28.35   0
       101    852.3261    866.2687 307.5542510  +6.3399502      2059.15     3291.782      3061.61     78.15993      155.826     311.2807      1.687     4.47     851.4348     54.87374     284.4972        24     1.495     0.984 -40.41   0
       102    815.6555    865.8658 307.5694938  +6.3388963     2773.338     4534.415     4428.053     78.15993     155.5784     311.3116      1.764     4.34     852.4272     54.87374     356.5548        29     1.609     1.039 -44.22   0
       103     83.5054    866.3301 307.8735289  +6.3142485     2262.265     3776.465     4311.785     77.91299     155.7641     311.3116      1.841     4.89     849.1605     54.87374     358.6154        22     1.654     0.797 -31.11   0
       104    551.6102    857.2946 307.6794370  +6.3336361     338706.6       518080     541754.4     77.66525     155.3305     311.0949      1.652     4.16     853.5698     54.87374     46922.33       174     1.765     1.187 -39.67   0
       105    395.8544    859.8998 307.7440337  +6.3273588     7852.549     11961.25        12505     77.78921     155.7022     311.5901      1.576     4.09     853.0172     54.87374      1105.41        32     1.571     0.885 -37.21   0
       106    339.0683    858.3799 307.7676668  +6.3260880     12651.04     19322.94     20768.54     77.66525     155.6404     311.2188      1.602     4.35     852.7093     54.87374     1680.596        40     1.631     0.932 -42.48   0
       107    639.5117    860.2167 307.6428345  +6.3353614     1256.477     1781.364     1711.855     77.78922     155.4545     311.1878      1.455     4.43     853.7073     54.87374     182.7416        14     1.359     0.684 -31.24   0
       108    889.6901    853.3044 307.5391646  +6.3465465     4870.463     8526.229     9274.305     78.03655     156.1348     311.3116      1.894     4.70     850.4226     54.87374     549.5599        40     1.921     1.203 -18.61   0
       109    657.4337    854.6575 307.6355767  +6.3382545     3702.724     5587.052     5506.354     77.91299     155.7022     311.2807      1.646     4.29     853.3455     54.87374     510.2524        26     1.471     0.918 -37.27   0
       110    728.8214    851.3246 307.6060403  +6.3420096     785.4791     1280.627     1635.126     77.66525     155.5165     311.2497      1.786     5.12     852.8716     54.87374     100.7128         9     1.111     0.668 -45.23   0
       111   1022.7733    847.8049 307.4840762  +6.3532406     3820.939     5805.294     6100.691     76.41451     136.1577     248.1361      1.648     4.97      845.575     54.87374     491.1536        24     1.504     0.951 -68.98  24
       112    632.2709    848.5644 307.6462299  +6.3399317     3387.259     5326.625     5783.715     77.91298     155.7022     311.3426      1.684     4.20      853.519     54.87374      463.913        26     1.524     0.926 -44.27   0
       113    447.8925    863.2006 307.7223128  +6.3277345     490.4844     1130.819     2443.116     77.54108     155.2684      311.002      3.089     6.30      853.521     54.87374     115.8539         9     2.308     0.483 -14.12   2
       114    175.2334    848.2239 307.8360437  +6.3247986     602.2547     1180.611     936.6643     77.54108     155.5165     311.1259      2.026     6.77     851.2551     54.87374     84.77966        11     1.405     0.916 -25.63   0
       115    820.6128    847.5641 307.5680440  +6.3466188     1508.673     2222.963     2234.287     77.54108     155.5165      311.033      1.542     4.42     851.8829     54.87374     219.7302        17     1.462     0.708 -32.49   0
       116    624.4061    844.3688 307.6496361  +6.3414019     1848.857     3825.405     5098.519     77.41672     155.5165     311.0949      2.437     8.64     853.4661     54.87374     318.2017        29     2.575     0.809 -57.30   0
       117    908.8445    841.1828 307.5316125  +6.3521890     2953.582     4760.676     4747.263     77.66525     155.5784     311.0949      1.678     4.56     849.6859     54.87374     361.2485        25     1.533     0.952 -35.68   0
       118    319.2595    842.3773 307.7764282  +6.3320334     1046.085     1523.302     1644.973     77.66525     155.6404     311.1878      1.731     4.88     852.6068     54.87374     143.6483        13     1.195     0.785 -45.72   0
       119    367.0188    837.2977 307.7567641  +6.3357280      2685.35      4165.51     4339.843     77.91298     155.5784     311.0639      1.691     4.41     852.3801     54.87374     407.5778        23     1.559     0.884 -33.84   0
       120    335.3008    829.7567 307.7701884  +6.3377813     470.7766     610.5063     333.4299     78.03655     155.5784     311.5282      1.740     3.87     852.3345     54.87374     88.92419         5     0.965     0.446 -43.98   0
       121    503.1595    827.0302 307.7005684  +6.3445161     3239.215     4875.823      5448.06     77.54108     155.4545     311.1568      1.555     4.21     852.6658     54.87374     438.1647        22     1.447     0.856 -40.82   0
       122    847.6093    825.9608 307.5575506  +6.3564380     979.1389     1598.797     2237.396     77.41672     155.5165     311.0639      1.946     3.60     850.8236     54.87374     169.5981        10     1.090     0.744 -27.53   0
       123    568.5138    824.6910 307.6735046  +6.3476632     742.9571     1166.636     1032.809     77.78922     156.1348     311.4354      1.873     4.65     852.5734     54.87374     115.5285         8     1.357     0.452 -39.04   0
       124    550.0653    823.0664 307.6812205  +6.3477185     6233.101     9193.481     9718.387     78.03655     155.7022     311.3426      1.538     4.00     852.3032     54.87374     914.4883        25     1.534     0.778 -34.70   0
       125    556.8254    822.3202 307.6784379  +6.3482522      1208.64     2065.881     2575.725     77.78922     155.5165     311.2807      1.850     5.27       852.34     54.87374     166.5096        13     1.358     0.675 -43.82   0
       126    261.8354    823.3970 307.8009106  +6.3379497     647.9415      896.265     1061.134     77.16739     155.5165     311.0949      1.791     4.71     852.2263     54.87374     109.8301         7     1.193     0.528 -22.91   0
       127    885.7274    821.1165 307.5418806  +6.3597064      1291.85     2170.561     1830.165     78.28312     156.0114     311.3426      1.749     4.52     849.7594     54.87374     170.2403        17     1.368     0.810 -49.71   0
       128    109.5469    821.3508 307.8642221  +6.3336942     1354.411      2034.73     2306.113     78.15993     155.7022     311.3116      1.749     5.62      848.671     54.87374     177.7042        13     1.382     0.645 -43.35   0
       129    685.8469    819.9656 307.6249326  +6.3535271     701.8804     816.6628     659.7454     77.66525     155.7022     311.2497      1.428     4.06     852.4949     54.87374     120.3869         6     1.002     0.470 -38.46   0
       130    520.6614    816.9449 307.6936364  +6.3492649      20232.2     30398.17     31251.36     78.15993     155.7022     311.2807      1.609     4.16     852.2216     54.87374     2726.769        43     1.583     0.946 -38.41   0
       131    361.5192    818.9390 307.7596617  +6.3431249     862.7579     1117.472     1164.794     78.15993     155.7022     311.2807      1.472     4.98     852.1053     54.87374     107.7359        10     1.089     0.644 -25.81   0
       132    934.3353    815.1116 307.5218923  +6.3638024     3593.218     5856.061     6128.028     78.03655     155.8878     311.3116      1.751     4.16     848.0784     54.87374     440.8447        28     1.593     0.954 -46.25   0
       133    167.0755    816.8560 307.8404821  +6.3374779     610.7943     771.3117     540.0735     78.03655     155.6404     311.2188      1.389     3.45     850.0052     54.87374     98.80634         6     0.891     0.480 -32.25   0
       134     54.6741    812.7729 307.8872971  +6.3353966     670.7222     903.8739     887.8848     77.78922     155.6404     311.2807      1.619     4.61     847.9932     54.87374     83.31519         7     1.125     0.537 -26.56   0
       135     30.6201    807.6179 307.8974591  +6.3367185     1403.567     2327.504     2577.068     77.78922     155.5784     311.2188      1.857     5.68     847.8276     54.87374     186.9494        18     1.540     0.984 -13.87   0
       136    467.7614    821.9927 307.7154374  +6.3454142     1463.799     2370.989     2436.428     77.29215     155.4545      311.033      1.681     4.29     852.5513     54.87374     226.7173        15     1.310     0.763 -38.73   0
       137    313.2268    805.8774 307.7801541  +6.3469035     3361.511     5072.029     5081.285     77.91298     155.7022     311.2807      1.564     4.45     852.0005     54.87374     475.2947        23     1.491     0.820 -35.47   0
       138    717.6402    803.5193 307.6122762  +6.3613777      609.212     1008.961     1449.765     78.03656     155.7022     311.2497      1.827     6.36     852.2207     54.87374     95.95575         9     1.472     0.771 -48.85   0
       139     13.2626    803.9399 307.9047907  +6.3376549     2104.432     3094.443     3037.083     78.03655     155.7022     311.3426      1.605     4.37     847.7221     54.87374     302.8854        19     1.519     0.756 -37.20   0
       140    778.8599    801.4514 307.5869193  +6.3642706     54643.47     84342.29     87832.22     78.03655     155.6404     311.3116      1.671     4.25     851.4474     54.87374     7179.076        65     1.651     1.060 -39.82   0
       141    235.6200    778.0853 307.8133141  +6.3557826     729361.6      1624959      1791851     77.66525     155.4545     311.2497      2.256     7.38     850.5283     54.87374     64563.27       632     2.857     2.150 -71.57   4
       142    422.3039    800.2943 307.7350408  +6.3528555     932.2664     1472.891     1363.581     78.03655     156.3199     311.1878      1.621     4.94      851.442     54.87374     158.1112        10     1.339     0.517 -34.00   0
       143    904.1067    796.7128 307.5350587  +6.3703950      8193.49     13281.76     14177.77     78.03655     156.1348     311.4045      1.712     4.03     848.5391     54.87374     966.8425        37     1.590     1.048 -38.94   0
       144    707.1360    796.1139 307.6168855  +6.3640857     21141.78     33162.63     35320.09     78.15993      155.826     311.3116      1.652     4.27     851.9675     54.87374     2743.611        50     1.668     1.014 -38.47   3
       145    700.8074    792.5637 307.6196322  +6.3653409     88686.41     136451.5     142474.2     77.29215     155.5165     311.0639      1.656     4.37     851.8495     54.87374     12382.53        82     1.679     1.073 -38.85   3
       146    345.6884    793.5781 307.7670841  +6.3530679     21513.73      31840.8     32775.86     78.03656     155.5165     311.2188      1.613     4.38     851.5798     54.87374     3169.038        47     1.607     0.963 -38.80   0
       147    395.1214    793.7834 307.7465474  +6.3546357     1339.804     1978.469     2039.936     77.66525     155.4545     311.1878      1.506     4.15     851.2635     54.87374     217.6401        14     1.416     0.675 -36.20   0
       148    407.5386    791.3874 307.7414705  +6.3560401     23105.81     34707.81     36626.52     77.54108     155.5165      311.033      1.634     4.55     851.0207     54.87374     3423.812        45     1.607     0.948 -37.38   0
       149    634.6088    793.0507 307.6471096  +6.3629332     760.7448     1045.444     1413.116     77.54108     155.5784      311.002      1.648     4.26     851.8853     54.87374     117.2157         7     1.141     0.453 -39.18   0
       150    944.6021    790.2110 307.5184558  +6.3744262     2002.775     3289.795     3928.642     77.66525     155.3925     311.0949      1.836     4.26     847.2629     54.87374     258.2711        21     1.399     0.966 -39.30   0
       151    901.0582    788.1609 307.5366091  +6.3738250     6415.541     10383.16     11487.84     78.03655     155.7641     311.3735      1.715     4.28     848.5149     54.87374     791.4908        30     1.517     1.004 -36.20   0
       152    873.7889    788.9110 307.5479099  +6.3726083     644.0652     1040.336     629.7067     77.78921     155.4545     311.1259      1.359     3.87     849.5515     54.87374     124.3974         6     0.930     0.461 -48.60   0
       153    641.5999    787.2318 307.6444001  +6.3655691      6442.34       9968.4     10070.44     77.29215     155.4545     311.0639      1.659     4.40     851.6667     54.87374     859.8422        29     1.536     0.875 -38.58   0
       154    598.7742    786.4169 307.6622136  +6.3644774     486.0463     729.4387     1086.042     77.66525     155.5165     311.2497      1.490     3.46     851.5049     54.87374      80.1217         5     0.734     0.471 -15.06   0
       155    430.2918    785.3358 307.7322231  +6.3592993     1909.137     2836.774     2392.646     78.03655     155.8878     311.3735      1.510     3.99     850.7915     54.87374     293.8023        16     1.397     0.683 -33.96   0
       156    155.5332    784.6878 307.8463529  +6.3503742     872.9792      1160.59     877.7662     78.15993     155.8878     311.3116      1.434     4.50     848.7114     54.87374     140.0986         8     1.240     0.464 -45.40   0
       157    479.8827    783.2650 307.7116965  +6.3618109     534.2598     710.4791     477.5331     78.15993     155.9496     311.3735      1.749     5.36     851.1883     54.87374     95.72882         7     1.492     0.543 -37.85   0
       158   1023.6149    779.9290 307.4859805  +6.3812975     553.4998     701.1343     921.8809     68.14956     124.3202     234.9724      1.400     4.84     845.9799     54.87374     131.1874         6     1.086     0.612 -69.16  24
       159    594.4092    779.3965 307.6642606  +6.3672308     975.8799     1325.151     1470.943     77.41672     155.3925     311.1568      1.563     4.42     851.1803     54.87374     164.6115         8     1.119     0.514 -47.57   0
       160    145.8109    778.4099 307.8506009  +6.3526407     849.6831     1164.663     1060.675     77.66525     155.5165     311.2807      1.659     5.61     848.3418     54.87374     137.7989        11     1.434     0.619 -48.53   0
       161    869.7091    778.8713 307.5499383  +6.3766184     611.7269     915.8139     700.2445     77.91298     155.8878     311.3116      1.847     5.12     849.5223     54.87374     77.47687         7     1.427     0.519 -29.06   0
       162    676.5793    777.3535 307.6302015  +6.3708143     2454.453     3568.543     3939.989     77.66525     155.7022     311.1568      1.577     4.07      851.287     54.87374     377.9437        21     1.499     0.778 -40.88   0
       163    120.8687    778.1379 307.8609684  +6.3519172     1041.241     1352.902     1243.385     78.03655     155.7022     311.3426      1.383     4.87     847.9191     54.87374     165.6046        10     1.265     0.530 -41.86   0
       164    410.4902    774.0543 307.7408238  +6.3632960     55307.82     82907.46     86444.38     77.91298     155.5165     311.4354      1.601     4.23     850.1836     54.87374     7557.888        60     1.654     0.968 -38.78   0
       165    954.2119    775.1330 307.5149656  +6.3809720     491.2682      912.618     712.9344     77.54108     155.5165     311.2188      1.376     4.59      846.918     54.87374     89.62982         5     1.345     0.445 -60.86   0
       166    528.2675    773.0501 307.6919424  +6.3676444     7149.332     10564.47     11105.31     77.91298     155.5784     311.2807      1.562     4.13      850.402     54.87374     1010.545        27     1.540     0.798 -38.83   0
       167     63.4786    775.0964 307.8849040  +6.3512492     530.6713     639.6696     650.2059     77.78921     155.9496     311.3735      1.331     4.20     847.3444     54.87374     97.89545         6     1.073     0.468 -34.06   0
       168    444.9595    771.6402 307.7265889  +6.3654446     4567.413     7130.991     7715.346     77.78921      155.826     311.1878      1.623     4.33      850.295     54.87374     620.9416        27     1.557     0.841 -38.82   0
       169    773.4920    769.5696 307.5902100  +6.3772571      11913.3     17895.21     19020.29     78.15993     155.4545     311.2807      1.681     4.17     850.3795     54.87374     1692.743        40     1.630     0.957 -36.33   0
       170      2.9720    765.8832 307.9103409  +6.3530239     1073.146     1799.204     1827.374     77.91298     144.8001     259.0784      1.815     6.53     846.9589     54.87374     159.7914        13     1.744     0.687 -38.95  24
       171    441.6504    764.9554 307.7281865  +6.3680944     2301.521     3403.419     3645.495     78.15993     155.5784     311.3426      1.652     4.30     849.9196     54.87374     304.7534        19     1.495     0.771 -37.75   0
       172    795.0200    763.7650 307.5814620  +6.3803709     1212.179     2123.624      2454.32     77.54108     155.5165     311.0949      1.771     5.28     849.9709     54.87374     175.2584        15     1.469     0.785 -28.44   0
       173    131.1861    761.7603 307.8572323  +6.3590256     11703.28      17939.2     19112.35     77.54108     155.5165     311.0639      1.621     4.27     847.7035     54.87374     1670.653        36     1.589     0.913 -38.71   0
       174    139.3400    762.0781 307.8538354  +6.3591676     3102.511     4690.826     4955.255     78.15993     155.7022     311.2807      1.629     4.30     847.8152     54.87374     434.1273        22     1.482     0.821 -35.90   0
       175    123.1814    759.1669 307.8606436  +6.3598282     2760.461     4577.116      5066.33     77.54108     155.5165     311.1259      1.719     4.64      847.524     54.87374     371.2995        23     1.624     0.802 -41.71   0
       176    967.9777    758.0983 307.5098141  +6.3884638     1285.363     2279.948     2885.505     77.91298     155.4545     311.1259      2.341     5.69     846.4479     54.87374     174.7358        17     1.679     0.820 -40.30   0
       177    918.9646    758.1016 307.5301713  +6.3868332     6008.206      9716.19     10608.72     78.03655     155.5784     311.4973      1.725     4.40     847.4146     54.87374     716.7336        34     1.608     1.010 -32.82   0
       178    674.6115    755.7380 307.6317391  +6.3796746     1669.917     2553.637     2662.037     77.54108     155.5165     311.0949      1.577     4.91     850.5228     54.87374     245.6842        16     1.512     0.691 -41.22   0
       179    561.1414    755.1123 307.6788876  +6.3761486     2310.554     3211.788     3413.177     78.03655     155.7022     311.4045      1.520     4.57     849.8016     54.87374     319.6575        18     1.415     0.703 -41.47   0
       180    409.1558    754.8416 307.7420200  +6.3711850     973.1819     1803.488      2148.58     77.78921     155.7022     311.1568      1.778     5.69     849.2732     54.87374      153.253        12     1.513     0.603 -30.04   0
       181    692.5873    753.5347 307.6243466  +6.3811835     670.4927     818.6786     1077.085     77.54108     155.5165     311.2188      1.270     4.24      850.314     54.87374     118.4688         7     1.241     0.413 -40.88   0
       182    123.3723    752.6779 307.8607818  +6.3625141     2002.891     3163.616     3550.056     77.91298     155.7022     311.3116      1.707     4.73     847.3886     54.87374     287.5454        16     1.441     0.688 -37.75   0
       183    913.1772    750.1707 307.5328387  +6.3899158     2822.335     4649.332     5134.117     77.54108     155.5165     311.1568      1.750     4.62     847.5101     54.87374     383.9836        25     1.549     0.927 -41.70   0
       184    942.6156    749.5386 307.5206326  +6.3911555       2976.3     4637.156     5071.421     77.54108     155.6404     311.1259      1.698     4.12     846.7292     54.87374      384.694        25     1.469     0.959 -40.74   0
       185    973.5002    749.2993 307.5078128  +6.3922808     1683.251     2749.954      3208.11     78.03655     156.0731     311.1568      1.824     4.59     846.2108     54.87374     224.5408        20     1.500     0.841 -38.57   0
       186    665.4958    749.4671 307.6357342  +6.3819602      1617.07     2276.955     2281.656     78.03656      155.826     311.3116      1.497     4.93     850.2821     54.87374     210.2038        14     1.198     0.728 -41.53   0
       187    812.4494    747.6850 307.5747580  +6.3875911     981.4855      1673.31     1924.167     78.03656     155.7022     311.4045      1.695     5.13     849.3765     54.87374     159.5759        11     1.375     0.542 -33.90   0
       188    887.9651    745.7292 307.5434581  +6.3909113     877.4797     1429.142     1712.528     77.91298     155.6404     311.3116      1.943     4.24     848.3094     54.87374     132.4814        10     1.099     0.638 -22.57   0
       189    237.9609    744.5411 307.8134647  +6.3697122     1935.483     2903.568     3683.745     78.03655     155.7641     311.4045      1.572     4.65     849.1211     54.87374     284.7737        14     1.356     0.637 -38.93   0
       190    930.8271    739.7393 307.5258546  +6.3948101     1155.569     1924.634     1823.789     77.66525     155.7641     311.1878      1.764     6.47     846.7903     54.87374     160.5403        16     1.425     0.824 -35.90   0
       191    675.2509    741.0768 307.6319622  +6.3857500      623.458     1019.548     1540.702     77.91298     155.7641     311.3116      1.816     4.46     849.9714     54.87374     110.8133         7     1.407     0.402 -33.65   0
       192    258.3266    740.0698 307.8051562  +6.3722402     630.6342     841.7831     718.3867     78.15993      155.826     311.3426      1.626     5.25     848.9531     54.87374     109.1715         9     1.460     0.533 -35.99   0
       193    153.4068    739.7620 307.8487410  +6.3688538     863.9517     1224.563     1349.417     77.29215     155.4545     311.0639      1.475     7.09     847.3928     54.87374     112.9576        15     1.784     0.791 -25.04   0
       194    957.6420    737.4150 307.5147943  +6.3966613      2239.58     3766.241     3714.729     77.54108     155.4545     311.0949      1.844     4.62     846.2921     54.87374      278.854        23     1.505     1.009 -27.88   0
       195    904.5227    738.5251 307.5368205  +6.3944369     1181.853     1735.533     1329.582     78.28312     155.9496     311.3735      1.646     5.04     847.6201     54.87374     167.3943        13     1.158     0.983 -13.51   0
       196    677.2087    736.5609 307.6312995  +6.3876800     1040.161      1744.12     2249.982     77.41672     155.5165      311.033      1.723     4.64      849.804     54.87374     167.2446        12     1.354     0.589 -42.23   0
       197    397.3962    732.4327 307.7476529  +6.3800452     515.3375     694.9674     572.0312     77.29215     155.5784     311.0949      1.444     4.42      848.329     54.87374      103.767         7     1.420     0.391 -38.48   0
       198    999.2181    730.7753 307.4977462  +6.4007847     1515.938     2391.605     2233.183     77.78922     155.5784     311.2497      1.676     4.67     845.5145     54.87374     180.1719        18     1.308     0.935 -37.16   0
       199    468.2658    732.0220 307.7182324  +6.3825827     729.9362     1243.057     1131.504     77.66525     155.7022     311.2497      1.666     4.34     848.6097     54.87374     95.04401         7     1.218     0.439 -33.33   0
       200    800.5652    729.2662 307.5803071  +6.3948013     1286.777     1715.489     1908.217     77.91298     155.7641     311.3735      1.488     3.99     848.9426     54.87374      177.865        13     1.246     0.688 -37.57   0
       201    626.2346    730.0792 307.6526872  +6.3886571     694.8177      1162.71     1469.884     77.91298     155.7641     311.3116      1.856     3.72     849.7147     54.87374     113.0471         5     1.294     0.308 -39.82   0
       202    886.8196    726.7528 307.5445650  +6.3987094     1486.401      2352.07     2255.205     77.66525     155.7022     311.1259      1.661     3.83     847.9034     54.87374     240.3828        14     1.247     0.726 -32.13   0
       203    861.5010    721.9548 307.5552407  +6.3998484      927.674      1395.79     1328.346     78.03655     155.6404     311.5282      1.516     5.77     848.4212     54.87374     144.0849        11     1.465     0.641 -29.02   0
       204    843.6852    718.0115 307.5627717  +6.4008840     1447.497     2160.792     2204.624     77.66525     155.4545     311.1568      1.624     4.72     848.4193     54.87374     214.8074        15     1.404     0.696 -41.95   0
       205    106.8014    715.9576 307.8688945  +6.3771212     934.4031     2206.492      2125.97     77.41672     155.3925      310.971      2.207     8.36     846.3984     54.87374     118.1525        19     1.770     1.103 -84.73   0
       206     43.0359    716.9736 307.8953429  +6.3745636     2554.288     3828.316      3983.11     77.54108     155.5165     311.0949      1.581     4.26     846.0877     54.87374     415.6094        20     1.544     0.720 -41.26   0
       207    560.6725    712.0621 307.6805188  +6.3939099     493.5904     728.3223     793.2401     78.15993     155.7022     311.3735      1.734     4.85     848.8307     54.87374     88.00513         6     1.192     0.576 -31.01   0
       208    655.5263    705.4941 307.6413407  +6.3997859     6657.734      9752.28     10340.46     77.91299      155.826     311.3116      1.614     4.54      849.205     54.87374     988.6917        25     1.511     0.802 -39.92   0
       209    602.0381    704.8771 307.6635775  +6.3982569     1477.169     2248.392     1914.526     77.91298     155.7641     311.3116      1.507     5.00     849.1996     54.87374     212.1448        15     1.385     0.747 -34.84   0
       210    524.1047    705.3813 307.6959299  +6.3954481     750.2986     965.1927     909.3525     77.91298     155.4545     311.1259      1.353     3.80     848.4189     54.87374     165.9504         6     1.190     0.349 -47.90   0
       211    513.2753    705.1992 307.7004339  +6.3951618     880.1017     1305.788     852.0478     77.29215     155.1443     311.1259      1.578     5.54     848.3312     54.87374     121.7107         9     1.298     0.667 -19.48   0
       212    118.5434    701.4736 307.8645032  +6.3834956     4042.333     6077.698     6722.002     77.91299     155.6404     311.2807      1.654     4.48     846.1647     54.87374     591.9855        24     1.555     0.813 -43.27   0
       213    992.3414    700.8116 307.5015979  +6.4129295     2264.605     3703.085     3497.554     77.41672     155.6404      311.033      1.725     4.53     845.2127     54.87374     292.9653        22     1.558     0.901 -35.60   0
       214    629.5905    701.1635 307.6522575  +6.4007093     2245.033     3420.285     4097.446     77.54108     155.4545     311.0639      1.717     4.68     849.1685     54.87374     332.0941        20     1.549     0.812 -34.98   0
       215    305.0452    701.6799 307.7870373  +6.3896557     668.4308     955.2096     779.2355     78.03655     155.7022     311.3116      1.498     5.04     847.2513     54.87374     103.7629        10     1.521     0.472 -30.21   0
       216    772.3766    697.6559 307.5930676  +6.4069159     20323.91     30461.63     31920.21     77.66525     155.7022     311.1259      1.610     4.13     848.6373     54.87374     2983.239        47     1.626     0.956 -39.23   0
       217    241.0889    701.0695 307.8136207  +6.3877674     816.9746     1116.355     1014.073     78.03655     155.9496     311.2807      1.414     4.76     846.9767     54.87374     140.1989         9     1.064     0.605 -34.54   0
       218    453.8019    699.8817 307.7253133  +6.3953713     444.2651     771.8823      1031.28     77.41672     155.3305      311.033      2.373     4.31     847.6439     54.87374        91.37         7     1.457     0.364 -32.87   0
       219    902.4216    697.3428 307.5390626  +6.4113729     3845.544     5667.943     6183.711     77.66525     155.6404     311.1259      1.625     4.11     846.7012     54.87374     473.0084        24     1.468     0.869 -43.90   0
       220    471.2886    697.9559 307.7181147  +6.3967507     1592.462     2226.117     2134.041     78.03655     155.5784     311.3426      1.525     3.96     847.7917     54.87374     262.4641        16     1.350     0.697 -43.41   0
       221    500.0992    697.7349 307.7061557  +6.3978041     1025.269     1401.438      1463.64     78.03655      155.826     311.3116      1.436     4.15     848.0942     54.87374     180.1592         9     1.187     0.616 -51.31   0
       222    273.5264    697.3783 307.8002720  +6.3903773     649.3578     1046.575     593.2916     77.66525     155.5165     311.2497      1.685     4.74     846.9393     54.87374     93.68536         8     1.170     0.544 -50.26   0
       223    317.8976    697.4072 307.7818422  +6.3918500     638.8318     897.4206     838.8901     77.78922     155.3305     311.0949      1.546     4.68     847.0221     54.87374     129.8218         6     1.327     0.468 -26.89   0
       224     80.9672    693.7507 307.8803683  +6.3854248     506.2352     827.8612     432.8252     77.78921     155.7022     311.2497      1.646     3.68     845.7332     54.87374     86.96362         5     1.010     0.514 -34.94   0
       225    245.8850    691.3901 307.8119527  +6.3919248     6511.384     9685.821     10014.06     77.66525     155.3925     311.1568      1.568     4.25     846.5017     54.87374     950.9245        28     1.593     0.790 -39.10   0
       226    652.8983    690.4614 307.6429334  +6.4059058     7305.014     11103.96     11850.94     77.78921     155.7022     311.4045      1.609     4.08     848.9116     54.87374     1082.036        31     1.565     0.869 -36.92   0
       227    635.4434    691.7438 307.6501406  +6.4047942     1055.814     1635.293     2131.966     77.91298     155.7022     311.3116      1.678     4.45      848.989     54.87374      162.342        12     1.176     0.710 -30.78   0
       228    348.4300    690.0393 307.7694074  +6.3959136     729.3773     851.6618     920.7408     77.54108     155.4545     311.1878      1.386     4.36     846.7073     54.87374     117.7328         8     1.149     0.471 -29.67   0
       229    912.9323    682.9360 307.5351759  +6.4176716     1235.728     1719.043     1628.838     78.03655     155.7022     311.3735      1.521     4.77     846.1564     54.87374     182.6183        17     1.466     0.782 -38.91   0
       230    724.6729    678.9848 307.6135037  +6.4130370     3645.343     5667.714     6558.027     77.54108     155.4545     311.2188      1.687     4.30     848.7866     54.87374     480.4187        27     1.527     0.907 -40.60   0
       231    991.0386    675.3790 307.5029840  +6.4233884     8412.412     13645.53     14513.87     77.66525     155.5165     311.0639      1.730     4.21     844.8639     54.87374     1006.782        38     1.608     1.076 -38.34   0
       232    929.3361    675.7954 307.5285996  +6.4211657     2307.137     3674.616     3531.715     77.29215     155.4545     311.1259      1.674     4.14     845.7489     54.87374     283.4211        23     1.536     0.857 -37.99   0
       233    680.0568    679.2558 307.6320264  +6.4114383     1213.705     1782.403     1945.122     78.15993     155.7641     311.3426      1.543     3.91      848.659     54.87374      206.425        14     1.296     0.745 -46.32   0
       234     10.0110    675.4036 307.9104532  +6.3906206     1934.323     3255.492     3897.323     77.66525     155.3925     311.2188      1.911     5.02     844.9656     54.87374     274.0947        20     1.545     0.928 -18.80  16
       235    543.5956    673.7402 307.6888905  +6.4091644     780.5353     1026.228     545.8094     77.41672     155.5784     311.0949      1.505     4.07     848.3273     54.87374     131.0589         6     1.057     0.448 -31.18   0
       236    426.8353    673.2147 307.7374046  +6.4054820     579.8285      843.878     876.2777     77.66525     155.5165     311.1568      1.380     5.32     846.5403     54.87374      94.2608         7     1.566     0.511 -49.77   0
       237     68.2802    670.4116 307.8864200  +6.3946365      26103.3     39483.36     41186.43     77.66525     155.3925     311.1568      1.633     4.58     845.1669     54.87374     3603.233        51     1.653     0.976 -37.40   0
       238    529.4473    671.2598 307.6948498  +6.4097164     2280.258     3296.653     3148.616     78.03655     155.7022     311.3735      1.609     4.58     848.0311     54.87374     305.4637        19     1.545     0.720 -39.93   0
       239    266.4878    671.4119 307.8040643  +6.4008639     568.3079     605.3965     465.1291     77.66525     155.4545     311.1878      1.245     3.42     845.6996     54.87374     88.29535         5     1.105     0.306 -21.27   0
       240    498.3304    668.6021 307.7078631  +6.4097749     1309.544     1847.739     1877.361     77.54108     155.2684     311.1259      1.474     4.26     847.5049     54.87374     248.9344        12     1.368     0.552 -38.08   0
       241    919.5430    667.5545 307.5329414  +6.4242430     976.5894     1202.842     1089.808     78.03656     155.7022     311.3426      1.460     5.46     845.7695     54.87374     121.2391        11     1.254     0.670 -39.62   0
       242    538.4220    665.2735 307.6913220  +6.4124879     1129.588     1367.524     1218.605     77.66525     155.5165     311.2497      1.460     5.07     848.0176     54.87374     161.5359        11     1.258     0.579 -41.24   0
       243    714.3586    662.4944 307.6183372  +6.4195029      3620.07      5517.19     5273.265     78.03656     155.6404     311.4354      1.617     4.24      848.303     54.87374     509.4017        25     1.495     0.865 -36.92   0
       244    736.2510    660.7884 307.6093007  +6.4209367     4040.283     6077.713     6110.198     77.41672     155.5784      311.033      1.597     4.31     848.3676     54.87374     615.5862        24     1.494     0.831 -32.47   0
       245    567.6759    658.7422 307.6793890  +6.4161612     3583.469     5351.316     5196.358     78.15993     155.7022     311.2807      1.559     4.17     848.0911     54.87374     558.9644        23     1.515     0.768 -40.07   0
       246    404.2214    659.1074 307.7472687  +6.4105515     1532.793     2148.267     1935.492     77.91298     155.5165     311.1259      1.564     4.59     845.9059     54.87374     257.2236        17     1.445     0.814 -44.98   0
       247   1009.2031    656.8013 307.4960561  +6.4316635     4733.947     7734.703     8025.249     77.41672     155.2684     311.0639      1.700     4.09     844.2242     54.87374     587.9416        31     1.535     1.023 -37.57   0
       248    311.7559    657.8063 307.7857178  +6.4079968     1562.816     2555.512     2376.572     77.54108     155.4545      311.002      1.629     4.61     845.4893     54.87374     221.7878        18     1.448     0.815 -46.77   0
       249    228.5000    658.2000 307.8202844  +6.4050478     1848.671     2448.523     2655.793     77.54108     155.3305      310.909      1.371     4.77     845.2609     54.87374     274.8576        12     1.289     0.578 -37.32   0
       250    974.6470    655.7294 307.5104456  +6.4309579     8039.486     12607.54     13024.79     78.03655     155.6404     311.3116      1.697     4.06     844.7371     54.87374     1095.141        35     1.581     0.995 -38.71   0
       251    694.4088    654.5020 307.6268901  +6.4221384     956.2651     1612.624     1702.684     77.78922     155.3305     311.0949      1.846     6.03     847.9658     54.87374     142.2142        12     1.499     0.682 -44.03   0
       252    527.7459    656.3995 307.6960526  +6.4157958     447.4803     589.8335     311.4371     77.29215     155.3925      310.909      1.153     3.24     847.6496     54.87374     88.27155         5     0.723     0.462 -16.98   0
       253   1023.3782    654.6822 307.4902385  +6.4330094     601.6436     770.6308      841.145     71.32742     127.8358      239.038      1.049     4.20      843.957     54.87374     126.3253         7     1.067     0.472 -58.96  24
       254     85.9679    652.8240 307.8796635  +6.4024919     868.5771     1262.896     1951.124     77.41672     155.5165     311.0949      1.508     4.84     845.1536     54.87374     149.3484         9     1.194     0.664 -53.55   0
       255    133.0174    649.3145 307.8602398  +6.4055183     24996.49     37528.98     38077.88     77.66525     155.4545     311.2497      1.560     4.26      845.434     54.87374     3536.082        46     1.610     0.915 -38.18   0
       256    419.9174    650.1083 307.7410501  +6.4147921     2990.074     4465.169     5180.706     77.78922     156.0114     311.3735      1.612     4.38     845.8569     54.87374     434.8591        19     1.436     0.714 -42.78   0
       257    801.5914    649.8287 307.5825251  +6.4276383     1260.276     1920.622     1983.362     77.66525     155.5165     311.1568      1.715     3.89     847.4386     54.87374     212.3506        13     1.176     0.707 -41.54   0
       258    353.4885    644.0020 307.7688458  +6.4150929     747.5879     1238.458     1225.547     77.29215     155.3305     311.0639      1.731     4.43     844.8223     54.87374     112.9191         7     0.974     0.573 -38.76   2
       259    969.5051    638.6561 307.5131488  +6.4378373     6724.152     11337.31     11966.13     77.91299     155.7022     311.5282      1.836     4.07     844.5038     54.87374     778.4882        40     1.561     1.231 -36.27   0
       260     13.8345    638.1169 307.9101162  +6.4061452     1213.668      1818.56     1790.317     78.03655     155.7022     311.2807      1.583     4.46      844.378     54.87374      175.879        15     1.420     0.720 -36.41   0
       261    563.0419    634.0498 307.6821378  +6.4262029     50186.89     73730.28     76906.87     78.15993     155.7022     311.3116      1.524     4.09     847.3911     54.87374     7698.301        63     1.617     0.974 -38.41   0
       262   1023.3912    634.3673 307.4909078  +6.4413987     49744.09     59936.41     61707.76     70.92099     127.7604     238.5941      1.164     2.93     843.4508     54.87374     10649.32        38     1.306     0.782 -84.19  24
       263    205.9277    635.3306 307.8304255  +6.4137352     702.8987     1032.109     1336.682     78.15993      155.826     311.2807      1.731     5.72     845.0662     54.87374     102.4871         7     1.118     0.824 -30.28   0
       264    927.2449    635.6747 307.5308022  +6.4376636     473.4756     812.4077     892.2957     77.91298     155.7641     311.3426      1.798     3.40     845.2213     54.87374     97.74176         5     0.742     0.450 -12.82   0
       265    522.6683    634.1040 307.6989059  +6.4248329     695.6906     985.0433     576.9255     77.91298      155.826     311.3426      1.415     4.83       847.06     54.87374     120.8234         9     1.490     0.444 -35.59   0
       266    170.5857    630.7699 307.8452575  +6.4144346     2955.613     4459.625     4459.816     77.66525     155.4545     311.2497      1.606     4.55     845.3036     54.87374     413.3613        21     1.471     0.793 -40.60   0
       267    492.9832    631.1541 307.7113346  +6.4250598     685.5413     992.0494     749.5538     77.54108     155.5784     311.0949      1.411     4.49     846.6823     54.87374     101.6782         8     1.314     0.436 -30.57   0
       268     63.2588    624.9447 307.8900303  +6.4132423     1333.784     1789.854     2238.363     78.15993     155.7022     311.3116      1.452     4.47     844.7209     54.87374     215.3088        13     1.333     0.633 -39.61   0
       269    460.3227    617.8453 307.7253452  +6.4294645     66604.62     96927.09     100440.4     77.91298     155.7641     311.3116      1.554     4.28     845.8852     54.87374     10398.39        64     1.602     0.945 -37.51   0
       270      3.8906    619.4112 307.9148739  +6.4135354     1828.198     2844.221     3042.268     77.78922     152.7029     271.4293      1.662     4.90     843.9534     54.87374     264.2817        19     1.596     0.749 -34.54  24
       271    646.4604    614.8073 307.6481297  +6.4369314     945.7098     1286.778     934.0993     77.41672     155.5165     311.0949      1.501     4.26     846.7213     54.87374     153.5076        10     1.290     0.561 -46.44   0
       272    134.6639    612.9712 307.8607739  +6.4205803     1786.522      2405.93     2121.985     77.78921     155.7641     311.2497      1.486     4.69     845.1205     54.87374     263.9877        15     1.362     0.702 -43.44   0
       273    929.3709    610.9367 307.5307416  +6.4479496     591.7729     869.6297     804.0742     77.78921     155.7022     311.2497      1.559     3.72     844.8359     54.87374     121.0057         5     1.354     0.294 -28.12   0
       274    413.8274    610.5166 307.7449028  +6.4309372     878.7402     1362.877      1312.83     77.91298     155.4545     311.2497      1.670     5.22     844.7452     54.87374     160.0991        11     1.437     0.536 -41.05   0
       275    606.2501    609.3782 307.6650133  +6.4378323     937.7589     1347.018     1130.423     77.54108     155.7641     311.1878      1.592     5.17     846.9412     54.87374     136.8085        11     1.410     0.536 -37.41   0
       276    305.5733    607.3504 307.7899737  +6.4286245     2289.639     3636.306     3883.995     77.66525     155.7641     311.2497      1.722     4.70     844.1506     54.87374     349.9348        20     1.559     0.829 -45.28   0
       277    488.1839    608.8457 307.7140730  +6.4341114     544.4163      818.702     1549.206     77.54108     155.5784     311.0949      1.422     3.69     846.2145     54.87374     105.7139         5     0.934     0.419 -44.20   0
       278      6.8443    608.7906 307.9140036  +6.4180199     671.5734      1128.45     1716.788     77.54108     155.5784     302.4892      2.496     6.05       843.82     54.87374     134.5577        11     1.385     0.818 -20.97  16
       279    457.8640    605.8917 307.7267658  +6.4343184     951.9399     1335.311     1855.432     78.03655     155.8878     311.3735      1.490     5.18     845.5212     54.87374     137.0275        11     1.322     0.601 -37.92   0
       280    732.3279    601.3190 307.6129113  +6.4453632     5434.454     7685.366     7556.622     78.28312     156.0114     311.3426      1.533     4.31     846.3528     54.87374     767.7817        23     1.437     0.778 -37.01   0
       281   1002.9575    597.5568 307.5006187  +6.4559205     1066.227     1784.132     1501.069     77.78921     155.7022     311.1568      1.784     6.43      842.777     54.87374     146.8707        16     1.555     0.746 -50.06   0
       282    785.8853    596.5853 307.5908218  +6.4491017     14405.53     21317.81     21953.14     77.66525     155.4545     311.1878      1.550     4.29     846.2743     54.87374     2112.535        36     1.517     0.912 -38.95   0
       283    528.1420    596.7335 307.6978798  +6.4404472     1205.077     1951.439     1807.618     78.15993     155.6404     311.3116      1.569     4.38     845.8751     54.87374     177.1565        15     1.416     0.700 -33.45   0
       284   1023.8195    596.4693 307.4919888  +6.4570626     671.4037     651.4243     753.8625     65.55518     121.1803      231.627      0.902     2.71     842.2007     54.87374     168.5007         5     0.886     0.370  82.43  24
       285    609.7256    594.7475 307.6640577  +6.4439897     3152.239     4256.354     4351.374     78.03655     155.7641     311.3116      1.471     4.17     846.2823     54.87374     543.9246        21     1.460     0.780 -38.29   0
       286     30.7373    596.1033 307.9045054  +6.4240605     696.8707     856.7006     1148.305     77.91298      155.826     311.3735      1.412     4.48     844.1629     54.87374     106.1393         8     1.102     0.519 -37.95   0
       287    927.0833    590.7525 307.5323630  +6.4562085       1113.3      1736.43     1703.993     78.03655     155.7022     311.3116      1.655     4.48     844.2969     54.87374     172.1773        14     1.319     0.769 -43.05   0
       288    185.7912    589.6389 307.8403197  +6.4319279     564.2725     996.8379     1945.721     77.41672     155.5165      311.033      1.606     3.47     844.3157     54.87374     76.66919         5     1.233     0.283 -54.92   0
       289    368.4500    588.2330 307.7644961  +6.4386218     973.8327     1389.964     1284.923     77.91298     155.7022     311.2497      1.502     5.00     843.1393     54.87374     145.8645        10     1.251     0.566 -40.20   0
       290    222.1477    588.4193 307.8252594  +6.4336492      1339.01     2051.067     2100.516     77.54108     155.7641     311.1259      1.494     4.01     843.9544     54.87374     214.7795        13     1.282     0.685 -32.01   0
       291    861.9982    579.8499 307.5597619  +6.4585458     2623.454     3920.997     4169.613     77.41672     155.3305      310.909      1.571     4.19     845.4084     54.87374      375.114        21     1.529     0.806 -31.16   0
       292    157.1481    579.6900 307.8525503  +6.4350764     674.4446     1187.175     998.3292     78.03655     155.5165     311.4354      1.748     5.49     844.2382     54.87374     97.02423        10     1.507     0.565 -29.04   0
       293    820.6348    577.2887 307.5770295  +6.4582269     2554.639     3972.176     4003.818     78.15993     155.6404     311.3116      1.624     4.30     845.6057     54.87374     433.5486        19     1.449     0.766 -37.40   0
       294    791.6638    573.1415 307.5892021  +6.4589749     2586.918     3925.903       4211.8     78.15993     155.6404     311.3426      1.627     4.45     845.6349     54.87374     384.1814        19     1.595     0.656 -38.34   3
       295    801.2514    568.4534 307.5853755  +6.4612301     164813.8     240375.7     250442.4     78.15993     155.6404     311.3426      1.590     4.26     845.5029     54.87374     23584.82       113     1.666     1.096 -40.62   2
       296    733.9630    573.5183 307.6131584  +6.4568976     515.0685     868.7903     1577.638     78.03655     155.7641     311.2807      1.733     3.82     845.6448     54.87374     82.33276         6     1.270     0.329 -50.97   0
       297    248.6688    572.3324 307.8147820  +6.4411799     8187.323     12115.12     12676.61     78.03655      155.826     311.3116      1.603     4.56     843.2307     54.87374     1197.954        32     1.584     0.840 -40.90   0
       298    182.8825    566.9124 307.8422892  +6.4412148     59573.45     90060.86     94525.78     77.78922     155.8878     311.3735      1.576     4.23     843.6406     54.87374     8499.232        75     1.698     1.014 -38.78   0
       299    730.9706    568.8301 307.6145576  +6.4587338     618.1707     859.4434     1325.419     77.54108     155.4545     311.0639      1.277     4.41     845.5026     54.87374     110.5407         8     1.079     0.513 -51.31   0
       300    106.8602    563.1916 307.8739910  +6.4402034     6286.048     9495.449     9699.986     77.41672     155.5165     311.0639      1.570     4.18     844.2712     54.87374     947.3954        27     1.555     0.831 -35.82   0
       301    972.0073    560.3214 307.5147129  +6.4702681     1292.453     2031.714     2259.489     77.66525     155.2064     311.0949      1.634     5.27     842.0138     54.87374     178.9401        15     1.366     0.711 -37.56   0
       302    992.7408    558.8552 307.5061487  +6.4715626     664.8141     898.7517     275.5169     78.15993     155.7022     311.3116      1.347     4.80      841.346     54.87374     111.1217         8     1.028     0.635 -58.36   0
       303    221.4382    558.3501 307.8265610  +6.4460417     743.7647     1141.099     1525.263     77.78922     155.7022     311.2497      1.637     5.01     843.0981     54.87374     128.6301         9     1.375     0.515 -46.47   0
       304    837.7933    555.7021 307.5706203  +6.4677119     4374.778     6768.767     6742.585     77.78922     155.3305     311.0949      1.613     4.16     844.9175     54.87374     644.4349        26     1.524     0.875 -38.06   0
       305    356.2646    553.9632 307.7707037  +6.4523652     18066.94     26757.69     27765.09     77.91298     155.7022     311.3735      1.576     4.37     841.9188     54.87374     2781.739        40     1.580     0.869 -38.74   0
       306    446.1229    554.1140 307.7333727  +6.4553068     829.9086     1289.745     1021.249     78.03655     156.0114     311.4045      1.547     5.56     843.0637     54.87374      121.588        12     1.221     0.914 -26.42   0
       307    158.8997    552.4619 307.8527351  +6.4463781     1809.718     2930.076     2980.378     77.78921     155.7022     311.4354      1.953     8.28     843.3616     54.87374     291.0372        24     2.535     0.756 -29.59   0
       308    791.7214    549.1073 307.5899784  +6.4689015      6076.14     8857.788     8823.702     77.78922     155.8878     311.3735      1.524     4.17     844.9952     54.87374     858.0126        26     1.458     0.832 -39.62   0
       309    522.6522    548.8813 307.7017578  +6.4600236     6784.515     9750.158     9947.084     78.03655     155.7022     311.3426      1.536     4.40     843.3386     54.87374     1047.736        27     1.488     0.834 -40.58   0
       310    233.4875    550.6368 307.8218143  +6.4496302     934.9114     1488.151     2038.162     78.03656     155.5784     311.3116      1.776     4.20     842.7459     54.87374       175.39         9     1.282     0.518 -40.99   0
       311     95.1582    550.4092 307.8792802  +6.4450891     873.1058     1148.109     1404.876     77.41672     155.5165     311.0639      1.442     4.96     844.1992     54.87374     130.7665         9     1.235     0.564 -40.90   0
       312    380.8603    545.4711 307.7607710  +6.4566943     1424.884      2150.85      1939.32     78.15993     155.7022     311.3735      1.649     4.15     841.9845     54.87374      257.317        13     1.345     0.587 -35.97   0
       313    169.6158    542.0829 307.8486316  +6.4510229     7017.473     10376.71     10243.87     77.66525     155.3925     311.1878      1.548     4.30     842.9817     54.87374     946.5592        26     1.505     0.816 -38.84   0
       314    567.3610    541.9073 307.6834187  +6.4643957     2469.073     3976.616     3886.563     78.15993     155.6404     311.3735      1.689     4.80     843.2863     54.87374     368.8353        22     1.726     0.719 -37.89   0
       315    485.4221    542.8724 307.7174236  +6.4612616     504.9922     579.0259     606.6337     77.66525     155.5165     311.2807      1.557     3.50     842.8657     54.87374     83.83685         5     0.802     0.442 -70.70   0
       316    850.2020    541.9652 307.5659227  +6.4737974     584.9296     826.6356     897.2188     77.16739     155.5165     311.1259      1.586     4.23     844.4016     54.87374     110.5894         6     1.205     0.424 -35.51   0
       317    808.3988    541.4781 307.5833045  +6.4726071     1460.717     2216.379      2191.13     77.29215     155.1443     311.1259      1.675     5.30      844.649     54.87374     190.7493        15     1.352     0.864 -22.49   0
       318     41.1666    540.7981 307.9020290  +6.4472468     5196.514     7931.287     7710.685     77.29215     155.5165     311.0949      1.592     4.07     844.2128     54.87374     768.1497        30     1.579     0.924 -33.15   0
       319    264.8453    538.4861 307.8091957  +6.4556973     90306.27     134780.4     140149.5     78.03655     155.5784     311.3116      1.589     4.43     841.7758     54.87374     13322.43        78     1.654     1.007 -37.81   0
       320    554.3342    535.8959 307.6890306  +6.4664433     976.2424     1446.413     2145.235     78.03655      155.826     311.3426      1.586     4.42     842.8328     54.87374     171.8135         8     1.145     0.485 -38.15   0
       321    248.6073    533.4750 307.8161084  +6.4572230     1545.821     2069.686     1607.896     77.66525     155.2064     311.1878      1.481     4.21     841.8367     54.87374     289.8287        15     1.364     0.712 -47.00   0
       322    964.5106    532.0405 307.5187672  +6.4816973      1675.78     2471.302     1998.115     78.03655     155.7022     311.3426      1.632     4.51     841.3887     54.87374      205.139        17     1.294     0.824 -46.59   0
       323    788.0030    530.8340 307.5921316  +6.4763234     16566.62     24568.06     24914.38     77.29215     155.5165     311.0639      1.537     4.12     844.1876     54.87374     2420.719        35     1.542     0.883 -38.50   0
       324    491.6072    529.2889 307.7153081  +6.4670772     41737.03     67251.88      71056.8     77.54108     155.3925     311.0639      1.734     4.42     842.2005     54.87374     5800.092        67     1.742     1.126 -28.11   0
       325    641.8124    527.9362 307.6529573  +6.4726486     900.5751     1394.967     1568.185     77.54108     155.5165     311.1259      1.892     5.22     843.3223     54.87374     154.6333        10     1.461     0.527 -35.06   0
       326    204.1023    525.7671 307.8348532  +6.4589154     1922.306     3130.605      3776.66     78.03655     155.5784     311.4354      1.816     4.61      842.158     54.87374      288.394        20     1.550     0.829 -40.49   0
       327     39.4474    526.0641 307.9032374  +6.4532731     1299.462     2070.786         2248     77.91298     155.5784     311.3735      1.620     4.91     844.1718     54.87374     175.2933        14     1.266     0.875 -34.15   0
       328    651.4316    524.3683 307.6490804  +6.4744427     3063.602       4661.8     4762.019     77.54108     155.4545     311.0639      1.565     4.35     843.2377     54.87374      499.071        18     1.526     0.637 -38.39   0
       329    661.6857    524.2214 307.6448256  +6.4748452      1419.54     2153.113     1785.474     78.03655     155.4545     311.2188      1.573     5.09     843.4333     54.87374     218.1567        13     1.532     0.613 -34.69   0
       330    713.6401    523.1568 307.6232787  +6.4770166     1356.214     1934.551     1540.974     77.78922     155.7022     311.1878      1.461     4.05     843.6079     54.87374      218.603        13     1.350     0.636 -42.15   0
       331     70.8513    522.0040 307.8903292  +6.4560030     748.4314      1441.73     1454.219     77.41672     155.4545      310.909      1.907     6.03     843.9409     54.87374      110.306        11     1.189     0.859 -53.95   0
       332    389.3120    520.0005 307.7581118  +6.4674944     1957.535     2855.015       3157.6     77.29215     155.2064      311.033      1.561     4.38     841.2162     54.87374     302.5446        15     1.443     0.606 -42.08   0
       333    320.7834    518.2575 307.7866366  +6.4659223     4031.301     6206.107     6199.454     77.41672     155.6404     311.0639      1.614     4.29     840.8234     54.87374     573.7919        27     1.532     0.879 -38.81   0
       334    500.7115    517.6970 307.7119133  +6.4721680     2098.177     3128.957     3701.359     78.03655     156.1348     311.3426      1.633     5.17     841.6823     54.87374     303.0244        14     1.365     0.666 -39.73   0
       335    135.9248    516.8929 307.8634704  +6.4602953      26456.7     39489.88     40540.92     77.91298      155.826     311.3116      1.549     4.10     842.9677     54.87374     3891.115        43     1.571     0.916 -38.69   0
       336    864.0027    516.5873 307.5610342  +6.4847361     1652.699     2193.377     1740.604     77.66525     155.3925     311.1568      1.463     4.26     843.2775     54.87374     232.4213        14     1.292     0.689 -37.70   0
       337    101.1066    515.2120 307.8779896  +6.4598222     2845.525     4368.553     4098.296     77.78922     155.4545     311.1259      1.584     3.99     843.5783     54.87374     381.9888        22     1.501     0.832 -43.16   0
       338    338.0804    513.3428 307.7796159  +6.4685303     995.4876     1443.631     1807.432     78.15993     155.7022     311.3116      1.566     5.00     840.6932     54.87374     147.9262        12     1.288     0.793 -43.57   0
       339    961.6034    511.2868 307.5206648  +6.4901707     4964.197     7717.734     8482.203     77.54108     155.3305     311.0639      1.680     4.21     841.0145     54.87374     676.4865        28     1.612     0.859 -37.94   0
       340    534.6674    504.0029 307.6982650  +6.4789564     1462.848     2015.453     2457.684     77.41672     155.3305     311.1259      1.424     3.87     841.0642     54.87374     244.7557        12     1.308     0.604 -37.34   0
       341      1.5189    500.6287 307.9198455  +6.4625030     14319.76     16513.38     16919.96     70.10107     126.1666     237.1765      1.023     2.39     844.5179     54.87374     3472.559        19     1.087     0.663 -81.75  24
       342    432.9373    497.9687 307.7407262  +6.4780502     44311.83      65135.3     67305.35     77.78922     155.7641     311.2807      1.519     4.16     840.5895     54.87374     6695.929        53     1.588     0.913 -39.66   0
       343    408.4441    501.2143 307.7507924  +6.4758914     383.4171     681.9298     974.2386     77.41672     155.5165     311.0639      2.483     4.52     840.6482     54.87374     68.21143         5     0.819     0.709 -40.39   0
       344    640.9174    497.6461 307.6543393  +6.4851266      12716.7     18585.23     18961.83     78.03655     155.7022     311.3116      1.544     4.26     841.4652     54.87374     1821.977        33     1.540     0.822 -39.07   0
       345    280.8105    498.2133 307.8039119  +6.4728614     974.3042     1470.349     1029.142     77.78922     155.4545     311.2497      1.745     5.59     840.2598     54.87374     160.1125        13     1.430     0.789 -39.48   0
       346    198.0649    495.5584 307.8383730  +6.4711870     16505.86     28015.57     29443.76     78.03655     155.6404     311.4045      1.833     4.27     841.2251     54.87374     2612.711        49     1.666     1.124 -37.44   0
       347    163.7859    496.7971 307.8525708  +6.4695271     1686.886     2364.584     2877.427     77.66525     155.3925     311.1878      1.519     4.39     842.0096     54.87374     233.4518        15     1.310     0.733 -44.83   0
       348    974.9631    495.9614 307.5156242  +6.4969433     1112.787     1680.898     1975.634     77.78922     155.5784     311.1878      1.749     4.47     840.4692     54.87374     160.7136        11     1.264     0.624 -41.85   0
       349    903.4540    495.2834 307.5453539  +6.4948457     905.8232     1282.478     802.3925     78.03656     155.7022     311.4354      1.579     5.22     841.6797     54.87374      129.804        10     1.193     0.645 -41.27   0
       350    814.8582    495.5866 307.5821490  +6.4917726     944.1699     1547.233     1252.387     77.41672     155.6404      311.033      1.681     4.33     842.5004     54.87374     158.9629        10     1.204     0.628 -37.02   0
       351    562.8404    494.3250 307.6868846  +6.4838932     2909.187     4303.619     4357.654     77.91298     155.7022     311.3426      1.541     4.58     840.5416     54.87374     462.3212        20     1.419     0.766 -42.00   0
       352    936.7500    491.4488 307.5316492  +6.4975364     4627.168     6713.619     6710.218     78.03655     155.5784     311.2497      1.591     4.35     840.9545     54.87374     641.4457        26     1.513     0.827 -40.96   0
       353    609.6916    489.9722 307.6675671  +6.4872539     6789.149     9847.497     9969.294     78.15993     155.4545     311.1878      1.520     4.06     840.2313     54.87374     988.2696        27     1.504     0.806 -38.85   0
       354     97.2241    490.6508 307.8804259  +6.4698338     1178.209     1616.243     1428.366     77.66525     155.7022     311.2188      1.442     4.10     843.2723     54.87374     214.9687        13     1.418     0.580 -42.64   0
       355    959.2237    483.7106 307.5225702  +6.5014789     3382.566       4914.2     4883.575     78.03655     155.5165     311.1878      1.609     4.34     840.4625     54.87374     476.8267        21     1.456     0.800 -37.47   0
       356    521.9948    481.2412 307.7042894  +6.4879324     7785.586     11435.96     11681.51     77.29215     155.3925      311.033      1.521     4.06     839.8583     54.87374     1189.373        30     1.526     0.827 -38.17   0
       357    397.9394    482.6200 307.7557777  +6.4832183     665.5624     1059.531     1460.998     77.66525     155.6404     311.2497      1.368     3.71     839.9371     54.87374      103.541         6     1.152     0.343 -48.96   0
       358    367.9836    481.4385 307.7682612  +6.4827046     2770.363     3896.125     3910.586     77.66525     155.5784     311.0949      1.477     3.89     839.8229     54.87374     400.6385        15     1.305     0.656 -38.10   0
       359    737.7714    481.1882 307.6146525  +6.4951510     550.0125     883.7144     867.2512     77.54108     155.5165     311.1878      1.570     3.79     841.2509     54.87374      83.3562         5     0.938     0.439 -44.02   0
       360    878.4533    477.0371 307.5563470  +6.5015487     3071.124     4660.769     5486.969     77.91298     155.7022     311.3426      1.658     4.32     841.4476     54.87374     422.8075        19     1.468     0.721 -40.37   0
       361    531.4279    477.7490 307.7004873  +6.4896894     844.1342     1280.683     1115.882     77.66525      155.826     311.2188      1.649     4.70     839.7293     54.87374     132.2697         9     1.160     0.540 -42.55   0
       362    226.3457    476.5081 307.8272633  +6.4800005     629.2338     1082.243     1100.683     77.91299     155.5784     311.4664      1.768     4.71     839.8729     54.87374     105.8386         9     1.275     0.493 -49.85   0
       363    885.8400    471.4130 307.5534654  +6.5041169     2204.221     3272.122     3717.155     77.54108     155.5165     311.0639      1.658     4.44     841.0762     54.87374     352.5818        17     1.481     0.684 -40.02   0
       364    925.4355    470.4715 307.5370473  +6.5058226     1243.988     1746.725     1560.857     77.91299     155.7022     311.3116      1.581     5.41     840.2307     54.87374     185.8632        12     1.544     0.535 -40.60   0
       365    104.6139    470.8242 307.8780211  +6.4782683     782.9813     1105.143     1010.197     77.78922     155.5165     311.2497      1.540     4.78     842.6996     54.87374      114.061        11     1.097     0.726 -37.10   0
       366    263.8494    468.9925 307.8119358  +6.4843596     597.0276     880.2181     614.2396     77.54108     155.4545       310.94      1.563     5.86     839.4035     54.87374     91.49951         8     1.372     0.704 -39.46   0
       367    736.0563    467.9668 307.6158056  +6.5005535     592.7587     854.9075     656.3113     77.91298     155.7022     311.3116      1.495     4.85     840.4515     54.87374      92.3526         6     0.920     0.724 -50.33   0
       368    709.8176    467.3772 307.6267256  +6.4999226     3151.421     4442.397     4816.156     77.78922     155.5784     311.2497      1.535     4.35     840.3907     54.87374     515.4827        18     1.356     0.729 -37.81   0
       369    380.6570    465.7513 307.7635210  +6.4896061      3723.64      5668.39     5704.864     78.03655     155.7022     311.4354      1.613     4.47     839.2425     54.87374     594.0281        23     1.548     0.792 -41.03   0
       370    421.0027    465.8130 307.7467587  +6.4909294     1003.528     1450.214     1831.546     77.66525     155.3925     311.1568      1.632     4.58     839.2695     54.87374     152.1507        12     1.427     0.740 -41.77   0
       371     71.7826    466.4323 307.8918063  +6.4789808     2021.688     3306.339     3604.836     77.66525     155.5165     311.1878      1.721     4.52     843.2308     54.87374     285.4843        20     1.444     0.846 -36.57   0
       372    608.4239    462.1775 307.6690210  +6.4986890      10458.2     15392.33      16537.2     77.54108     155.5165     311.2807      1.554     4.42     838.8111     54.87374     1521.713        34     1.586     0.834 -40.65   0
       373    771.4233    458.4219 307.6014309  +6.5056730     16564.58     24829.87     27353.06     77.66525     155.5165     311.2807      1.694     5.07     840.5195     54.87374     2516.859        50     2.205     0.872 -46.72   0
       374    290.9147    459.0844 307.8010243  +6.4893569      2896.94     4315.969      4189.51     77.78922      155.826     311.3735      1.512     4.28     838.8632     54.87374      450.235        19     1.437     0.719 -42.76   0
       375    414.0677    458.9622 307.7498687  +6.4935265     741.1991     921.0009     746.3229     77.91298     155.7022     311.4354      1.356     4.11     838.9929     54.87374     119.6778         7     0.940     0.512 -38.45   0
       376    800.2165    455.7420 307.5895584  +6.5077384     1277.275     2082.626     2056.242     77.41672     155.6404     311.0639      1.653     4.82     841.0358     54.87374     209.8889        11     1.379     0.523 -38.62   0
       377    373.9697    455.6554 307.7666367  +6.4935513     1710.137     2551.778     2699.941     77.91298     155.7641     311.2807      1.556     4.76      838.838     54.87374     234.6522        16     1.439     0.697 -30.86   0
       378    956.2010    453.6576 307.5248251  +6.5137886     1851.228     2824.329     2768.886     77.41672     155.3305      311.002      1.627     4.85     839.0862     54.87374      283.423        17     1.440     0.736 -31.78   0
       379     85.9738    454.2365 307.8863204  +6.4844926      2189.84     2137.422     1828.817     77.66525     155.5165     311.1259      0.505     0.87     842.7092     54.87374     1437.653         5     0.434     0.315 -72.63   0
       380    704.5424    452.4688 307.6294140  +6.5059030     824.3984     1177.462     1380.875     78.15993     155.6404     311.2497      1.547     4.64     839.4785     54.87374     107.2336         9     1.185     0.649 -36.90   0
       381    108.5041    450.7346 307.8770787  +6.4866942     4568.458      6736.13     7123.006     78.03655      155.826     311.3426      1.605     4.98     842.1239     54.87374     689.8358        29     1.573     0.839 -39.95   0
       382    362.3259    451.8153 307.7716022  +6.4947476     608.6185     734.6841     1427.046     77.54108     155.4545     311.1878      1.331     3.61     838.6701     54.87374     132.2681         8     1.184     0.506 -44.07   0
       383    746.7056    449.5225 307.6119960  +6.5085246     2520.884      3619.59     3620.526     77.78922     155.8878     311.3735      1.612     5.07     839.5945     54.87374      373.429        20     1.442     0.795 -38.42   0
       384   1010.2930    448.3248 307.5025299  +6.5177884     3806.908     6962.127     6884.101     77.91298      155.826     311.3116      1.903     4.58     838.4771     54.87374     439.1382        33     1.620     1.167 -21.06   0
       385    266.4425    447.7568 307.8115695  +6.4932152     1805.927     2696.867     3259.337     77.78922     155.7022     311.1259      1.656     4.07     838.6865     54.87374     291.3235        17     1.474     0.712 -46.83   0
       386     89.6664    449.6067 307.8849417  +6.4865282      1415.44     1448.816     1212.651     77.54108     155.4545     311.1259      0.764     0.71     842.5349     54.87374     696.5239         5     0.615     0.413  34.97   0
       387    344.5411    445.5147 307.7792011  +6.4967544     3403.111     5211.252     5277.576     78.03656     155.7022     311.4045      1.668     4.39     838.4211     54.87374     517.7698        25     1.619     0.786 -36.97   0
       388    700.4183    443.2161 307.6314358  +6.5095863     1582.346     2366.744     2800.017     77.78922     155.3925     311.2497      1.670     4.64     838.9312     54.87374     245.4392        15     1.476     0.630 -37.83   0
       389    975.0653    441.6889 307.5173859  +6.5193580     724.8488     1091.824     1209.924     78.03655     155.8878     311.3116      1.493     2.07     838.4011     54.87374     173.4379         6     0.724     0.585 -53.54   0
       390    232.2164    441.1609 307.8260084  +6.4947928     1026.639     1326.637     1646.096     77.66525     155.5784     311.0949      1.464     5.58     838.8437     54.87374     152.1847        12     1.181     0.744 -35.27   0
       391    442.5046    437.4760 307.7387735  +6.5033491     496.0102     849.3922     610.2999     77.66525      155.826     311.3735      1.813     4.05       837.97     54.87374     110.1263         6     1.141     0.410 -44.99   0
       392    542.0349    435.8795 307.6974788  +6.5073327     1008.318     1618.024     1867.391     77.91298     155.7641     311.3426      1.735     4.78     837.7565     54.87374     163.3478        11     1.195     0.691 -30.07   0
       393    464.1811    434.3373 307.7298733  +6.5053695     1411.854     2055.283     1848.683     77.66525     155.7022     311.1878      1.605     4.47     837.7301     54.87374     227.4758        13     1.281     0.619 -39.43   0
       394    826.4788    433.3257 307.5793942  +6.5178693     1449.459     2142.048     1703.977     78.28312     155.9496     311.3735      1.553     5.34     840.3726     54.87374     226.2942        11     1.273     0.633 -34.92   0
       395    812.2859    432.3580 307.5853228  +6.5177964     2144.466     2992.139     2919.299     78.03655     155.5784     311.3116      1.517     4.55     840.3428     54.87374     314.8408        16     1.397     0.661 -38.21   0
       396    709.5873    430.4059 307.6280536  +6.5151817      15478.8     22277.45     23229.87     77.66525     155.5165     311.1878      1.576     4.50     838.1406     54.87374     2491.137        36     1.534     0.849 -38.21   0
       397    612.0116    432.0738 307.6685350  +6.5112395     676.2643     1247.525     1333.936     77.54108     155.3305     311.1259      1.744     4.35     837.5868     54.87374     139.7885         7     1.282     0.488 -46.93   0
       398    630.6811    426.5372 307.6609636  +6.5141485     2701.495     3920.431     3885.393     78.15993     155.7641     311.3116      1.542     4.45     837.5554     54.87374     444.5661        19     1.422     0.735 -38.41   0
       399    703.4659    425.1919 307.6307705  +6.5171307     708.3369     975.4969       1009.4     77.54108     155.4545     311.1568      1.301     4.18     837.8365     54.87374     118.4774         7     1.120     0.445 -40.44   0
       400    625.7527    425.0931 307.6630593  +6.5145804     515.5892     768.3262     592.3409     77.91298     155.6404     311.4354      1.512     3.88     837.4138     54.87374     89.54364         5     0.863     0.500 -32.57   0
       401    605.8787    423.5142 307.6713684  +6.5145694     5613.573     8293.769     9254.678     78.03655     156.0114     311.4045      1.559     4.50     837.2177     54.87374     864.8296        25     1.460     0.820 -39.19   3
       402    602.0610    420.9494 307.6730400  +6.5155011     15172.36     22183.11     23433.02     78.03655     155.6403     311.3426      1.518     4.15     837.0885     54.87374     2338.514        36     1.521     0.861 -39.34   3
       403    934.8611    420.3330 307.5347989  +6.5268402     3756.286     5517.037     5849.387     78.03655     155.6404     311.3116      1.608     4.18     837.4062     54.87374     521.6091        24     1.485     0.880 -40.67   0
       404    411.0176    418.0277 307.7525042  +6.5103275     570.2369     783.3392     1063.603     77.66525     155.5165     311.2188      1.760     4.74     837.3293     54.87374     82.84424         9     1.292     0.493 -31.33   0
       405    374.0077    416.3678 307.7679348  +6.5097755     30062.31     44146.76     45771.49     77.54108     155.5784     311.1259      1.525     4.19     837.2509     54.87374     4495.666        43     1.563     0.874 -37.87   0
       406    890.5673    416.0049 307.5533450  +6.5271543     1397.109     2326.663     3728.009     77.41672     155.5784     311.1259      1.671     3.97      838.778     54.87374     195.2162        12     1.188     0.663 -44.04   0
       407    120.0367    415.9278 307.8734550  +6.5014532     2425.229     3769.025     3171.274     77.91298     155.7022     311.3426      1.557     4.50     840.9999     54.87374     384.6453        19     1.473     0.746 -40.14   0
       408    903.7103    410.6772 307.5480619  +6.5297915     5109.063     7608.036     8196.265     77.91298     155.9496     311.3735      1.588     4.72     838.0801     54.87374     753.5222        27     1.549     0.842 -41.45   0
       409     53.3984    411.4400 307.9012880  +6.5010714     1537.715     2496.181     2854.507     77.16739     155.4545     311.0639      1.767     4.62     842.7157     54.87374     256.2386        15     1.430     0.675 -29.01   0
       410    959.5525    408.3679 307.5249385  +6.5326019      802.192     1232.858     1326.366     77.78922     155.7022     311.2497      1.686     5.29     837.0829     54.87374     108.5803         9     1.109     0.712 -44.16   0
       411    231.4965    406.9181 307.8274543  +6.5089083     14540.35     21194.19     21853.09     77.91298     156.0114     311.4045      1.540     4.08     837.8494     54.87374      2108.02        34     1.542     0.854 -41.70   0
       412    726.1984    400.6702 307.6221436  +6.5280142     748.8179     1092.916     1367.763     77.54108     155.2684     311.1259      1.417     5.03     837.1734     54.87374     122.6531         8     1.288     0.631 -55.19   0
       413     67.1940    401.1093 307.8959037  +6.5057999     828.2435     1034.686     386.7421     77.66525     155.3925     311.0949      1.345     4.90     842.1017     54.87374     108.4604         8     0.923     0.735 -28.09   0
       414    954.7611    399.0801 307.5272380  +6.5362779     1038.603     1892.769      1972.64     77.91298     155.7641     311.2807      1.944     5.50     836.9205     54.87374     150.8433        14     1.420     0.858 -33.68   0
       415    694.8927    399.7307 307.6351810  +6.5273588     783.8075     1040.183     1163.081     78.03655      155.826     311.3116      1.271     4.58     837.1016     54.87374     115.5192         8     1.272     0.468 -41.51   0
       416    344.4460    396.4922 307.7808806  +6.5169939     1323.724     2078.256     1986.707     78.03656     155.6404     311.4354      1.695     5.19     836.6298     54.87374     189.5319        11     1.296     0.588 -42.29   0
       417    177.4436    396.7078 307.8502513  +6.5113136     819.4209     1198.451     892.8068     78.03656     155.6404     311.4354      1.578     4.81      839.064     54.87374     124.2238         9     1.339     0.491 -39.96   0
       418    131.7318    395.5809 307.8692789  +6.5102469     5362.203     8048.047     8272.669     77.66525     155.5784     311.2188      1.624     4.69     840.3068     54.87374     778.9552        27     1.588     0.786 -38.13   0
       419    429.0043    394.3340 307.7458240  +6.5207125     648.5861     925.8148     1143.361     77.41672     155.4545     311.0949      1.840     4.76     836.0518     54.87374     110.4002         8     1.437     0.447 -37.99   0
       420    236.5368    394.4744 307.8257772  +6.5142154     1420.864     2016.587     2307.805     78.28312     155.7022     311.2807      1.576     4.77     837.3156     54.87374     245.8828        13     1.270     0.734 -47.59   0
       421    817.7800    392.2063 307.5843773  +6.5345594     739.1046     1156.891      897.119     77.66525     155.4545     311.1259      1.510     5.11     838.6046     54.87374     131.7024         9     1.420     0.519 -39.14   0
       422    153.7553    391.3176 307.8602727  +6.5127455     2567.024     4265.521     4556.376     78.03655     155.7022     311.2807      1.782     4.52     839.6157     54.87374       342.75        28     1.743     0.912 -54.66   0
       423    549.5416    390.4256 307.6958778  +6.5263527     1105.748     1480.311     1215.275     77.66525     155.7022     311.1568      1.612     5.14     835.5956     54.87374     159.1646        11     1.420     0.526 -47.64   0
       424    965.6297    385.7898 307.5231644  +6.5421273     1124.819     1920.352     2086.038     77.54108     155.5165     311.1568      1.926     7.46     836.6859     54.87374     158.5536        19     1.921     0.812 -55.96   0
       425    377.2527    386.1342 307.7675979  +6.5223682     2167.415     3285.444     3165.068     78.03655     155.6404     311.2807      1.555     4.85     836.0876     54.87374     312.7409        15     1.455     0.619 -37.63   0
       426    265.3046    386.7172 307.8140859  +6.5183818      939.408     1089.862     678.7606     77.91298     156.0731     311.4354      1.420     4.83     836.6934     54.87374     187.6561         9     1.111     0.595 -31.79   0
       427    311.5708    384.1025 307.7949528  +6.5210100     540.3718     894.0215     1002.763     78.15993     155.4545     311.3116      1.654     3.47     836.2645     54.87374     93.18524         5     0.771     0.452 -71.16   0
       428    431.1234    379.6893 307.7454332  +6.5268305     7546.216     11076.94      11527.8     78.03655     155.9496     311.3735      1.537     4.42     835.3382     54.87374     1173.078        30     1.563     0.787 -38.89   0
       429     27.6155    380.4862 307.9130374  +6.5129875     3229.158     5071.804     5245.908     77.66525     155.4545     311.2188      1.791     5.72     842.4871     54.87374     469.0015        28     1.837     0.776 -41.95   0
       430    763.7339    378.6683 307.6072823  +6.5383500     1979.675     3028.055     3554.926     78.03655     155.7641     311.3426      1.665     5.50     837.4153     54.87374     296.0746        16     1.506     0.647 -38.86   0
       431    192.2130    379.0794 307.8447064  +6.5190876     438.9355     529.7933     590.4022     77.66525     155.4545     311.1259      1.117     3.67     838.0999     54.87374     94.29144         5     1.121     0.345 -78.09   0
       432    771.7399    376.9708 307.6040126  +6.5393177     13104.81     19077.38     19904.65     77.78922     155.7022     311.2807      1.524     4.31     837.4816     54.87374     1942.161        32     1.533     0.804 -38.39   0
       433    531.5959    377.6520 307.7037599  +6.5310281     449.7944     766.9034     713.4763     77.41672     155.5165       310.94      1.574     5.33     834.9971     54.87374     88.90051         6     0.985     0.814 -38.85   0
       434    335.2150    375.4800 307.7854185  +6.5253616     1113.216     1687.513     1597.991     77.66525     155.4545     311.1259      1.548     4.31     835.9749     54.87374     200.0209        12     1.353     0.554 -39.76   0
       435    285.8565    375.6797 307.8059174  +6.5236274     536.4724      707.387     946.4685     78.15993     155.7022     311.3116      1.185     4.12     836.0652     54.87374     110.2411         5     0.927     0.529 -48.35   0
       436   1015.6620    372.0358 307.5028345  +6.5494695     3497.758     5449.872     5359.985     78.03655     155.7022     311.2807      1.614     4.05     836.4333     54.87374     478.6862        22     1.438     0.815 -38.55  16
       437    946.6407    368.8281 307.5316178  +6.5485002     532.5688     583.1013     401.9835     77.66525     155.5165     311.1568      1.258     4.68     836.3792     54.87374     98.46747         6     0.966     0.644 -54.46   0
       438    180.1303    368.0460 307.8500957  +6.5232387     774.1028     1026.404     1133.313     78.03655     155.6403     311.3116      1.376     5.22     838.2341     54.87374     124.7614        10     1.208     0.675 -48.51   0
       439    519.8210    364.6444 307.7090862  +6.5360062     566.6558     844.0728     580.7741     77.54108     155.5784     311.1259      1.739     4.96     834.3768     54.87374     84.72333         7     1.143     0.609 -38.54   0
       440    479.3008    363.3197 307.7259649  +6.5351998     3203.169     4776.896      4924.82     77.91298     156.0731     311.3426      1.595     4.22     834.2896     54.87374     482.8937        21     1.472     0.743 -43.31   0
       441    451.4145    364.0050 307.7375275  +6.5339851     2389.805     3560.838     3405.036     77.66525     155.3925     311.1568      1.565     4.33      834.453     54.87374     342.8436        19     1.467     0.738 -35.48   0
       442    907.8940    363.1697 307.5479042  +6.5495483     784.8369     1229.628     1047.299     78.15993     155.4545     311.2497      1.669     6.52     836.4409     54.87374       110.54        13     1.418     0.843 -39.29   0
       443    837.1160    359.8800 307.5774201  +6.5485518     33007.67     51500.74     53473.14     77.91298     156.0114     311.4045      1.629     4.22     836.8156     54.87374     4534.393        54     1.671     1.006 -47.33   0
       444    329.2441    355.6226 307.7885636  +6.5333614     1013.365     1430.422     801.3332     77.54108     155.5784     311.1259      1.385     4.24     835.3843     54.87374     163.0999         8     1.115     0.496 -36.45   0
       445     55.1527    356.0670 307.9024172  +6.5239946     672.6425     1150.871     982.9891     78.03655     155.6404     311.3426      1.655     4.01     841.2968     54.87374     115.1183         6     1.007     0.456 -48.28   0
       446     16.9587    353.0795 307.9183843  +6.5239465     1114.498     1535.625     1928.866     77.91298     155.7022     311.3116      1.469     4.68     841.8726     54.87374     179.5378         9     1.267     0.490 -38.18   0
       447    608.9336    352.2943 307.6724757  +6.5440803     2778.592     4062.578      4750.91     78.03655     155.8878     311.3116      1.589     5.26      834.439     54.87374     449.6784        19     1.430     0.759 -40.60   0
       448    140.7462    350.7565 307.8670368  +6.5290579     528.1509     736.2028     331.3047     78.03655     155.7022     311.3116      1.400     3.40     839.1962     54.87374     87.43506         5     0.948     0.354 -44.81   0
       449    693.5829    345.9049 307.6375198  +6.5495416     83038.47     120697.9     125312.9     77.91298     155.5165     311.1568      1.565     4.45     836.0319     54.87374     12384.44        83     1.640     0.994 -38.54   0
       450    851.8232    347.4451 307.5717236  +6.5541761     1229.533     1896.714     2625.899     77.54108     155.7022     311.1568      1.632     5.36     836.1049     54.87374     179.9258        12     1.363     0.594 -43.62   0
       451     72.6982    345.5669 307.8954805  +6.5289189     1362.818     2204.742     2358.706     78.03656     155.5784     311.4354      1.711     4.56     840.9144     54.87374     213.8317        14     1.511     0.632 -43.22   0
       452     58.9823    344.5789 307.9012117  +6.5288667     494.8694      772.577     213.8402     77.78921     155.5784     311.2188      1.432     3.91     841.1539     54.87374     103.8094         5     1.251     0.350 -46.47   0
       453    935.3049    342.9274 307.5371889  +6.5588187     845.4275     1300.615     1588.385     77.91298      155.826     311.3116      1.811     5.81     835.6594     54.87374     143.7993        12     1.626     0.585 -37.65   0
       454    556.0162    342.6349 307.6947835  +6.5463030     2776.105     4073.506      4466.53     77.66525     155.4545     311.1568      1.577     4.58     833.3958     54.87374     434.9108        18     1.487     0.650 -41.92   0
       455    383.4813    342.7505 307.7664612  +6.5404908     574.1879     914.6759      722.184     78.03655     155.7641     311.3426      1.547     3.85     834.4391     54.87374     101.5742         6     1.163     0.366 -29.81   0
       456     93.2171    341.5473 307.8870910  +6.5312669      6368.22     9409.063     9469.725     77.54108     155.7641      311.033      1.569     4.19     840.5721     54.87374     988.3663        29     1.519     0.841 -39.74   0
       457    539.2605    338.8214 307.7018723  +6.5473184     7660.234     11307.81     11227.41     77.66525     155.6404     311.2497      1.526     4.18     833.1259     54.87374     1255.565        29     1.553     0.788 -38.99   0
       458    268.2299    336.4796 307.8145527  +6.5392239     2778.862     4163.013     4078.187     77.91298     155.7022     311.2807      1.568     4.72     835.3557     54.87374     396.8997        15     1.369     0.658 -35.64   0
       459    402.2024    334.0549 307.7589742  +6.5447074     27182.92     40502.42     42139.22     77.41672     155.4545      311.002      1.563     4.16     833.8549     54.87374     4106.818        46     1.598     0.909 -39.19   0
       460    509.8176    332.9100 307.7143023  +6.5487762     1362.294     1911.278     1926.184     77.78921     155.4545     311.2188      1.498     4.57     833.0758     54.87374     197.7916        14     1.332     0.692 -36.11   0
       461    381.8098    332.2615 307.7675065  +6.5447661     1287.706     1757.024     2331.596     77.41672     155.5784     311.0949      1.428     5.05     834.1788     54.87374     192.8602        13     1.357     0.652 -34.73   0
       462    481.5434    329.4659 307.7261643  +6.5492540     1421.617     1889.827     2212.862     78.15993     155.6404     311.3116      1.605     4.07      833.209     54.87374     202.7014        14     1.271     0.730 -44.63   0
       463    796.8396    326.8493 307.5952540  +6.5608505     784.6829     1325.793      1134.49     78.03655     155.7022     311.2497      1.684     5.22     835.7382     54.87374     122.2731         8     1.223     0.630 -24.64   0
       464    379.2564    326.7302 307.7687523  +6.5469647     818.5232     1279.121     2128.333     78.15993     155.6404     311.2807      2.038     3.92     834.1073     54.87374     161.8174         9     1.309     0.498 -41.18   0
       465    633.6884    326.0205 307.6630675  +6.5557554     606.2975     1057.319     888.2292     77.91298     155.4545     311.1878      1.866     4.24     833.5456     54.87374     83.78961         7     1.193     0.429 -33.56   0
       466    491.2610    324.4358 307.7222951  +6.5516557     9238.418     13491.51     13848.06     78.03656     155.7022     311.2807      1.567     4.42     832.9766     54.87374     1377.798        28     1.546     0.773 -39.79   0
       467    915.7657    322.8922 307.5459737  +6.5664422     976.6276     1467.817     1446.803     78.15993     155.5784     311.3735      1.560     5.13     834.8798     54.87374     144.0399        11     1.401     0.575 -48.56   0
       468    760.3903    323.1535 307.6105212  +6.5611627     3115.501     4590.283      5107.35     77.54108     155.5784      310.971      1.546     4.23      835.496     54.87374     453.1387        19     1.519     0.688 -38.60   0
       469    708.0578    322.6990 307.6322795  +6.5596066     800.0667     1142.156     962.5845     77.78922     155.7022     311.4973      1.523     4.89     835.0063     54.87374     123.8372         9     1.381     0.490 -37.74   0
       470    317.7732    321.3160 307.7944773  +6.5471436     1075.293     1650.162     1336.026     78.15993     155.4545     311.1878      1.644     5.20     834.6036     54.87374     164.3513        12     1.358     0.669 -41.83   0
       471    754.1257    340.6741 307.6125402  +6.5537191     437.9519     547.3533     1043.969     78.28312     155.9496     311.4045      1.375     3.73     836.2275     54.87374     78.20349         5     1.508     0.265 -41.21   0
       472    153.2256    314.8718 307.8630554  +6.5442937     1019.702     1614.967     1952.844     77.66525     155.5784     311.2497      1.711     4.56     838.6804     54.87374     150.8466        13     1.324     0.695 -38.91   0
       473    430.5711    314.6095 307.7478382  +6.5536853     497.5074      667.044     507.4034     77.54108     155.5165     311.1568      1.283     4.94     833.0622     54.87374     74.06567         5     1.323     0.522 -45.37   0
       474    253.5117    315.0709 307.8213844  +6.5475713     646.3162     901.0912      800.816     78.15993     155.9496     311.3116      1.435     4.75     835.4131     54.87374     89.39728         8     1.037     0.618 -47.41   0
       475    599.8027    313.5670 307.6775618  +6.5597674     465.0925     555.0056     618.5528     77.29215     155.5165     311.0639      1.529     4.65     832.0508     54.87374     75.17798         6     1.175     0.523 -48.59   0
       476    381.1877    308.6852 307.7685535  +6.5544806     7696.712     11522.43     11978.95     77.66525     155.5165     311.1568      1.587     4.59     833.6125     54.87374     1173.992        31     1.538     0.844 -39.53   0
       477    236.9152    309.2840 307.8284734  +6.5494050     2199.626     3641.732     4361.859     77.78922      155.826     311.3735      1.739     4.45     835.7684     54.87374     354.1517        20     1.657     0.686 -39.17   0
       478    734.7599    308.3555 307.6216633  +6.5664194     905.1196     1333.664     1566.487     77.78922     155.7022     311.2188      1.435     4.99     834.7597     54.87374     157.7805        11     1.407     0.509 -39.92   0
       479    749.0448    304.4456 307.6158585  +6.5685099     55713.92     81706.66     84530.02     78.03655     155.7022     311.2497      1.553     4.47     834.6737     54.87374     8150.614        56     1.587     0.925 -40.54   0
       480    420.4585    303.9596 307.7523957  +6.5577449     2536.126     3817.486     4295.366     78.03655     155.7022     311.3735      1.676     4.41     832.8364     54.87374      359.332        18     1.410     0.738 -46.54   0
       481    983.7551    301.5483 307.5184344  +6.5775164     1720.577     2444.566     2383.255     78.15993     155.6404     311.3116      1.592     4.83     833.7668     54.87374     235.3961        18     1.469     0.835 -36.22   0
       482    924.8708    300.5651 307.5429334  +6.5759647     2297.049     3396.177     3451.473     77.91298     155.6404     311.3116      1.535     4.35     833.8981     54.87374     331.2637        16     1.433     0.677 -42.58   0
       483    566.7900    301.4630 307.6916819  +6.5636638     1333.643     1723.416     1460.177     77.54108     155.5165     311.1259      1.513     4.73     831.1995     54.87374     199.2882        12     1.346     0.590 -39.26   0
       484    457.9282    300.1120 307.7369567  +6.5605860     1092.906     1599.342     1381.942     78.15993     155.9496     311.3116      1.392     4.66     832.5975     54.87374      203.307        11     1.372     0.548 -42.99   0
       485    407.0729    299.6247 307.7581020  +6.5590874     2226.146     3160.847     2896.413     77.66525     155.5784     311.2497      1.406     4.00     832.9266     54.87374     385.8237        16     1.326     0.707 -41.84   0
       486    287.0002    299.0426 307.8080079  +6.5553109     742.1828     867.2646     613.2145     77.29215     155.3305       310.94      1.336     4.63     834.4082     54.87374     116.7468         7     1.016     0.600 -56.42   0
       487    434.4845    296.3770 307.7468218  +6.5613448     440.8535     916.6644     966.7894     77.91299     155.4545     311.2188      1.700     3.59     832.5902     54.87374     105.1056         5     1.519     0.244 -44.81   0
       488    828.4767    294.1780 307.5831972  +6.5753950     1191.716     1835.605     1844.746     77.66525     155.5784     311.2497      1.648     6.37     834.3585     54.87374     149.8268        16     1.419     0.854 -47.72   0
       489    457.8542    294.2329 307.7371839  +6.5630111     643.4001       879.29      550.475     77.91298     155.6404     311.2497      1.322     5.24     832.4516     54.87374     125.1378         9     1.524     0.509 -42.08   0
       490    437.7657    290.9401 307.7456403  +6.5636995     1240.244     1824.896     1781.975     77.91298     155.7022     311.2497      1.519     4.71     832.4539     54.87374     193.2363        13     1.419     0.694 -30.84   0
       491    183.7771    291.0089 307.8511624  +6.5551710     2350.011     3390.744     3589.348     77.66525     155.4545     311.1568      1.530     3.90     837.4917     54.87374     357.3278        18     1.387     0.697 -38.71   0
       492    747.4882    288.9899 307.6170203  +6.5748402     6232.018     9117.295     9360.438     77.66525     155.3925     311.0949      1.525     4.55     834.0354     54.87374     910.5034        26     1.526     0.771 -42.06   0
       493    219.2718    289.0448 307.8364815  +6.5571712     768.1891     1180.425     1210.265     77.91298     155.7022     311.3426      1.602     4.79     836.2629     54.87374     126.2622         9     1.352     0.480 -51.03   0
       494    763.8239    286.9662 307.6103004  +6.5762200     2768.747     4159.375     3827.169     77.54108     155.5165     311.0949      1.505     4.42     834.0297     54.87374     408.0687        19     1.506     0.747 -38.71   0
       495    338.1887    288.7803 307.7870842  +6.5612615     647.2863     1028.966     656.8802     77.66525     155.3925     311.2188      1.558     5.05     833.7242     54.87374     99.51263        10     1.442     0.499 -35.84   0
       496     79.8443    288.2439 307.8944348  +6.5528281     1082.433     1582.274     1475.042     78.03655     155.7022     311.2497      1.453     4.81     840.7854     54.87374     182.1593        11     1.312     0.561 -34.62   0
       497    687.9478    285.1265 307.6418877  +6.5744512     1224.719     1119.604     1041.183     78.03655     155.7641     311.3426      0.519     2.61      832.678     54.87374     806.6466         6     0.611     0.331 -66.84   0
       498    467.0329    285.5605 307.7336603  +6.5668989     529.5422     588.7202    -60.16138     77.78921     155.5165     311.1568      1.207     3.46     832.1762     54.87374     89.07727         5     0.751     0.608 -84.54   0
       499    353.6482    281.7364 307.7808969  +6.5646873     1889.662     3380.822     3676.249     77.91298     155.5784     311.3426      1.868     7.21     833.4456     54.87374     251.8278        23     1.799     0.876 -22.68   0
       500     67.1363    282.3473 307.8999123  +6.5548366     1427.029      1931.79     1398.836     78.03655     155.6404     311.2807      1.468     4.40     840.9372     54.87374     220.2687        13     1.291     0.642 -36.08   0
       501   1002.0974    277.8191 307.5116021  +6.5879246     5788.802     8781.777     8858.631     77.91298     155.5784     311.0639      1.586     4.08      832.485     54.87374      848.054        29     1.586     0.849 -39.21   0
       502    480.1707    277.7307 307.7284634  +6.5705710     2226.052     3119.293     2995.412     77.78922     155.7022     311.2497      1.570     4.43     831.8039     54.87374     355.4167        18     1.518     0.706 -40.09   0
       503    251.2411    274.7073 307.8236796  +6.5641622     478.1076     611.0528     1029.096     78.15993     155.6404     311.4045      1.688     5.24      835.392     54.87374     98.49896         8     1.542     0.503 -44.31   0
       504    242.7820    273.4173 307.8272373  +6.5644116     5997.101     9031.745       9657.1     77.78922     155.3925     311.2497      1.571     4.72     835.6653     54.87374     931.5577        32     1.581     0.866 -37.77   0
       505    761.6379    266.9753 307.6118748  +6.5844021     835.9086     1062.022     820.6266     77.66525     155.5165     311.1259      1.378     4.48     833.0683     54.87374     149.5111         8     1.068     0.534 -43.94   0
       506    807.2703    272.0545 307.5927453  +6.5838245     668.7026     858.8968     1172.399     77.91298     155.6404     311.2807      1.643     3.42     833.5753     54.87374     127.1344         5     1.022     0.331 -44.97   0
       507    377.0809    264.1070 307.7717509  +6.5727507     1694.075      2849.33     2552.765     77.78922     155.9496     311.3735      1.646     4.43     832.5421     54.87374     259.4297        18     1.468     0.778 -40.39   0
       508    963.5923    262.9946 307.5280941  +6.5927665     1087.477     1513.481     1334.698     77.41672     155.5165     311.1568      1.411     4.62     831.6957     54.87374     165.8584        10     1.117     0.626 -28.57   0
       509    298.9092    260.2604 307.8043585  +6.5717235     1235.522     1726.926     1367.147     77.91298     155.7641     311.3735      1.656     4.87     834.0065     54.87374     202.9054        14     1.424     0.731 -38.72   0
       510    146.5109    260.0928 307.8676816  +6.5666878     1898.626     2622.546     2549.943     78.03655     156.1965     311.3735      1.509     3.69     838.6941     54.87374     324.7171        16     1.430     0.648 -42.28   0
       511    556.0793    255.8014 307.6976567  +6.5821612     2217.044     3559.485     3529.348     77.29215     155.1443     311.0949      1.636     4.72     830.1097     54.87374     349.2959        19     1.511     0.699 -40.16   0
       512    900.2503    254.7679 307.5546870  +6.5940572     1621.196     2373.063     2434.562     77.91298     155.7641     311.2497      1.442     4.72     831.7026     54.87374     235.5399        14     1.442     0.599 -46.95   0
       513    719.8606    253.1814 307.6296931  +6.5887061     5298.716     7833.938     7651.375     77.66525     155.6404     311.1568      1.531     4.30     831.8878     54.87374     835.3469        24     1.505     0.777 -40.27   0
       514    660.7108    253.0455 307.6542745  +6.5867903       2310.7     3323.787     3132.716     78.03655     155.5784     311.4354      1.553     4.29     831.0448     54.87374     343.7318        17     1.465     0.692 -37.48   0
       515    957.9155    253.0492 307.5307836  +6.5966845     688.5012     1114.337     1148.534     78.03655     155.7022     311.3735      1.561     4.74     831.1108     54.87374     120.8893         7     1.385     0.623 -42.94   0
       516    375.0114    247.8869 307.7731534  +6.5793791     707.3343     1186.524     879.0539     77.66525     155.4545     311.1568      1.362     4.79     832.2002     54.87374     132.9534         9     1.801     0.361 -33.91   0
       517    915.8738    245.4508 307.5485053  +6.5984242     1230.044     1938.195     2148.629     78.03655     155.7641     311.3426      1.794     4.40     830.8738     54.87374     214.8479        16     1.393     0.818 -45.48   0
       518    219.4050    238.4550 307.8381212  +6.5780652     2603.382     3675.368     3523.096     77.41672     155.5165      311.002      1.577     5.21     836.8165     54.87374     367.4094        16     1.384     0.706 -37.90   0
       519    862.2856    237.3557 307.5710414  +6.5999842     1805.227     2682.122     2945.994     78.03655     155.5784     311.2807      1.572     4.31     831.3297     54.87374     257.5771        19     1.392     0.925 -30.94   0
       520    752.5490    237.0671 307.6166480  +6.5964494     1742.384     2454.865     2526.792     77.91298     155.5784     311.3116      1.623     4.70     831.5148     54.87374     238.4549        16     1.421     0.686 -38.53   0
       521    241.4302    232.1215 307.8291823  +6.5814182     640.2269     1013.247     553.6159     77.91298     155.7641     311.2807      1.486     3.73     836.1038     54.87374     102.2354         6     1.179     0.339 -40.34   0
       522    453.2980    228.3691 307.7412785  +6.5900558     23899.24     35621.89     37160.98     78.03656     155.4545     311.4045      1.606     4.69     829.9355     54.87374     3407.137        49     1.628     0.934 -38.62   2
       523    458.9568    222.8342 307.7391123  +6.5925304     1549.577     2592.774     3142.283     77.78922     155.7022     311.1568      1.876     5.47     829.7404     54.87374     222.1675        19     1.751     0.747 -30.41   3
       524    314.7455    230.0860 307.7987889  +6.5847132     629.0818     954.5079     663.6904     78.03655     155.6404     311.4973      1.337     2.99     833.5242     54.87374     132.5225         6     0.890     0.433 -50.44   0
       525    779.3463    227.3948 307.6058357  +6.6013361     13427.78     20054.39     21378.76     77.41672     155.4545      311.002      1.616     4.49     831.4392     54.87374     2094.498        43     1.708     0.954 -32.32   0
       526    717.9083    223.4147 307.6314967  +6.6009326     811.9142     1101.107     1396.012     77.78921     155.5165     311.1259      1.472     4.69     830.5157     54.87374     128.6671         9     1.121     0.557 -57.26   0
       527    141.4947    221.8201 307.8710490  +6.5823231     2441.607     3638.814      4001.37     77.91298     155.5165     311.1259      1.614     4.09     838.7241     54.87374     351.1316        18     1.428     0.762 -45.05   0
       528    116.3354    220.6812 307.8815404  +6.5819497     1299.905     1663.045     2063.663     78.28312     155.7641     311.3116      1.447     4.12     839.4324     54.87374     227.4685        13     1.308     0.643 -34.96   0
       529    771.2369    220.0182 307.6094510  +6.6041120     584.9281     978.1707     1209.142     77.66525     155.5165     311.0949      1.768     5.12     831.0315     54.87374     113.3157         7     1.289     0.574 -14.24   0
       530    915.7180    217.7321 307.5494924  +6.6098651     1497.589     2446.916     2141.245     78.15993     155.9496     311.3426      1.646     4.20     829.5335     54.87374     217.8394        13     1.265     0.645 -38.84   0
       531    577.4396    214.1541 307.6901721  +6.6000716     4989.656     7400.676     7830.041     77.91298     155.7022     311.1878      1.600     4.23     829.3781     54.87374     730.6356        28     1.654     0.778 -39.64   0
       532    540.2471    214.0011 307.7056310  +6.5988932      2221.86     3212.423     3522.332     77.41672     155.3305      310.878      1.478     4.42     829.2532     54.87374     335.3004        14     1.356     0.612 -41.29   0
       533    297.8687    214.9636 307.8063073  +6.5903927     1184.657     1726.983     1473.719     77.91298     155.7641     311.4045      1.448     4.24     834.0614     54.87374     211.3681         8     1.105     0.464 -36.71   0
       534    381.8961    213.1994 307.7714532  +6.5939326     1614.233     2482.923     2470.692     77.54108     155.3305      310.909      1.602     4.25     831.1945     54.87374     245.5893        16     1.480     0.668 -37.72   0
       535    938.2700    211.0851 307.5403426  +6.6133599     2847.835     4260.262     4335.257     78.15993     155.9496     311.3426      1.572     4.09     829.1529     54.87374      376.421        19     1.441     0.739 -39.32   0
       536    884.4150    210.5866 307.5627373  +6.6117744     11779.15     17189.16     17424.85     77.78922     155.3925     311.2497      1.597     4.37     829.8702     54.87374     1863.531        35     1.553     0.881 -40.92   0
       537    559.1046    210.8686 307.6979002  +6.6008163     875.8227     1240.105     1603.707     77.91298     155.7641     311.3426      1.648     5.22     829.1902     54.87374     143.2103        10     1.545     0.498 -39.81   0
       538    311.9617    211.1460 307.8005795  +6.5924408     963.8788     1369.715     1602.074     78.03655     155.7641     311.3116      1.437     5.35     833.6494     54.87374     140.9956        13     1.407     0.690 -37.07   0
       539     10.5021    207.4355 307.9259563  +6.5838680      26814.7     39889.36     41901.18     78.03656     155.5784     311.4664      1.643     4.23     841.4925     54.87374     3818.956        54     1.645     0.997 -38.46  16
       540    971.0265    208.4054 307.5268205  +6.6155554     9733.431     14622.42     14971.06     77.54108     155.5165     311.1259      1.586     4.31     828.9818     54.87374     1347.261        33     1.561     0.870 -40.23   0
       541    682.3903    208.5062 307.6467521  +6.6059049     2930.712     4367.619     4725.234     77.66525     155.3305     311.1259      1.556     4.12     830.0702     54.87374     476.2874        20     1.485     0.698 -37.92   0
       542    204.0367    210.0653 307.8454578  +6.5892730     646.2324     965.6132     775.9774     77.91298     155.7022     311.3735      1.704     3.43     837.2063     54.87374     126.0057         6     1.076     0.688 -61.13   0
       543    256.5847    208.4340 307.8236792  +6.5917067     1322.247      2158.78     2407.644     77.66525     155.4545     311.1878      1.689     4.56     835.6436     54.87374     203.9163        14     1.495     0.606 -32.85   0
       544    491.0739    203.2936 307.7264206  +6.6016723     2136.046       3214.4     3180.099     77.91298      155.826     311.3116      1.542     4.41     829.0646     54.87374      327.902        14     1.356     0.659 -38.28   0
       545    823.0330    199.9196 307.5885983  +6.6141363     2063.971     3016.492     2476.131     77.91298     155.6403     311.3116      1.470     3.97     830.2076     54.87374     324.9109        16     1.441     0.654 -43.23   0
       546    502.9730    199.4039 307.7216064  +6.6036760     2546.777     3791.917     3395.307     77.54108     155.5165     311.1568      1.571     4.28     828.8864     54.87374     408.6343        20     1.523     0.789 -41.53   0
       547    875.3050    199.0025 307.5669084  +6.6162548     2111.432     3424.432     3613.979     77.66525     155.3925      310.971      1.631     4.78     829.6104     54.87374     293.6328        18     1.617     0.657 -35.89   0
       548    409.5032    200.1921 307.7604175  +6.6002268     466.2924     632.1486     344.3575     77.78922     155.3305     311.1259      1.328     3.43     829.9046     54.87374     95.89514         5     0.794     0.694 -35.43   0
       549    337.5943    196.2099 307.7904292  +6.5994660     6296.573     12125.92     13341.29     77.54108     155.5165     311.1878      2.081     6.86     832.6991     54.87374     762.0421        42     2.134     1.016 -61.42   0
       550    734.5889    196.5857 307.6254600  +6.6125671     42371.66     61061.02     62791.21     77.78922     155.4545     311.2497      1.565     4.60     830.0251     54.87374     6759.499        58     1.598     0.910 -39.03   0
       551    968.3120    195.3704 307.5283820  +6.6208479     2890.546     4252.303      4754.46     78.15993     155.4545     311.1878      1.590     4.10     828.6483     54.87374     410.0004        19     1.401     0.753 -39.28   0
       552   1006.6893    193.8990 307.5124838  +6.6227309     1743.381     2753.318      2783.62     78.03655     156.1348     311.2807      1.716     4.90     828.3859     54.87374     237.2271        18     1.504     0.777 -40.18   0
       553    902.5233    193.6306 307.5557771  +6.6193785     7918.524     11497.83     11646.96     77.91299     155.7641     311.3116      1.574     4.48     829.1402     54.87374     1217.162        28     1.514     0.822 -42.66   0
       554    445.9878    192.8308 307.7455041  +6.6044861     5114.771      7718.75     7733.848     77.54108     155.4545     311.2188      1.543     4.34     829.2223     54.87374     802.9584        25     1.531     0.784 -36.71   0
       555    313.0913    191.8480 307.8007563  +6.6004471     514.8434     669.6111     536.3193     78.03655     155.6404     311.4354      1.428     3.92     833.7173     54.87374     87.13599         5     0.997     0.441 -46.65   0
       556    220.5604    189.5621 307.8392794  +6.5982927     697.5948     1086.504     1438.176     77.78922     155.6404     311.1878      1.810     4.37     836.8856     54.87374     119.3933         7     1.372     0.396 -35.96   0
       557    103.3235    184.3098 307.8881667  +6.5965316     5073.288     7439.926     8345.102     78.03655     155.9496     311.3426      1.617     4.16     838.8289     54.87374      704.099        27     1.507     0.849 -36.29   0
       558    922.5855    183.3986 307.5477811  +6.6242710     816.7366     1280.235     1736.026     77.66525     155.3925     311.0949      1.770     5.07     828.6984     54.87374     121.2151        10     1.321     0.551 -45.64   0
       559    273.6624    180.8771 307.8175064  +6.6036573     35878.95     53144.27     54818.43     78.28312     155.7641     311.3116      1.600     4.31     835.3524     54.87374     5020.908        53     1.609     0.946 -38.62   0
       560    248.9016    181.9822 307.8277576  +6.6023719     6950.273     10395.49     10683.77     78.03655     155.5784     311.0639      1.544     4.16     836.1007     54.87374     1029.569        28     1.543     0.812 -39.02   0
       561    599.9141    182.5841 307.6818875  +6.6138578     645.6985     757.8666     1492.367     77.66525     155.4545     311.2188      1.478     4.71     828.5728     54.87374     101.1714         8     1.165     0.541 -38.14   0
       562    702.9113    179.9583 307.6391773  +6.6183773      944.915     1143.736     1243.988     78.03655     155.6403     311.3426      1.419     4.92       829.59     54.87374     197.5432         9     1.298     0.528 -34.51   0
       563    397.7213    176.3515 307.7661104  +6.6096772     52217.89     77559.66     80447.29     78.03655     155.7641     311.2807      1.597     4.35     830.0233     54.87374     8014.198        63     1.637     0.947 -39.44   0
       564    153.5488    177.7941 307.8675169  +6.6009062     4239.817     6573.244     6967.666     77.54108     155.5165      310.971      1.646     4.48     837.6734     54.87374     597.9003        26     1.594     0.831 -39.57   0
       565    415.0989    176.7357 307.7588770  +6.6100996      1420.35     2019.753     1818.397     78.03655     155.7641     311.3426      1.507     4.42     829.3538     54.87374     228.4518        12     1.400     0.550 -36.90   0
       566    568.0946    175.7083 307.6953388  +6.6156350      572.995     810.0443     715.5831     78.03655     156.1965     311.3116      1.537     5.06     827.9975     54.87374     89.09479         8     1.469     0.492 -37.30   0
       567    301.7102    174.0968 307.8060795  +6.6073960     19360.16     28833.79     29914.64     78.03655     156.1348     311.3116      1.590     4.37     834.3637     54.87374     2767.352        44     1.644     0.894 -39.76   2
       568    309.2050    173.4544 307.8029868  +6.6079121     2116.138     4003.852     4678.892     77.41672     155.4545      311.002      2.112     6.77     834.0203     54.87374     317.0039        28     2.204     0.956 -62.66   2
       569    737.0178    172.4621 307.6252550  +6.6226094     34338.34     50618.01     52610.89     77.66525     155.6404     311.1568      1.543     4.33     829.4659     54.87374     5052.684        58     1.619     0.938 -42.02   0
       570    785.1865    173.0719 307.6052190  +6.6239623     1213.131     1779.648      2033.38     77.54108     155.5165     311.1878      1.578     4.94     829.1709     54.87374     193.8923        12     1.394     0.582 -41.81   0
       571     24.6773    172.9449 307.9212248  +6.5985854     678.4307     961.8342     1110.235     78.15993     155.7022     311.3116      1.712     4.19     842.3714     54.87374     127.8178         7     1.118     0.448 -36.43   0
       572     53.7590    169.9289 307.9092429  +6.6008068     9541.338     14089.17     14321.45     77.91298     155.7022     311.3735      1.561     4.17     840.9005     54.87374     1309.302        32     1.550     0.863 -38.58   0
       573     87.7623    167.7789 307.8951869  +6.6028355     1496.322     2264.407     2469.842     77.66525     155.4545     311.0639      1.539     4.38     839.0132     54.87374     229.9168        14     1.369     0.639 -41.47   0
       574    995.5472    166.9890 307.5180085  +6.6334728      1037.41     1543.757     2027.924     77.41672     155.6404     311.0639      1.550     4.73     827.5917     54.87374     162.1324        12     1.180     0.767 -45.80   0
       575    963.4962    166.0279 307.5313590  +6.6328043      566.314     690.5199      293.046     78.15993     155.4545     311.2497      1.280     3.69     827.9397     54.87374     82.84479         6     1.158     0.338 -39.78   0
       576    685.1245    174.0405 307.6467655  +6.6202280     851.8535     1236.349     1360.169     77.91298     155.7022     311.3426      1.526     4.91     829.4516     54.87374      153.764        10     1.376     0.495 -45.09   0
       577    571.0341    157.0717 307.6947397  +6.6234287     927.2245     1204.449     1150.698     77.91298     155.6403     311.3116      1.305     3.49     827.4355     54.87374     164.5534         7     0.905     0.491 -38.80   0
       578    996.2681    152.9210 307.5181767  +6.6393059     2259.371     3575.561     4466.406     78.15993      155.826     311.3116      1.676     4.34      827.051     54.87374     316.4775        19     1.421     0.863 -39.81   0
       579    579.4676    150.6305 307.6914504  +6.6263700     1049.762     1477.753      1735.62     77.78922     155.7022     311.2807      1.482     4.33      827.411     54.87374     179.7195        11     1.352     0.624 -36.42   0
       580    272.4840    147.1927 307.8191242  +6.6175268     32187.31     48110.37     50713.88     77.66525     155.3925     311.1568      1.610     4.35     835.7792     54.87374     4599.195        58     1.805     0.956 -34.84   0
       581    587.7946    148.7722 307.6880524  +6.6274152     2140.549     2993.434     2704.852     77.54108     155.5165     311.1259      1.456     3.95     827.4617     54.87374     318.5992        16     1.423     0.647 -44.80   0
       582    331.9398    148.8733 307.7943631  +6.6188231     1078.555     1523.468     1252.879     78.15993     155.7022     311.3426      1.555     5.34     833.1832     54.87374     151.2571        14     1.507     0.667 -33.37   0
       583     17.7934    145.6720 307.9250007  +6.6096155     4569.862      6792.43     6652.388     77.66525     155.2684     311.2188      1.557     4.72     842.6355     54.87374     594.5984        22     1.504     0.739 -35.89   0
       584    704.1951    143.6327 307.6398552  +6.6334200     8368.595     12231.82     12501.74     77.41672     155.5784     311.1259      1.538     4.27     828.2687     54.87374     1403.688        30     1.529     0.795 -39.15   0
       585    181.8995    144.6297 307.8568490  +6.6155506     912.0058      1699.86     1865.679     78.03655     155.4545     311.3735      2.146     5.85     836.9212     54.87374     129.1017        12     1.367     0.706 -48.42   0
       586    258.1870    141.9615 307.8252401  +6.6192081     858.5323     1136.512     938.9763     77.66525     155.5165      311.033      1.394     4.97     836.0829     54.87374     119.9121        11     1.238     0.672 -33.46   0
       587    114.8931    140.8701 307.8848168  +6.6148565     5149.313       7960.5     8108.482     78.03655      155.826     311.3116      1.548     4.16     837.7452     54.87374     742.6013        26     1.527     0.846 -36.92   0
       588    577.0844    138.8013 307.6928357  +6.6311750       758.54     929.5225     1280.503     77.29215     155.2684      311.033      1.531     4.13     827.1375     54.87374     136.0189         7     1.128     0.432 -31.99   0
       589    453.9068    138.0692 307.7440444  +6.6273632     1473.393     2224.732      2362.88     77.91298      155.826     311.3116      1.520     4.39     828.1717     54.87374     213.1395        15     1.429     0.680 -42.06   0
       590    385.5757    136.8942 307.7724771  +6.6255638     4006.553     6928.074     7436.122     78.15993     155.4545     311.1878      1.869     4.55     830.6503     54.87374     518.2424        30     1.647     1.039 -48.13   0
       591    642.8604    137.7218 307.6655394  +6.6338156     844.1694     1353.616     1469.897     78.15993     155.7641     311.2807      1.684     4.37     827.7161     54.87374     151.1134         8     1.245     0.436 -42.62   0
       592    350.1514    135.7760 307.7872342  +6.6248405     3393.763     5063.263     5088.419     77.66525     155.7022     311.2188      1.619     4.41     832.7365     54.87374     516.6296        21     1.500     0.810 -43.53   0
       593    104.2439    135.7868 307.8894121  +6.6165982     1776.525     2456.763      2666.63     77.54108     155.5165     311.0639      1.598     4.72      837.868     54.87374     238.8344        14     1.335     0.662 -41.21   0
       594    562.2529    135.4283 307.6991113  +6.6320727     701.0331     1113.668      1469.42     77.78922      155.826     311.2188      1.723     3.99     826.9682     54.87374     112.5428         7     1.166     0.452 -41.81   0
       595    934.2100    134.0163 307.5445938  +6.6450493      409.615     483.4356    -68.82649     77.78922     155.4545     311.1878      1.691     3.78     827.0649     54.87374     71.98676         5     1.244     0.330 -25.48   0
       596    740.6896    133.6215 307.6250240  +6.6387702     593.3835     804.7759     950.5179     78.03656     155.5165     311.1878      1.598     4.72     827.5502     54.87374     104.7344         7     1.280     0.493 -47.79   0
       597    666.2889    133.1661 307.6559559  +6.6364781     823.3588     1388.354     1457.183     78.15993     155.6404     311.3116      1.742     5.83     827.7339     54.87374     134.3326        11     1.628     0.588 -40.29   0
       598    996.8538    129.9487 307.5186972  +6.6488114     1446.971     2009.653     1950.627     78.15993     155.6404     311.3426      1.467     4.56     826.0327     54.87374     211.0273        12     1.195     0.662 -50.98   0
       599    201.8678    124.6746 307.8492209  +6.6244595     5848.724     8780.237     8730.056     78.15993      155.826     311.3116      1.580     4.18     836.6056     54.87374     817.8871        29     1.560     0.864 -42.57   0
       600     84.6787    124.6242 307.8979162  +6.6205511     2072.032     3349.895     3625.415     77.66525     155.5165     311.3116      1.755     5.13      838.451     54.87374     289.1879        19     1.479     0.839 -36.76   0
       601    663.7811    123.4144 307.6573233  +6.6404213     6521.644      9338.26     8985.606     77.78922     155.4545     311.2188      1.546     4.62     827.2354     54.87374     1053.583        25     1.488     0.762 -40.54   0
       602    840.6842    124.2840 307.5837826  +6.6459563     535.3923     837.2772     1382.956     77.78922      155.826     311.4045      1.339     4.72     826.8724     54.87374     99.95172         6     1.251     0.505 -31.12   0
       603    811.8882    123.2653 307.5957827  +6.6454182     1199.022     1703.813     1603.622     78.03655     155.8878     311.3116      1.466     5.18     826.9449     54.87374     180.6868        11     1.251     0.607 -42.54   0
       604    615.9237    120.6910 307.6773011  +6.6399494      9858.84     14714.27     15665.84     77.91298     155.9496     311.3116      1.585     4.46     826.8358     54.87374     1429.393        34     1.604     0.830 -40.80   3
       605    619.4682    112.1835 307.6761122  +6.6435806     56350.44     82351.89     85251.39     77.54108     155.6404     311.2188      1.572     4.50     826.5425     54.87374     8164.833        56     1.582     0.925 -40.81   2
       606    250.9568    121.1319 307.8289421  +6.6275669     834.1714     1187.239     988.9343     78.03655     155.6403     311.3735      1.465     4.46     836.2481     54.87374     131.9662         7     1.158     0.489 -38.37   0
       607    554.1566    119.9764 307.7029918  +6.6381829      702.249     966.5165     1052.497     77.54108     155.5784     311.1259      1.500     4.57     826.7252     54.87374     99.38464         7     1.286     0.461 -42.00   0
       608     15.0854    119.7037 307.9269979  +6.6202472     836.5367     1527.077     1817.536     78.03655     156.0731     311.3735      1.792     5.91     841.7575     54.87374      140.348        12     1.571     0.627 -38.64   0
       609    343.1449    116.3633 307.7907953  +6.6326220     3842.024     6193.554      6967.25     77.91298     155.7022     311.3426      1.773     5.01     833.7576     54.87374     554.5292        30     1.861     0.825 -45.33   0
       610    989.3944    115.1840 307.5222880  +6.6546604     668.8919     1060.612     1134.989     77.66525     155.3925     311.1568      1.685     4.80     825.4921     54.87374     110.6259         8     1.220     0.536 -53.88   0
       611    524.9950    115.6562 307.7152539  +6.6389931     1852.044     2576.963     2351.847     77.41672     155.5784      311.033      1.509     4.64     826.8686     54.87374     263.0839        16     1.392     0.713 -31.72   0
       612    298.5376    106.0546 307.8096761  +6.6353857     3777.628     5916.584     6556.062     78.15993     155.6404     311.2807      1.673     4.34     835.6833     54.87374     529.6691        24     1.569     0.772 -40.30   0
       613    493.6470    103.3761 307.7286907  +6.6430167     634.4706     929.2141     791.3023     77.66525     155.7022     311.1878      1.692     5.12     826.9568     54.87374     110.3691         6     1.162     0.639 -46.57   0
       614    698.4109    100.1542 307.6437089  +6.6511807     950.8878     1302.665     812.9434     77.54108     155.5784      311.002      1.451     4.31     825.8765     54.87374     194.4207        10     1.275     0.643 -36.36   0
       615    669.7606     99.4791 307.6556372  +6.6505042     1387.016     1903.944     1772.085     77.91298     155.7641     311.3116      1.488     4.75     826.0858     54.87374     232.6233        13     1.312     0.617 -41.35   0
       616      2.6419     88.3472 307.9332214  +6.6327767     8761.951     21386.12     32578.01     78.03656     141.5019     254.6142      3.584     8.07     840.9196     54.87374     1772.448       149     4.299     1.874 -86.99  24
       617    683.8780     96.0643 307.6498845  +6.6523850     3404.979     5135.823     4906.017     78.28312     155.7641     311.3116      1.542     4.38     825.8401     54.87374     520.5709        20     1.431     0.744 -41.71   0
       618    252.8593     96.2590 307.8289849  +6.6379010     350.6998      548.402     893.4208     78.03655     155.7022     311.3426      1.847     4.75     836.2843     54.87374     76.74939         5     1.502     0.427 -24.79   0
       619     56.3412     94.4482 307.9107036  +6.6320603     587.5256     850.1478     620.8862     78.03656     155.7022     311.4045      1.711     4.14     839.0449     54.87374     104.5377         5     0.987     0.496 -43.99   0
       620     65.6313     89.5342 307.9070083  +6.6344010     418.6415     500.6921     667.6959     77.78922     155.7641     311.2497      1.717     3.53     838.4935     54.87374     79.03705         5     1.092     0.329 -70.19   0
       621    425.5824     87.2169 307.7575147  +6.6474144     4386.091     6196.483     5562.336     77.78922     155.3925     311.2497      1.530     4.61     828.4551     54.87374     649.1264        21     1.419     0.754 -41.38   0
       622    898.1179     82.5243 307.5613059  +6.6651115     3944.238     5925.021     6091.544     78.28312     155.9496     311.3735      1.563     4.32     825.5083     54.87374     578.8794        21     1.456     0.764 -40.69   0
       623    578.0814     83.0302 307.6942838  +6.6542376     747.6753     1118.917     1098.264     77.91298     155.5165     311.3116      1.567     3.99     825.8822     54.87374     137.6932         7     0.922     0.494 -38.27   0
       624    590.3615     81.0332 307.6892474  +6.6554721     1801.437      2694.42     2457.671     77.78921     155.5165     311.0949      1.458     4.07     825.7401     54.87374      300.641        13     1.324     0.613 -46.09   0
       625    610.4919     80.8322 307.6808888  +6.6562269     661.2717     716.2278     623.5334     78.15993     155.5165     311.3426      1.358     4.57     825.5979     54.87374     106.5464         8     1.354     0.438 -40.58   0
       626    236.3101     80.4246 307.8363922  +6.6438850     920.2861     1318.183     1501.844     78.15993     155.5165     311.1568      1.802     5.27     836.3425     54.87374     118.8047        11     1.183     0.700 -39.38   0
       627    388.8319     79.1784 307.7730550  +6.6495048     2095.017     2926.013     2607.159     77.54108     155.5165     311.1259      1.416     4.21     831.1806     54.87374     324.9569        17     1.464     0.668 -36.83   0
       628    136.9009     75.9681 307.8778493  +6.6423934     3382.821     4890.141     5009.468     78.03655     155.5784     311.4354      1.529     3.85     836.2397     54.87374     508.6971        21     1.459     0.768 -40.43   0
       629     18.7479     73.9356 307.9270131  +6.6392682      12926.4     19750.92     21356.18     78.03655     155.6404     311.2807      1.628     4.18     839.6914     54.87374     1769.976        42     1.601     1.008 -35.72   0
       630    285.0594     74.4382 307.8163356  +6.6479895     1379.891     2022.967      2867.49     78.03655     155.7641     311.3426      1.620     5.27     836.2518     54.87374     230.2282        12     1.415     0.622 -32.71   0
       631    558.0239     73.7143 307.7029299  +6.6574148     654.3145     825.0164     522.1751     78.03655     155.4545     311.1878      1.301     4.07     825.7969     54.87374     135.7769         7     1.142     0.415 -53.56   0
       632    545.8284     73.3981 307.7080084  +6.6571382      826.451     925.3625      492.567     77.54108     155.4545     311.1259      1.415     4.90     825.8622     54.87374     122.7208        11     1.210     0.692 -37.24   0
       633    753.8809     72.9054 307.6215664  +6.6642812     743.5086     1135.444     1406.543     77.78922     155.9496     311.4045      1.548     4.00     825.0623     54.87374     147.5741         6     0.980     0.467 -33.12   0
       634    887.8870     69.0647 307.5660056  +6.6703290     626.6642     934.9426     590.8387     78.03655     155.8878     311.3116      1.419     4.45     825.3965     54.87374     110.3943         7     1.124     0.501 -52.12   0
       635    820.5458     68.2469 307.5940179  +6.6684253     6415.864     9434.905     9900.918     78.03655     155.7022     311.3426      1.582     4.62     825.3965     54.87374     1006.057        28     1.553     0.807 -42.12   0
       636    765.6113     68.6356 307.6168340  +6.6664352     3447.348     4982.422     5177.579     77.54108     155.5165     311.0949      1.550     4.21     825.1028     54.87374      601.283        20     1.517     0.720 -42.28   0
       637    410.9101     69.3151 307.7642105  +6.6543158      1131.29     1659.027     1025.825     77.78922     156.0114     311.4354      1.479     5.64     829.4859     54.87374     171.9254        13     1.464     0.613 -38.93   0
       638    880.1682     83.1494 307.5687444  +6.6642561     2183.578      3190.66     3332.279     77.91298     155.7641     311.2497      1.520     5.62     825.5083     54.87374     309.3626        20     1.583     0.743 -46.28   0
       639    528.1032     66.8235 307.7155939  +6.6592611     1172.101     1712.673     1637.147     78.15993     155.4545     311.1259      1.605     4.96     825.9099     54.87374     170.6754        13     1.424     0.644 -35.60   0
       640     59.0069     65.8447 307.9105561  +6.6439603       3371.6     5095.591     5129.568     77.54108     155.5165      311.002      1.521     4.21     837.8686     54.87374     524.1484        24     1.586     0.806 -35.76   0
       641     43.5023     66.6214 307.9169726  +6.6431193      996.516     1274.156     1066.676     77.91299     155.5165     311.0949      1.452     5.13     838.4645     54.87374     150.3163        11     1.264     0.598 -41.30   0
       642    647.7110     66.0174 307.6659166  +6.6635861     631.9755     1010.583      977.494     77.78921     155.4545     311.2188      1.457     3.93     825.1806     54.87374     128.1529         6     0.938     0.472 -49.77   0
       643    419.9030     65.4347 307.7606033  +6.6562189     1017.808     1547.461     1857.232     78.03655     155.5784     311.4664      1.531     3.58     828.9304     54.87374     176.4642         9     1.048     0.649 -44.28   0
       644    582.9089     62.2197 307.6929727  +6.6629919     1357.744     2145.752     1437.908     77.91298     155.4545     311.1568      1.492     4.57     825.2901     54.87374     224.9805        13     1.478     0.590 -37.50   0
       645      2.0026     60.9658 307.9344067  +6.6440613     2536.643     3236.615     3347.687     74.49906     133.1522     244.7738      1.324     4.06      839.761     54.87374     420.3216        14     1.157     0.729 -48.17  24
       646    400.6082     56.6790 307.7689142  +6.6591891     1161.045     1522.476     1145.664     77.66525     155.2064     311.1568      1.413     5.01      830.453     54.87374     190.5042        10     1.326     0.536 -47.96   0
       647     73.4926     57.2722 307.9048246  +6.6479861     877.0745     1217.243     701.1226     77.91298      155.826     311.3735      1.642     5.53      837.025     54.87374     164.7897        10     1.372     0.629 -40.76   0
       648    760.0643     56.0554 307.6195585  +6.6714451     2086.354     3238.999     3496.788     78.15993     155.6403     311.3116      1.627     4.45      824.821     54.87374     294.2264        16     1.413     0.748 -35.89   0
       649    651.1707     56.0244 307.6648123  +6.6678278     616.9104     917.9209     996.7305     77.54108     155.5784     311.1568      1.519     4.59      824.915     54.87374     99.60986         7     1.124     0.534 -31.10   0
       650     97.8976     55.2175 307.8947525  +6.6496533     1005.141     1437.673     1709.242     77.91298     155.5165     311.0949      1.587     5.96     836.0867     54.87374     161.6798        12     1.449     0.691 -26.82   0
       651     86.7614     50.0166 307.8995545  +6.6514272     9498.196     14540.52     15078.96     77.66525     155.5784     311.0949      1.593     4.23     836.2797     54.87374     1368.593        36     1.576     0.919 -38.12   0
       652    415.8560     49.7716 307.7628089  +6.6625511     2804.382     3837.153     3569.805     77.66525     155.7641     311.2188      1.480     4.30     829.3557     54.87374     408.9323        19     1.472     0.716 -37.19   0
       653    629.5972     41.9106 307.6742486  +6.6729361     19300.66     28721.72     29912.05     77.41672     155.3925      311.033      1.592     4.33     824.5466     54.87374     2889.518        44     1.573     0.924 -41.79   0
       654    253.6404     43.8982 307.8304146  +6.6595478     1368.429     1993.454     2788.006     78.03655     155.5784     311.5282      1.685     5.14     836.3517     54.87374     189.2928        12     1.290     0.580 -32.84   0
       655    659.1172     43.1487 307.6619397  +6.6734096     648.7157     873.7152      1103.48     78.03655     155.7022     311.3735      1.402     4.52     824.5701     54.87374     108.5712         8     0.878     0.662 -54.67   0
       656    247.6780     38.3269 307.8330790  +6.6616485     1942.822     2997.056     3713.142     78.28312     155.9496     311.3426      1.642     4.52     836.3612     54.87374     296.6017        15     1.481     0.628 -43.52   0
       657    529.4219     37.8992 307.7160123  +6.6712486     5729.251     8327.945     8710.169     78.03655     155.4545     311.0949      1.564     4.34     825.2158     54.87374     852.7828        24     1.516     0.768 -40.29   0
       658    616.9602     35.7556 307.6797057  +6.6750560      899.462     1418.875     1942.473     77.78921     155.7022     311.2188      1.496     4.56      824.387     54.87374       155.31         8     1.380     0.429 -40.20   2
       659    615.7006     31.7154 307.6803640  +6.6766823     3305.679     5106.154     5928.585     78.03655     156.1965     311.4045      1.679     4.30     824.2796     54.87374     562.4158        21     1.491     0.753 -46.01   2
       660    434.9071     33.6302 307.7554320  +6.6698532      23707.7      35074.6     36302.91     78.15993     155.4545     311.2497      1.566     4.42     828.4934     54.87374     3381.829        43     1.586     0.886 -40.77   0
       661    315.2231     34.4143 307.8051415  +6.6655258     1005.952     1467.496     1601.912     77.78922     155.5165     311.2188      1.666     4.98     835.5702     54.87374     175.8437        12     1.519     0.592 -48.67   0
       662    255.4899     34.0549 307.8299759  +6.6636741     9812.864     14701.33     16197.42     77.91298     155.5165     311.4354      1.611     4.21     836.3652     54.87374     1444.807        37     1.601     0.923 -40.38   0
       663     20.8126     33.7978 307.9275030  +6.6559107     2226.122     3151.807     3220.648     77.66525     155.3925     311.0949      1.523     4.25     837.9294     54.87374      353.496        20     1.432     0.828 -38.27   0
       664    912.7363     33.5305 307.5568616  +6.6858289      2045.94      2733.54     2092.344     78.03655     155.7022     311.3735      1.503     5.37     825.1171     54.87374      277.484        14     1.263     0.716 -42.69   0
       665    548.2418     33.2650 307.7083462  +6.6737907     565.2119     859.0167     780.8867     78.03655     155.6404     311.4045      1.552     4.07     824.8162     54.87374     99.31281         7     1.338     0.354 -44.86   0
       666    519.8787     33.9108 307.7201114  +6.6725768      613.709     1077.658     1133.525     77.78922     155.9496     311.4354      1.794     4.55     825.2648     54.87374     89.93982         8     1.342     0.438 -30.76   0
       667    243.4906     30.6115 307.8350776  +6.6646941      3210.66     4532.296     4697.304     77.78922     155.3925     311.1259      1.592     4.46     836.3683     54.87374     485.9187        19     1.474     0.704 -40.05   0
       668    296.5480     28.6657 307.8130945  +6.6672743     1043.563     1617.297     2098.035     78.03656     155.6404     311.2497      1.695     5.72     836.1357     54.87374     138.3898        13     1.259     0.732 -36.35   0
       669    933.5994     23.5703 307.5485227  +6.6906357     1036.792     1488.293     1087.226     77.41672     155.5165     311.1259      1.646     5.27     824.6812     54.87374     145.6031        11     1.302     0.602 -39.56   0
       670    684.8202     23.1315 307.6519261  +6.6825324     1919.801     2609.983     2869.633     77.66525     155.5784     311.1878      1.456     4.15     824.0555     54.87374     290.3956        16     1.324     0.704 -38.06   0
       671     89.4034     24.2073 307.8993228  +6.6621728     581.0192     847.3757     224.5302     77.41672     155.3925     311.1568      1.365     3.44     835.3213     54.87374     83.97595         5     1.200     0.286 -35.46   0
       672    250.1063     18.3058 307.8327407  +6.6699969     817.6932     1080.278     832.9252     78.03655     156.1965     311.2807      1.471     5.47     836.3841     54.87374     127.5103        10     1.313     0.684 -35.77   0
       673    195.9214     18.8641 307.8552388  +6.6679509     723.3677     998.0566     1045.993     78.28312     155.7641     311.3116      1.698     5.45     835.8313     54.87374     120.6792         9     1.345     0.624 -41.83   0
       674    743.8725   1018.3488 307.5942287  +6.2735405     1262.624     2014.183     2325.647     78.03655     155.7022     301.1164      1.722     6.05      856.092     54.87374     144.2667        14     1.348     0.764 -47.14  16
       675    951.3143   1012.3236 307.5082881  +6.2829299     5385.249     10560.79     11091.94     78.03655     156.0114     311.3735      2.042     4.67      850.668     54.87374     651.5605        44     1.740     1.346 -43.75   0
       676    710.0016   1010.9139 307.6085412  +6.2754824     2153.762     4459.768      5394.64     77.29215     155.2684      311.033      2.368     8.93     856.2382     54.87374      315.797        37     2.688     0.979 -28.41  16
       677    235.6160   1012.5298 307.8054700  +6.2589746     1189.951     1793.865      1868.31     77.54108     155.6404     311.2188      1.690     4.95     857.6913     54.87374      182.751        15     1.412     0.778 -30.77   0
       678    434.4596   1011.2556 307.7229467  +6.2661495     838.9028     1204.003     1558.621     78.15993     155.7022     311.3426      1.852     5.84     857.0691     54.87374     106.4315        11     1.173     0.818 -34.92   0
       679     74.0791     12.6007 307.9060803  +6.6664511     529.0169     754.7498     870.5617     77.29215     155.0822     311.0639      1.763     4.53     835.4086     54.87374     90.76221         7     1.277     0.456   8.58   0
       680    726.8101   1009.6844 307.6016023  +6.2765500     813.8035     1174.748     791.2616     77.66525     155.3925     311.1568      1.460     4.74     856.2158     54.87374     127.2795         9     1.102     0.665  -1.35   0
       681    357.6159   1007.9806 307.7549643  +6.2649339     1691.877     2630.023     2159.531     77.78921     155.4545     311.2188      1.572     4.90     858.2722     54.87374     226.0454        19     1.457     0.831 -32.85   0
       682    205.9492   1005.7250 307.8180162  +6.2607915     365.4972      331.473    -5.023279     78.03655     155.7641     311.3116      1.316     3.38     856.1989     54.87374     93.64514         5     1.004     0.329 -42.76   0
       683    510.1126    999.5759 307.6919224  +6.2734986     936.4005     1528.578      1389.83     78.03655     155.5165     311.1878      1.665     5.64     857.0089     54.87374      142.552        11     1.575     0.569 -41.40   0
       684    744.6432    997.4836 307.5946033  +6.2821821     7094.328     12067.51     11848.21     78.03656     155.7022     311.2497      1.832     4.34     855.4042     54.87374     803.7278        37     1.666     1.103 -39.42   0
       685    539.9652    998.1496 307.6795739  +6.2750839     4172.581     7091.448     7586.693     77.91298     155.7022     311.2188      1.771     4.18     856.8668     54.87374     524.5399        33     1.645     1.011 -46.61   0
       686    290.2988    996.8256 307.7832895  +6.2672890     14328.88     23549.79     25416.34     78.15993     155.4545     311.2497      1.779     4.35     856.8911     54.87374     1894.211        50     1.939     1.023 -37.11   0
