#   1 NUMBER                 Running object number                                     
#   2 X_IMAGE                Object position along x                                    [pixel]
#   3 Y_IMAGE                Object position along y                                    [pixel]
#   4 ALPHA_J2000            Right ascension of barycenter (J2000)                      [deg]
#   5 DELTA_J2000            Declination of barycenter (J2000)                          [deg]
#   6 FLUX_APER              Flux vector within fixed circular aperture(s)              [count]
#   9 FLUXERR_APER           RMS error vector for aperture flux(es)                     [count]
#  12 FLUX_RADIUS            Fraction-of-light radii                                    [pixel]
#  13 FWHM_IMAGE             FWHM assuming a gaussian core                              [pixel]
#  14 BACKGROUND             Background at centroid position                            [count]
#  15 THRESHOLD              Detection threshold above background                       [count]
#  16 FLUX_MAX               Peak flux above background                                 [count]
#  17 ISOAREA_IMAGE          Isophotal area above Analysis threshold                    [pixel**2]
#  18 A_IMAGE                Profile RMS along major axis                               [pixel]
#  19 B_IMAGE                Profile RMS along minor axis                               [pixel]
#  20 THETA_IMAGE            Position angle (CCW/x)                                     [deg]
#  21 FLAGS                  Extraction flags                                          
         1      6.6388     77.4166 307.9362453  +6.6320334     708644.3      1832892      2134647     84.17905     168.6268     326.1629      2.568    11.81     1017.291     59.47601     61943.59       397     2.648     1.664 -27.88  28
         2    266.1488     22.4178 307.8303360  +6.6634496     6265.171     13580.02     15573.78     84.04446     168.8281     337.1529      2.275     7.04     1006.252     59.47601     800.3857        46     2.370     1.049 -24.99   2
         3    445.4950     21.9953 307.7558725  +6.6696263     15477.67     32907.86     36370.47     84.31341     168.4253     337.1865      2.244     6.90     988.5752     59.47601     1943.615        60     2.253     1.139 -26.66   0
         4     31.5879     21.9991 307.9277536  +6.6557557     1514.754     3240.802     2867.508     84.17904     168.4253     337.2201      2.044     7.78     1012.586     59.47601     246.0906        26     2.212     0.816 -30.92   0
         5    696.9322     11.0574 307.6518203  +6.6825394      1280.25     2341.909     2460.413     84.71522     168.6939     337.3878      2.214     4.23     979.9135     59.47601     192.6624        11     1.157     0.655 -23.33   2
         6    944.2181     11.9122 307.5490931  +6.6904225     782.6042     1426.644     2051.006     84.31341     168.4925     337.2872      2.256     6.05     972.2686     59.47601     124.0751        11     1.465     0.703 -26.37   0
         7    183.5982      4.4943 307.8652196  +6.6680847     7036.279     15444.66     16903.08     84.04446     168.4253     302.1662      2.227     6.92     1007.108     59.47601     879.2273        47     2.182     1.094 -26.46  24
         8    527.7903      2.8061 307.7223405  +6.6803012     1857.793     4063.156     4517.421     84.04446     154.9849     278.2969      2.164     8.11     983.9601     59.47601     264.6307        27     2.172     0.846 -21.27  24
         9    927.5919      2.6890 307.5563063  +6.6936783     2458.893      3182.53     3582.426     84.04446      153.591     276.2556      1.381     3.27     973.5139     59.47601     447.0547        13     1.202     0.641 -40.88  19
        10    930.6891      1.6245 307.5550555  +6.6942210     2648.483      3465.52     3967.484     77.74768     138.7207     259.1735      1.275     3.30     973.2446     59.47601     482.2317        12     1.138     0.680 -43.15  27
        11    465.3487      1.7646 307.7483068  +6.6786445     999.9891     1748.127     1512.725     78.90385     140.8263     261.3482      1.843     6.66     987.3439     59.47601     189.2452        16     1.986     0.627 -15.20  24
        12    729.3184      1.4286 307.6386927  +6.6875956     1021.008     1556.194     1935.115     74.93033     135.5844     255.7441      1.740     5.15     977.9454     59.47601     172.2209        11     1.562     0.481  -4.55  24
        13    714.6620   1001.7245 307.6113139  +6.2740091     782.6633     1291.585     1731.511     84.84874      168.761     337.4214      1.533     5.89     1022.543     59.47601      170.072        10     1.606     0.609 -20.30   3
        14    587.2988   1015.3113 307.6637104  +6.2641518     48254.21     67528.93     72376.35      84.5815     169.2299     337.4214      1.450     2.55     1026.779     59.47601     8394.478        38     1.371     0.875 -52.32  19
        15    590.4890   1013.9989 307.6624306  +6.2648002     52183.23     67651.01     71427.11     83.77466     168.2908     337.1865      1.372     3.24     1026.767     59.47601     8561.717        41     1.355     0.913 -54.82   3
        16    585.3228   1022.3721 307.6642941  +6.2611699      96008.8     122411.8     124218.7     84.44756     153.0742     275.8046      1.266     2.59         1027     59.47601     17328.86        29     1.172     0.779 -52.17  19
        17    588.3932   1021.2941 307.6630561  +6.2617176     115448.9     150515.2     153977.9     84.17905     163.9295     291.6436      1.390     3.10     1026.996     59.47601      19255.9        42     1.309     0.900 -38.81  19
        18    405.4219   1023.8526 307.7388943  +6.2545516     358.2099     438.4016     479.0523      70.0909     130.8256     250.4215      1.421     4.04     1030.732     59.47601     88.05701         6     1.479     0.315  -6.43  24
        19    222.1776   1023.4839 307.8149418  +6.2485745     2051.552     2879.333     3112.682     75.83133     136.6655     257.0244      1.404     4.87     1032.002     59.47601     416.0374        15     1.505     0.628  -9.82  24
        20    719.2814    999.3859 307.6094751  +6.2751288     1940.789     2785.797      3531.85     84.17905     168.4925     337.2201      1.532     3.97     1022.326     59.47601     347.0699        14     1.285     0.742 -66.61   3
        21    722.5306    998.4452 307.6081582  +6.2756255     2262.932     3262.146     3676.287      84.5815     168.6939     337.4214      1.505     3.46     1022.184     59.47601     356.2886        15     1.175     0.875  -1.96   3
        22    245.6413   1000.8253 307.8059670  +6.2587172     1082.303     2085.806     2055.464     84.17904     168.6268     337.1865      1.961     7.44     1031.475     59.47601     173.0719        21     1.887     0.821 -25.57   0
        23    736.9346    997.9749 307.6021967  +6.2762996     780.3221     1376.175     1762.461     84.17904      168.761     337.2872      1.916     5.74     1021.827     59.47601     132.3212        13     1.788     0.520 -19.87   0
        24    367.8698    996.1829 307.7554045  +6.2647232      1430.83     2767.463     2571.092     84.04446     168.6268     337.3207      1.982     7.15       1029.5     59.47601     228.1758        21     2.067     0.714 -23.99   0
        25    979.8136    993.4928 307.5015572  +6.2862318     518.2562     615.5462     393.7919     84.31341     168.4925     337.2201      1.410     3.71      1014.31     59.47601     89.24719         5     1.049     0.377 -84.31   0
        26    753.0408    986.4642 307.5958978  +6.2815897     5405.025     7478.549     7945.808      84.5815     168.6939      337.522      1.405     4.51     1020.725     59.47601     882.8101        23     1.473     0.788 -44.11   3
        27    756.3365    985.2868 307.5945695  +6.2821858     4601.333     5936.077     6528.121      84.5815     168.8951      337.455      1.201     2.79     1020.576     59.47601     892.7859        16     1.147     0.794 -49.92   3
        28    548.3644    987.2736 307.6808053  +6.2744315     2782.721     3545.045     4334.599     84.44756      168.761     337.3878      1.350     2.59     1025.899     59.47601     449.8868        12     0.932     0.768 -59.59   3
        29    551.6665    985.7290 307.6794868  +6.2751796     2827.948     4056.683       4710.5      84.5815     168.8281     337.4214      1.610     3.77     1025.869     59.47601     458.4261        17     1.165     0.862 -37.69   3
        30    518.3720    988.2904 307.6932170  +6.2730105     785.8256     1130.641     1110.714     84.71523     168.4925     337.2872      1.287     4.10     1026.178     59.47601     144.0243         6     1.045     0.459 -46.51   3
        31    522.0095    986.9905 307.6917512  +6.2736687     921.8109      1124.36     1506.021     84.17905     168.5597     337.2872      1.456     4.91     1026.118     59.47601     180.6919         9     1.130     0.604 -33.05   3
        32    300.5000    984.9999 307.7837349  +6.2670883     11277.48     22459.36     25206.04     84.04446     168.3581      336.985      2.157     8.28     1030.807     59.47601      1706.96        48     2.336     0.920 -29.22   0
        33    426.0782    985.4672 307.7316099  +6.2710939     679.5602     1277.867     1356.049     84.71522     168.8281     337.3878      2.084     3.82     1028.561     59.47601     126.8516         6     1.250     0.335 -39.84   2
        34    816.1562    985.1215 307.5697512  +6.2842458     837.9238     1700.388     1468.334     84.44756      168.761      337.455      1.979     5.92     1018.517     59.47601     136.1921         9     1.599     0.616 -13.37   0
        35    271.9247    982.8222 307.7956653  +6.2670315      711.447     1293.403     1143.495     84.17904     168.6268     337.3543      1.854     5.43     1031.035     59.47601     132.5879         9     1.459     0.570 -18.49   0
        36    916.0714    979.2619 307.5284838  +6.2899899      6447.42     13386.63     14893.99     84.71522      168.761     337.4885      2.129     8.32     1015.556     59.47601     1093.309        41     2.114     0.914 -25.84   0
        37    545.3782    979.3024 307.6823114  +6.2776237     5177.402      6650.05     8171.596     84.44756     168.5597     337.2201      1.280     3.05      1025.75     59.47601     950.3323        17     1.071     0.812 -32.28   3
        38    548.7001    977.7382 307.6809853  +6.2783806     5970.999     7658.115     9016.635     84.31341      168.761      337.522      1.373     3.16     1025.709     59.47601     1096.008        19     1.065     0.908 -28.16   3
        39    887.4036    976.2806 307.5404800  +6.2902677     7668.098     9868.608     10888.06     84.04446     168.2908     337.1193      1.301     4.04     1016.222     59.47601      1433.09        17     1.155     0.733 -32.49   3
        40    891.0076    974.7807 307.5390344  +6.2910070     8753.917     12142.49     13149.64     84.17904     168.4925     337.2201      1.431     2.94     1016.091     59.47601     1478.004        28     1.201     1.048 -26.33   3
        41    600.5796    976.7095 307.6594913  +6.2805364     903.9019     1160.649     560.7374     84.44756     168.4925     337.2872      1.232     3.26     1025.391     59.47601     184.2341         7     0.937     0.504 -33.29   3
        42    603.9839    975.0161 307.6581353  +6.2813493     909.0189     1088.943     561.4105     84.31341     168.4253     337.3543      1.292     3.34     1025.292     59.47601     182.6608         8     0.960     0.689 -61.58   2
        43   1011.4250    974.9152 307.4890582  +6.2949544     3678.987     7776.152     8371.359      84.5815     168.4925     337.2536      2.151     7.16     1012.443     59.47601     541.3699        34     2.092     0.928 -20.73  16
        44    533.9690    974.4814 307.6872073  +6.2792339       3099.4     6299.437     7136.497     84.44756     168.6268     337.3878      2.212     8.09     1025.735     59.47601      516.704        30     1.928     0.950 -25.08   0
        45    641.5437    974.4608 307.6425676  +6.2828313     915.7087     1135.333     1566.907     84.71523      168.761      337.455      1.254     3.84     1023.956     59.47601     168.8284         9     1.055     0.618 -46.13   3
        46    645.0219    973.1869 307.6411669  +6.2834733     925.3635     1160.626     1416.626     84.31341     168.5597     337.3207      1.299     3.46     1023.807     59.47601     187.5425         9     1.068     0.626 -52.63   3
        47     66.8734    973.4189 307.8810662  +6.2640460     559.9276     845.0004     971.0104     84.17904     168.6939     337.3207      1.366     3.62      1031.15     59.47601     121.4551         5     1.319     0.286 -32.89   3
        48     70.3377    972.3159 307.8796658  +6.2646176     677.0195     875.7005     1011.583     84.71523     168.8281     337.3878      1.144     3.25     1031.117     59.47601      137.507         5     0.800     0.655  -3.19   2
        49    486.9566    970.9243 307.7068351  +6.2791333     1588.951     3409.642     4074.797     84.44756     168.8281      337.455      2.182     7.58     1026.003     59.47601     271.7238        22     2.085     0.771 -21.17   0
        50    919.6321    963.6853 307.5275258  +6.2965412     28579.54     35852.82     37859.21      84.5815     168.5597     337.3543      1.286     3.16     1015.004     59.47601     4658.041        31     1.260     0.830 -50.95   3
        51    922.6970    962.6213 307.5262894  +6.2970825     32692.48     47244.17     49876.46     84.44756     168.5597     337.2201      1.566     3.11     1014.892     59.47601     4950.201        32     1.322     0.918 -50.67   3
        52    226.8158    961.8315 307.8150883  +6.2741900     1169.957     1731.876     1508.926     84.17904     168.4925     337.3207      1.636     3.74      1030.52     59.47601     205.2419         8     0.986     0.625 -62.63   3
        53    230.5038    960.5435 307.8136012  +6.2748454     1253.794     1601.936     2788.648     84.44756     168.6939     337.6562      1.656     3.27     1030.496     59.47601     197.3499        11     0.924     0.888  84.54   2
        54    628.8328    959.1069 307.6483560  +6.2887482      609.264     522.4264     604.3022     84.71522     168.6268     337.4885      1.153     3.07     1023.883     59.47601     104.0446         6     0.738     0.572 -49.12   0
        55    817.5572    957.5093 307.5700920  +6.2956958     1560.058     2047.632     2056.689      84.5815      168.761      337.522      1.139     2.31     1017.589     59.47601     293.7299         7     0.766     0.600 -19.18   3
        56    820.5689    956.4520 307.5688774  +6.2962327     1706.807     2290.994     2339.477     84.44756     168.8951     337.3543      1.429     3.59     1017.448     59.47601     318.1216        10     1.032     0.654 -39.30   3
        57    767.5859    954.5628 307.5909279  +6.2952488     5310.944     10252.09     11791.51     84.17905     168.5597     337.1529      2.047     7.84     1018.957     59.47601     805.0218        33     2.064     0.834 -26.24   0
        58    238.3677    953.2759 307.8105821  +6.2781099     1110.165     1937.051     1908.655     84.44756      168.761     337.3543      1.983     5.15     1030.301     59.47601     179.0304        10     1.257     0.657 -36.54   2
        59    555.6998    953.5781 307.6788896  +6.2885917      767.398      1271.31     1176.286      84.5815     168.4925     337.1865      1.573     2.62     1025.112     59.47601     172.5673         6     0.794     0.527 -49.19   2
        60    201.4931    952.9618 307.8258941  +6.2770050     695.5953     1409.482     1519.708     84.71522     168.6939     337.4885      2.059     5.35     1030.276     59.47601     128.4971         8     1.795     0.450 -25.61   0
        61     61.8869    951.8073 307.8838624  +6.2728035     2027.419     4155.848     4171.005     84.04446     168.4253     337.1529      2.116     7.07      1030.92     59.47601     305.5176        22     2.025     0.692 -24.89   0
        62    953.9982    950.4793 307.5137047  +6.3031376     4143.859     5780.174     6376.525     83.90967     168.1562     337.1865      1.359     4.68     1013.308     59.47601     744.8796        17     1.414     0.650 -45.11   3
        63    957.3085    949.3037 307.5123701  +6.3037331     4300.112     5522.396      5412.05      84.5815     169.2968     337.3878      1.325     3.25     1013.146     59.47601     716.2383        17     1.173     0.792 -50.84   3
        64    929.5828    941.3912 307.5241401  +6.3060791     1655.066     3132.429     3128.843     84.31341     168.4925     337.2536      1.887     6.78     1014.006     59.47601     246.1733        19     1.811     0.712 -22.27   0
        65    787.0831    938.5167 307.5833728  +6.3025248     869.1177     1140.588     1005.646     84.31341     169.0291      337.522      1.229     3.14     1017.774     59.47601     188.3323         6     0.783     0.574 -46.74   3
        66    790.3857    937.2612 307.5820442  +6.3031533     1021.439     1451.717      1130.86     84.04446     168.6268     337.1865      1.639     3.37     1017.615     59.47601     173.2859         8     0.989     0.600 -28.16   2
        67    648.4786    937.9998 307.6409095  +6.2981200     2987.786     4021.119         3915     83.77466     168.0889     337.1529      1.384     3.01     1022.504     59.47601     554.8517        15     1.205     0.655 -42.91   3
        68    651.6451    936.7023 307.6396389  +6.2987614     3263.866     4261.369     4273.575      84.5815     168.6268     337.6226      1.328     2.41     1022.349     59.47601      536.621        13     0.990     0.745 -44.79   3
        69    260.3665    938.3242 307.8019557  +6.2850208     2595.989     3476.054     4305.461     84.44756      168.761     337.3878      1.465     3.26     1029.936     59.47601     413.5317        14     1.138     0.811 -56.26   3
        70    263.7240    936.7073 307.8006168  +6.2858009     3232.843     4285.367     4891.013     84.44756     168.8951     337.4214      1.423     3.15     1029.912     59.47601     564.2181        16     1.090     0.823 -10.38   3
        71    472.6999    935.6981 307.7139316  +6.2932046     901.7569     1587.228     1111.211      84.5815      169.163     337.2536      1.809     6.36      1025.21     59.47601     157.7618        14     1.803     0.629 -18.09   0
        72     29.5835    935.7139 307.8978082  +6.2783659     1235.167     1779.617     1761.832     84.17905     168.4925     337.3207      1.452     3.58      1030.82     59.47601     231.1625        10     1.167     0.711 -54.21   3
        73     32.9731    934.5088 307.8964422  +6.2789773     1483.739     2060.837     2191.962     84.71522     168.4925     337.2872      1.475     3.75     1030.794     59.47601     250.7229        11     1.162     0.640 -36.10   3
        74    880.4078    934.4468 307.5447794  +6.3073116     544.2446     810.4052     721.1072     84.04446     168.6268     337.0186      1.368     4.18      1015.32     59.47601     108.7415         6     1.050     0.521 -32.12   2
        75    883.9347    933.3127 307.5433536  +6.3078973     732.1891     1197.609     735.0743      84.5815     168.9621      337.455      1.726     3.34     1015.172     59.47601     160.9935         5     0.815     0.397  19.65   2
        76    954.8846    930.6808 307.5139971  +6.3113435     583.8699     692.0797      852.144     84.31341     169.0961     337.4885      1.243     3.88     1012.516     59.47601      116.643         5     1.258     0.343 -48.49   0
        77    573.3357    930.4098 307.6723468  +6.2987481     1098.147     1657.936     1956.771     84.04446     168.5597     337.2536      1.491     2.90     1024.169     59.47601     207.7513         7     0.933     0.494 -57.88   3
        78    576.5370    929.1392 307.6710608  +6.2993797      1196.06      1525.38     1790.154      84.5815      168.761      337.455      1.395     3.60     1024.047     59.47601     202.8296         8     0.992     0.638 -49.01   3
        79    298.4236    930.9787 307.7864099  +6.2893278     581.0863     1026.769     1413.069     84.17904     168.5597     337.3878      1.802     5.23     1029.708     59.47601     115.2152         9     1.675     0.462 -20.00   0
        80   1006.8435    929.9481 307.4924584  +6.3133729     656.0509     1278.254     1255.042      84.5815     168.6939      337.455      2.050     5.31     1010.006     59.47601     110.3381         8     1.603     0.497 -20.09   0
        81     62.0524    927.8635 307.8845994  +6.2826968     582.4932     1168.496     1084.054      84.5815     168.6939     337.3878      1.905     4.36     1030.619     59.47601     100.8711         5     0.971     0.558  50.61   2
        82    614.0834    926.4512 307.6555696  +6.3017423     883.6067     1777.194     2372.359      84.5815     168.6939      337.522      2.073     5.70     1023.047     59.47601     202.0461        11     1.866     0.491 -21.54   0
        83    292.2204    924.4735 307.7892025  +6.2918066     778.4492     1106.979     906.8737     84.17905     168.6939     337.3543      1.540     2.09     1029.684     59.47601     188.4092         5     0.712     0.454 -78.41   2
        84    295.7874    923.2540 307.7877632  +6.2924296     1096.959     1432.269     1596.676     83.90967     168.6939     337.1193      1.439     3.73     1029.644     59.47601     184.0059         9     1.047     0.623 -35.26   2
        85    760.4805    920.1431 307.5950267  +6.3092269     690.6078     1464.756     1312.376     84.71522      168.761     337.4214      2.092     5.37     1017.903     59.47601     116.4428         9     1.792     0.455 -24.99   0
        86    898.4353    916.6238 307.5378928  +6.3152718     5307.285     10672.38     11497.89     84.04446     168.5597     337.1865      2.074     8.14     1014.218     59.47601     889.1987        36     2.166     0.855 -27.23   0
        87    334.5851    912.7088 307.7720171  +6.2980823     5992.534     8501.525     8350.895     84.31341     168.5597     337.2201      1.455     3.85     1029.009     59.47601     1029.213        18     1.251     0.795 -46.41   3
        88    337.5247    911.5179 307.7708372  +6.2986724     6777.948     8920.222      8923.73     84.84874     169.0961     337.4885      1.373     2.93     1028.936     59.47601     1006.683        24     1.200     0.949 -62.59   3
        89    256.0880    911.0758 307.8046463  +6.2961303     5044.117     10585.07     11529.91      84.5815     169.0961      337.522      2.181     8.25     1029.611     59.47601     812.2253        37     2.173     0.876 -25.80   0
        90    585.3770    905.3152 307.6681899  +6.3095134     908.5027     1802.136     1674.107     84.44756     168.4925     337.3207      2.065     3.13     1022.965     59.47601     149.1085         8     0.961     0.710 -24.17   2
        91    770.6974    904.3489 307.5913145  +6.3160898     549.1301     602.5984     492.4545     84.44756      168.761     337.6562      1.201     3.35     1017.201     59.47601     103.0791         5     0.740     0.452 -14.85   0
        92    912.3237    902.4254 307.5326028  +6.3215975     674.1203     1320.508     1541.915     84.17905     168.6939     337.3878      2.509     3.91     1013.235     59.47601     148.6703         5     1.195     0.367 -33.78   2
        93    434.3542    913.6984 307.7305818  +6.3010089     1545.058     3177.909     3460.372      84.5815     168.6268     337.6226      2.140     7.58     1025.424     59.47601     279.3201        21     2.083     0.772 -21.46   0
        94    871.0076    900.4386 307.5498157  +6.3210437     565.0332     1098.354     733.7107     83.77466     168.4925     337.1193      1.886     3.48     1014.518     59.47601     109.4614         5     1.584     0.220 -16.47   0
        95    414.0073    899.2266 307.7395107  +6.3063054     387.7346     720.0814     1291.396     84.04446     168.6268     337.2201      1.569     3.77     1025.529     59.47601     75.50098         5     0.811     0.503 -55.99   0
        96    748.7517    895.5997 307.6007144  +6.3189721     1061.355     1510.934     1567.757     83.77466     168.3581     336.9514      1.428     2.80     1017.543     59.47601      203.776         8     1.013     0.492 -55.34   3
        97    752.1029    894.1687 307.5993715  +6.3196747     1330.156     1914.868     1985.605     84.71522     168.5597      337.522      1.415     3.94     1017.414     59.47601     205.0796        10     1.066     0.651 -50.22   3
        98    575.9567    894.8434 307.6724499  +6.3135236     519.6138     808.8202     715.3672     84.31341      168.761     337.2872      1.337     3.49     1022.831     59.47601     103.2046         5     1.331     0.264 -11.05   0
        99    614.2627    891.4728 307.6566658  +6.3161935     641.8676     1037.418     671.3681     84.71523      168.761     337.4885      1.790     6.45     1021.597     59.47601     121.6326         9     1.844     0.633 -19.40   0
       100    979.7049    891.5548 307.5050013  +6.3283269      588.601     822.6739     1726.331      84.5815     168.6939     337.5556      1.428     3.77     1010.512     59.47601     146.9064         5     0.963     0.424 -49.72   3
       101    983.1044    890.0421 307.5036409  +6.3290646     1076.947     1641.393     1780.103      84.5815     168.6939     337.5556      1.587     3.83     1010.369     59.47601     193.8157        11     1.250     0.619 -33.35   2
       102    533.7150    891.5922 307.6900889  +6.3134565     586.8508     620.8964     696.3931     84.17905     168.4253     337.2536      0.980     3.44     1023.757     59.47601     121.2418         5     0.770     0.445 -26.58   3
       103    536.8245    889.9974 307.6888519  +6.3142189     963.9907     1293.332     1192.917     84.17904     168.4253     337.2201      1.427     3.19     1023.644     59.47601     179.4542         8     0.873     0.653 -47.33   2
       104      2.6255    891.3988 307.9104864  +6.2957617     739.1548       974.36     797.1029     84.17905      152.704     275.2705      1.333     3.80     1030.911     59.47601     121.3846         6     1.015     0.498 -33.22  24
       105    667.5830    888.7521 307.6346288  +6.3190951     1617.529     2315.481     2787.634     84.04446     168.6939     337.1865      1.458     3.17     1019.419     59.47601     309.2421        11     1.042     0.786 -40.05   3
       106    670.7734    887.4296 307.6333490  +6.3197477     1696.749     2260.877      2539.16     84.04446     168.5597     337.2536      1.384     3.13      1019.19     59.47601      268.392        11     0.959     0.705 -28.43   3
       107    960.0670    885.8885 307.5133403  +6.3300143     444.6167     868.4894     723.1738     84.71522     168.9621     337.3878      1.793     3.86     1011.055     59.47601     100.8444         6     1.485     0.288 -25.45   0
       108     65.8380    884.2920 307.8844947  +6.3008170     2093.141     4390.604     4063.332     84.71522     168.6939     337.4885      2.125     6.81     1030.205     59.47601     374.9199        30     2.114     0.944 -28.24   0
       109    828.0645    885.0000 307.5681530  +6.3259905     569.9314     1129.175     1768.701     83.77466     168.3581     337.1193      2.494     5.44     1015.248     59.47601     121.1039         7     1.811     0.461  -4.85   2
       110    207.6661    883.6827 307.8256604  +6.3058215     1263.436     1684.551     2463.368     84.84874     169.0291     337.4885      1.538     3.84     1029.276     59.47601     179.8325        11     1.114     0.738 -51.49   3
       111    210.6889    882.6332 307.8244413  +6.3063561     1688.598     2552.988     3135.406     84.71523     168.6268     337.4214      1.622     2.94     1029.266     59.47601     267.3074        10     0.999     0.637 -56.53   3
       112     83.3248    883.4670 307.8772660  +6.3017440      1426.18     2768.342     2629.906     84.71523     168.8951     337.4214      2.032     6.58     1029.995     59.47601     234.4375        17     1.934     0.629 -22.40   0
       113    244.6012    879.7548 307.8104650  +6.3086802     636.0596     857.8481      868.194     83.90967     168.4253      336.985      1.604     4.29     1029.362     59.47601     86.07629         5     0.908     0.579 -39.38   0
       114    663.6870    877.2839 307.6366292  +6.3237014      5195.63     10672.73     11348.08     84.31341     168.9621      337.455      2.069     7.97     1018.924     59.47601     882.6377        35     2.090     0.849 -25.29   0
       115    348.4045    878.9716 307.7674145  +6.3124769     572.0565     1256.022     1891.816     84.04446     168.5597     337.2536      2.577     5.58     1027.646     59.47601     104.0314         9     1.913     0.459 -14.36   0
       116     23.3920    875.4657 307.9024055  +6.3030382     854.3892     1823.978     2104.416     84.04446     168.4925     337.2536      2.310     6.18     1030.701     59.47601     169.5308        12     1.791     0.600 -22.94   0
       117     34.7333    874.9302 307.8977172  +6.3036398     652.3065     987.2427     1106.377      84.5815     168.8281     337.4214      1.536     3.80     1030.539     59.47601     110.6769         5     0.915     0.675 -42.41   3
       118     38.2502    873.6205 307.8963019  +6.3042986     588.1289     732.1184      596.009     84.04446     168.8281     337.2872      1.164     4.26     1030.495     59.47601     101.4303         6     0.761     0.679 -60.67   2
       119    899.5333    874.3991 307.5388463  +6.3327465     1612.587     1856.351     2253.072     83.77466     168.2908     337.1529      1.160     2.79      1012.65     59.47601     330.5189         8     0.853     0.598 -31.25   3
       120    903.1944    872.6276 307.5373860  +6.3335998     1869.958     2511.837     3296.568     84.04446     168.5597     337.2201      1.510     3.93     1012.509     59.47601      333.644        13     1.063     0.787 -25.68   3
       121    776.9954    874.1726 307.5897091  +6.3287618     501.9265     629.7418     338.8344     84.04446     168.5597     337.2536      1.670     4.43     1016.292     59.47601     84.71362         6     1.377     0.406 -23.30   0
       122    346.6978    870.4346 307.7684092  +6.3159453     11941.09     24326.16     26924.82      84.5815     168.6268     337.5556      2.148     7.78     1027.375     59.47601     1875.737        50     2.209     0.951 -26.03   0
       123     79.6257    872.4078 307.8791731  +6.3061870     807.9339     2183.479     2170.597     84.17905     168.5597     337.2536      2.461     6.99     1029.898     59.47601     920.6462         8     2.332     0.587  62.17   2
       124     83.1086    870.6458 307.8777871  +6.3070314     957.3872     1468.875     1707.155      84.5815     168.6939     337.5556      1.421     3.50     1029.844     59.47601      162.792         7     0.961     0.477  -6.03   2
       125    217.5936    869.9683 307.8220015  +6.3118175     857.8287     1794.538     1501.337     83.90967     168.5597     337.1865      2.076     7.15     1029.141     59.47601     140.5773        16     1.967     0.729 -30.50   0
       126    424.2882    861.4426 307.7365112  +6.3222527     866.7166     1741.957      1669.76      84.5815     168.6939      337.455      2.056     6.43     1024.767     59.47601      110.276        15     1.650     0.704 -19.12   0
       127    110.0968    861.1772 307.8669062  +6.3118464     1231.266      2686.73     2878.706      84.5815     168.4925     337.2201      2.195     7.37     1029.378     59.47601     182.6257        20     1.987     0.766 -22.89   0
       128    678.1773    857.4369 307.6312795  +6.3323808     656.4452     1411.918      1725.22     84.17905     168.4925     337.1865      2.102     5.65     1017.548     59.47601     151.6394         9     1.894     0.475 -21.24   0
       129    891.7922    855.2895 307.5426968  +6.3403809     1339.646     2814.938     2714.882     84.04446     168.4253     337.1529      2.025     7.07     1012.252     59.47601     250.0364        19     2.056     0.682 -26.02   0
       130     93.5621    854.6707 307.8739866  +6.3139790     1784.661     3828.977     3937.472     84.44756      168.761     337.4885      2.201     7.46      1029.37     59.47601     265.7423        28     2.108     0.947 -25.22   0
       131    862.7411    854.7445 307.5547719  +6.3396395     1576.107     3066.061     3341.969     84.71522      168.761     337.4214      2.018     6.55     1013.289     59.47601     221.7379        18     1.945     0.619 -22.30   0
       132    825.8239    854.1684 307.5701126  +6.3386488     2281.548     4712.845     4591.234     83.90967     168.5597     337.2201      2.021     7.07     1014.385     59.47601     401.4713        23     2.013     0.695 -26.03   0
       133    561.8212    845.6260 307.6799642  +6.3333775     240393.8     491289.5     534989.2     84.17904     168.5597     337.3543      2.121     7.81     1021.278     59.47601     39455.48       169     2.282     1.141 -27.02   0
       134    648.9720    849.0034 307.6436823  +6.3348900     1008.096      1948.08     2450.013     84.04446     168.4925     337.2536      2.279     6.18       1018.3     59.47601     173.9254        14     1.913     0.562 -26.53   0
       135    406.1349    848.1837 307.7444895  +6.3271215     5541.127     11387.26     12439.46     84.04446     168.6268     337.3207      2.090     7.71     1025.067     59.47601     820.0825        39     2.097     0.920 -23.80   0
       136    347.3591    847.3066 307.7689109  +6.3255186      7549.58     10434.23     11485.81     84.71523     168.6939      337.522      1.480     4.10     1026.878     59.47601     1159.389        23     1.480     0.739 -51.25   3
       137    350.5333    845.9815 307.7676381  +6.3261720     9016.238     13084.66     13676.47     84.17904     168.6939     337.3207      1.567     3.54     1026.713     59.47601     1398.862        28     1.467     0.924 -48.49   3
       138    898.3109    842.3598 307.5404229  +6.3459375     3285.836     4723.416     5296.539      84.5815     168.6939      337.455      1.427     3.13     1011.554     59.47601     574.7579        16     1.168     0.778 -52.97   3
       139    901.3882    841.2797 307.5391818  +6.3464859     3741.716     5051.688     6081.086     84.17905     168.4253     337.2536      1.398     3.43     1011.407     59.47601     629.1351        14     1.148     0.724 -35.97   3
       140    665.6999    843.6850 307.6369179  +6.3376441     2124.633     2819.366      3242.01      84.5815     169.2968      337.522      1.386     3.20     1017.499     59.47601     370.6384        13     1.144     0.648 -37.32   3
       141    669.3499    842.2693 307.6354504  +6.3383504     2528.422     3239.668     3736.104     84.44756     168.6939      337.455      1.312     2.85     1017.331     59.47601     442.6467        13     1.065     0.681 -44.44   3
       142    741.3373    838.9689 307.6056844  +6.3421125     598.2748     849.4733     1622.939     84.31341     168.8281     337.3878      1.516     2.09     1015.462     59.47601     135.8601         5     0.815     0.473  88.77   0
       143    640.6829    837.6713 307.6475016  +6.3392935      1963.81     2564.094     3020.137     84.84874     169.0961      337.455      1.301     3.40     1018.115     59.47601     331.7734        11     1.143     0.581 -47.30   3
       144    643.9919    836.4871 307.6461679  +6.3398929     2308.771       3435.4     3937.318     84.17904     168.4253     337.1865      1.560     3.67     1017.932     59.47601     361.9192        17     1.439     0.807 -53.36   3
       145    831.0654    836.0636 307.5685420  +6.3463002     1219.793     2332.065     2539.221      84.5815      168.761     337.4214      2.010     6.34     1013.607     59.47601     213.5339        15     1.925     0.586 -24.94   0
       146    633.3154    835.8064 307.6506217  +6.3398179     688.6859     1633.516      2424.85     84.17904     168.4253     337.2201      2.569     6.89     1018.279     59.47601      126.666        12     2.284     0.582 -28.83   2
       147    635.1413    831.5482 307.6500064  +6.3416374     1452.656     2858.998     4139.437      84.5815      168.761     337.4214      2.252     6.87     1018.028     59.47601     256.4773        18     1.946     0.679 -23.72   2
       148    958.0609    834.7822 307.5158776  +6.3510537     608.3896     1093.096     966.9763     84.17904     168.6939     337.2201      1.931     6.26     1009.482     59.47601     94.01697        10     1.648     0.668 -26.19   0
       149    917.3266    830.2751 307.5329341  +6.3515607     2055.775     2689.737     2378.255     84.84874     169.0291     337.4885      1.433     3.48     1010.405     59.47601     371.3144        12     1.149     0.648 -52.74   3
       150    920.5251    828.9650 307.5316503  +6.3522081     2466.089     3201.818     2820.686     84.44756     168.8281     337.3878      1.390     3.46     1010.218     59.47601     369.2992        13     1.084     0.719 -27.26   3
       151    330.8185    829.6020 307.7763695  +6.3322768     747.2606     1260.187      1745.94     84.17904     168.2908     337.1193      2.244     5.27     1027.089     59.47601     118.6602         8     1.688     0.464 -40.35   2
       152    377.1534    825.5746 307.7572754  +6.3354895     1756.743     3600.083     4080.503     84.17904     168.8281     337.2872      2.251     7.46     1025.674     59.47601     281.2111        23     2.204     0.744 -26.29   0
       153    511.3185    816.3138 307.7019055  +6.3437968     1695.832     1915.567     1820.896     84.31341     169.0291      337.522      1.228     2.81     1022.055     59.47601     300.1796        10     0.891     0.675 -44.22   3
       154    515.1323    814.6378 307.7003789  +6.3446163     2148.177      2788.74     3407.753     84.44756      168.761     337.5556      1.360     4.01     1021.853     59.47601     381.3723        14     1.118     0.772 -17.39   3
       155    859.7701    813.4888 307.5573825  +6.3565785     641.4765     1186.703     1607.826     84.71523     168.4925     337.3543      2.247     4.19     1011.887     59.47601     126.6838         6     1.056     0.475 -33.71   2
       156    576.6719    813.7334 307.6748688  +6.3470440      589.037     976.4157     1372.801      84.5815     168.8281     337.4885      2.303     5.00     1019.141     59.47601       88.758         7     1.180     0.599 -51.53   0
       157    567.0921    810.9577 307.6789376  +6.3478706     965.6659     2376.857     2907.971      84.5815      168.761      337.522      3.463     8.28     1019.436     59.47601     359.6978        18     2.688     0.712  -7.35   3
       158    558.3490    812.3203 307.6825206  +6.3470161      3457.31     4809.886     5868.724      84.5815     168.8281     337.4214      1.458     4.03     1019.883     59.47601      558.988        17     1.278     0.729 -55.26   3
       159    561.5424    810.9431 307.6812414  +6.3476914     3506.743     4497.485      5591.91     84.71522     168.8281      337.455      1.231     3.60     1019.659     59.47601     664.3595        13     1.212     0.602 -55.14   3
       160    581.0104    811.9606 307.6731276  +6.3479209     566.9247     897.2968      1404.14     83.90967     168.5597     337.1529      1.769     4.85     1018.862     59.47601     125.7772         5     1.310     0.508 -58.55   0
       161    476.6360    810.6616 307.7164888  +6.3449728     987.3826     1711.668     1381.331      84.5815      168.761     337.3878      1.714     3.74      1023.27     59.47601     171.9797         6     1.131     0.356 -40.19   2
       162    118.3671    810.2693 307.8651865  +6.3331466     901.9659     1367.319     1320.491     84.44756      168.761      337.455      1.604     3.43     1028.411     59.47601     145.2961         9     1.002     0.774 -43.33   3
       163    121.6907    809.0164 307.8638493  +6.3337754     929.0593     1243.978     1311.998     84.31341     168.4925     337.3207      1.330     3.55     1028.424     59.47601     164.1494         7     0.776     0.700  -2.44   2
       164    897.5901    808.7737 307.5418431  +6.3597840     885.0588     1332.396      1314.83     84.17905     168.5597     337.2872      2.164     3.30     1010.332     59.47601     156.5212         8     1.005     0.546 -36.29   2
       165    696.0352    808.5629 307.6255028  +6.3531600     544.5769     1243.991     1388.011     84.31341     168.5597     337.1865      2.154     4.66     1015.367     59.47601       130.03         7     1.743     0.354 -27.75   0
       166    530.9213    805.2706 307.6941399  +6.3490119     14039.32     28766.78     30723.44     84.84873     169.0291     337.3878      2.128     8.04     1020.794     59.47601     2112.847        50     2.160     0.964 -25.65   0
       167    942.7493    804.2633 307.5232506  +6.3631485     2553.107     3759.364     3963.387      84.5815     168.6939      337.455      1.492     6.11     1008.682     59.47601     397.8522        17     1.408     0.745 -22.22   3
       168    946.3077    802.7111 307.5218255  +6.3639079     2220.027     2760.299     3263.785      84.5815     169.2968      337.522      1.119     2.31     1008.584     59.47601     463.2092        11     0.822     0.785  11.08   3
       169    323.8025    793.9641 307.7804775  +6.3467594     2275.919     4883.646     4897.679     83.63943     168.5597     337.2201      2.110     6.88     1026.372     59.47601     331.3104        28     2.066     0.832 -26.58   0
       170     42.8473    795.7720 307.8970147  +6.3366010     906.7462     1108.228     866.2167     84.17904     168.8281     337.3543      1.269     4.82     1029.623     59.47601     155.6964         9     1.121     0.600 -56.64   3
       171     39.4861    796.5091 307.8983848  +6.3361838     894.2976     1107.446     364.0663     84.31341     169.2299     337.5556      1.365     4.70     1029.775     59.47601     126.1018         8     1.107     0.565 -23.25   3
       172    789.0646    789.8775 307.5875168  +6.3639759     40097.62     80786.48     86891.76     84.84873      168.761     337.4214      2.103     8.39     1012.792     59.47601     6594.808        71     2.184     0.956 -24.99   0
       173     23.6432    792.1091 307.9051076  +6.3374694     1446.853      2866.34     3013.411      84.5815     168.6939      337.522      2.095     6.90     1030.032     59.47601       269.78        18     1.909     0.700 -24.15   0
       174    245.8297    766.3040 307.8137665  +6.3555727     741686.3      1913840      2276846     84.71522     168.4925     337.4214      2.616    15.19     1027.108     59.47601     63314.51       637     2.885     2.225 -40.36   4
       175    914.3425    785.1267 307.5356793  +6.3701070     6436.689     12794.09     13417.28      84.5815      168.761     337.3878      2.020     7.80     1008.744     59.47601     1010.428        33     2.046     0.833 -25.46   0
       176    711.0437    780.9503 307.6201971  +6.3650636     63199.04     129670.7     142516.6      84.5815     168.6939      337.455      2.118     8.29     1013.709     59.47601     10017.93       100     2.242     1.127 -24.41   2
       177    715.3761    785.2953 307.6182537  +6.3634136     12744.03     15914.38     17257.02     84.71523     168.4925     337.2872      1.243     2.85     1013.702     59.47601     2247.398        20     1.125     0.813 -44.99   3
       178    718.6857    783.7214 307.6169327  +6.3641739     16218.85     22727.64     24099.17      84.5815     169.0961      337.522      1.521     3.17     1013.512     59.47601     2622.053        21     1.121     0.898 -37.27   3
       179    355.8950    781.8555 307.7675650  +6.3528334     14259.93     30212.41     33868.57     84.44756      168.761     337.6562      2.192     7.99     1024.991     59.47601     2046.522        55     2.194     1.031 -25.75   0
       180    407.0209    781.4736 307.7463593  +6.3547004     957.8493     1846.156     2951.557     84.17904     168.6268     337.3543      2.675     2.78     1023.663     59.47601     152.2346         8     0.851     0.624 -46.46   2
       181    416.3129    780.3021 307.7425422  +6.3554948      14183.8     21166.82     22553.96      84.5815     169.2299      337.455      1.601     3.42     1023.383     59.47601     2185.212        26     1.388     0.877 -54.29   3
       182    419.3525    779.2736 307.7413152  +6.3560211     14589.31     18830.86     19725.49     84.44756     168.8281     337.4214      1.377     3.24      1023.26     59.47601     2205.364        26     1.231     0.889 -53.20   3
       183    955.1846    778.4769 307.5189496  +6.3742113     1439.779     3026.472     3774.669     84.04446     168.4925     337.2872      2.166     6.78     1007.115     59.47601     254.7516        18     1.887     0.682 -23.42   0
       184    909.3566    777.3174 307.5380094  +6.3731663     4416.906     5669.806     6670.143      84.5815      168.761     337.3878      1.292     3.81     1008.602     59.47601     754.0972        14     1.154     0.650 -38.28   3
       185    912.6876    775.7235 307.5366800  +6.3739353     4561.562     5810.828     6561.736      84.5815     169.0961      337.522      1.320     3.21     1008.402     59.47601     837.2557        18     1.108     0.825 -54.33   3
       186    883.6699    777.6044 307.5486611  +6.3721933     658.5768     1271.258     819.8578     84.04446     168.3581     337.2536      1.864     6.83     1009.631     59.47601     101.0762        11     1.668     0.784 -19.03   0
       187    651.8828    775.5529 307.6449319  +6.3653205     4522.853     9188.354     10240.76      84.5815      168.761     337.4214      2.120     7.89     1015.432     59.47601     731.6014        33     2.147     0.825 -27.25   0
       188    440.3779    773.7057 307.7327758  +6.3590232     1225.376     2358.378     2761.656      84.5815     168.5597     337.2536      2.115     7.07     1022.543     59.47601     193.9623        18     1.978     0.709 -25.73   0
       189    604.4739    768.0566 307.6648594  +6.3668350     640.9581     1198.256     837.0521     84.44756     168.6268     337.3878      1.811     5.29     1016.375     59.47601     114.2138         8     1.827     0.432 -26.32   0
       190    685.3422    766.3462 307.6313528  +6.3702382     1574.815      2296.46     2925.559     84.71523      168.761     337.4214      1.600     3.41     1014.099     59.47601     243.7243        12     1.096     0.755 -30.63   3
       191    688.6376    764.7456 307.6300387  +6.3710090     1481.095     2090.612     2549.437     84.44756     168.8281      337.455      1.523     2.62     1013.915     59.47601     260.1167        10     0.882     0.711  -9.48   3
       192    155.4566    766.7132 307.8512591  +6.3523766     572.7681     1256.572     1413.024      84.5815      168.761     337.5556      2.381     5.94     1027.594     59.47601      124.988        10     2.073     0.479 -18.55   0
       193    132.8454    765.6053 307.8606802  +6.3520764     653.8422     1198.402      1726.48     83.90967     168.4253     337.0522      2.732     3.39     1027.658     59.47601     124.1561         6     0.753     0.633 -72.91   2
       194    420.7079    762.3225 307.7413212  +6.3630668     37940.72     78174.59     85053.19     84.31341     169.0291      337.455      2.151     7.95     1022.306     59.47601     5609.062        72     2.226     1.048 -26.06   0
       195    536.4089    762.2697 307.6933029  +6.3669533       3990.1     5244.896     5784.575     84.04446     168.4253     337.2872      1.346     4.09     1018.057     59.47601     742.9036        17     1.315     0.739 -61.69   3
       196    539.9600    760.5505 307.6918867  +6.3677819     4786.861     6686.667     7399.322      84.5815      168.761     337.3543      1.434     4.07     1017.773     59.47601     794.0632        19     1.222     0.840 -41.79   3
       197    453.5279    760.5038 307.7277608  +6.3649146     2834.132     3946.986     4446.375     84.31341     168.8951     337.3878      1.591     3.23     1021.599     59.47601     376.3672        18     1.045     1.014   9.01   3
       198    456.8012    759.4033 307.7264391  +6.3654784     3030.022     4106.273     4638.467     83.90967     168.2908     337.1529      1.444     3.34     1021.441     59.47601     452.2949        16     1.132     0.897 -38.82   3
       199    432.5262    788.5253 307.7355375  +6.3526407     805.7506     1355.223     1319.648     84.84874     169.0291      337.522      1.890     6.34     1023.474     59.47601     120.3601        11     2.019     0.559 -14.68   0
       200    781.6995    758.6854 307.5916160  +6.3766124     6449.729     8052.023     8297.378      84.5815     169.2968      337.522      1.212     3.18      1011.29     59.47601     1246.862        15     1.132     0.663 -51.08   3
       201    785.0222    757.4799 307.5902772  +6.3772209     8088.971     11163.15     11732.71     84.17904     168.4253     337.3878      1.407     3.72     1011.143     59.47601      1268.27        23     1.336     0.783 -44.78   3
       202    451.8684    753.4954 307.7286845  +6.3677534     1753.393     3578.923     4119.415     84.44756     168.8951      337.455      2.145     7.34      1021.24     59.47601     264.4175        23     1.990     0.758 -21.38   0
       203     14.6396    753.6893 307.9101377  +6.3530330     777.6261      1463.14     1717.025      84.5815      168.761      337.455      2.335     4.73     1028.627     59.47601     113.0808         6     1.153     0.555 -41.24   2
       204    803.5081    752.9622 307.5827555  +6.3797022     770.1767     852.8135     1247.723     84.71522     168.6939      337.455      1.143     4.06     1010.603     59.47601     141.9347         6     0.925     0.509 -47.40   3
       205    806.5886    751.7385 307.5815178  +6.3803101     900.1973     1031.295       1600.8     84.04446     168.5597     337.1529      1.275     4.38     1010.488     59.47601     159.3274         9     1.216     0.597 -41.52   3
       206    141.4834    749.9828 307.8576208  +6.3588174     8093.585     17088.57     19562.07     84.17904     168.4253     337.3543      2.242     7.50     1027.235     59.47601     1120.599        51     2.229     1.062 -24.24   3
       207    149.7373    750.2665 307.8541858  +6.3589768      2049.14     4556.102     5038.865      84.5815      168.761     337.4214      2.204     7.72     1027.139     59.47601     301.3923        25     2.048     0.814 -24.10   3
       208    971.9283    752.0000 307.5128833  +6.3857025     514.8461     664.4484     602.9419     84.04446     168.2236     337.1865      1.202     3.65      1005.09     59.47601     103.1921         5     0.690     0.555  -0.05   2
       209    977.8280    746.9856 307.5106018  +6.3879694     1167.608     2502.253     3235.684     84.17904     168.5597     337.3207      2.563     8.25     1004.554     59.47601     222.5875        19     2.438     0.780 -37.94   2
       210    133.6764    747.2812 307.8609517  +6.3596714     1945.936     4137.688      5128.76     84.84874     169.0291     337.5556      2.233     7.79     1027.246     59.47601     263.0509        25     1.946     0.873 -27.77   0
       211    927.3466    747.3235 307.5315435  +6.3861516     4031.495     4980.153     5593.169     84.71523      168.761     337.4214      1.231     3.01     1006.596     59.47601     685.5736        13     1.010     0.708 -38.84   3
       212    930.6707    745.7125 307.5302176  +6.3869274     4349.685     5696.569     6128.236     84.71523     169.0291     337.4214      1.338     2.98      1006.39     59.47601     758.0109        18     1.024     0.842 -33.04   3
       213    686.2020    743.5726 307.6317578  +6.3796718     1269.741     2061.348     2848.348     84.04446     168.4925     337.2201      2.040     4.25     1013.183     59.47601      211.085        13     1.276     0.654 -30.40   2
       214    569.4021    744.3091 307.6802109  +6.3754719     1332.968     2098.604     2637.172     83.90967     168.4253     337.2201      1.709     3.96     1016.161     59.47601     208.6881        11     1.173     0.679 -52.00   3
       215    573.1342    742.6494 307.6787175  +6.3762818     1624.499     2762.428     3151.888     84.44756     168.6268     337.3878      1.908     5.55     1016.071     59.47601     240.2504        15     1.408     0.907 -37.96   3
       216    419.5450    742.6354 307.7424641  +6.3711581     823.6246     1825.545     1681.409     84.44756      168.761      337.455      2.134     6.48     1021.307     59.47601     112.9562        13     1.643     0.718 -34.04   0
       217    132.2326    741.5588 307.8617434  +6.3619861     1124.477     1544.057     2040.523     84.31341     168.6939     337.2872      1.503     3.54     1027.166     59.47601     173.5848         8     1.052     0.515 -33.32   3
       218    135.4008    739.7908 307.8604880  +6.3628224     1211.796     1421.908     2377.893     83.90967     168.4253     337.1865      1.252     3.60     1027.081     59.47601      170.582         8     0.805     0.721  -8.02   3
       219    983.9847    737.8225 307.5083520  +6.3919583     1483.367     2904.938     3627.231     84.31341     168.5597     337.3207      2.062     6.64      1003.74     59.47601     230.9346        20     1.902     0.750 -24.27   0
       220    952.9565    738.0530 307.5212231  +6.3908317     2139.106     4283.845     4914.793      84.5815      168.761     337.4214      2.065     7.14     1005.084     59.47601     399.3412        22     2.036     0.702 -22.48   0
       221    923.4036    738.5373 307.5334733  +6.3896490     2268.498     4319.567     4806.709     83.90967     168.4925     337.1529      1.979     6.69     1006.417     59.47601      391.327        21     1.967     0.639 -21.14   0
       222    675.5953    737.7802 307.6363539  +6.3817104     1131.943     2218.534     2805.792     84.17905     168.4253     337.2201      1.977     6.50     1013.271     59.47601     213.8876        16     1.740     0.682 -26.42   0
       223    823.3497    735.9039 307.5750900  +6.3874075     879.5706     1792.155     977.2966     84.44756     168.6939     337.5891      1.929     6.05     1009.361     59.47601     171.7429        12     1.986     0.519 -22.57   0
       224    897.3120    734.1663 307.5444489  +6.3905864     721.5437     958.4803     1166.652     84.71522     168.6939     337.4214      1.790     4.56     1007.277     59.47601     102.9769         7     1.060     0.558 -12.59   0
       225    248.7335    732.6081 307.8136935  +6.3695851     1346.093     2861.166     3768.461     84.04446     168.4925     337.2536      2.326     7.10     1025.923     59.47601     180.3025        20     1.919     0.994 -18.83   0
       226    939.4721    728.9275 307.5271245  +6.3941520     730.1288     862.1115     1153.701     84.84873     168.8951     337.4214      1.204     3.18     1005.303     59.47601      147.642         6     0.864     0.654   1.45   2
       227    942.8260    727.6380 307.5257754  +6.3947961     685.2255     816.7859     1297.065     84.17904     168.5597     337.2536      1.199     3.90     1005.089     59.47601     131.6049         5     0.950     0.467  10.09   3
       228    914.6263    727.1473 307.5374966  +6.3940610     818.7227     1810.519     2170.869     84.17904     168.8951     337.3207      2.234     6.48     1006.218     59.47601     174.0625        14     2.178     0.542 -21.90   0
       229    162.3448    728.5608 307.8496833  +6.3683630      760.368     1313.831     1067.994      84.5815     168.8281     337.4214      1.852     3.46     1026.334     59.47601     120.6833         5     0.729     0.474 -15.41   0
       230    967.9252    725.8967 307.5154156  +6.3963497     1824.272      3476.09     3840.825     84.17904     168.8951      337.455      1.999     6.86     1003.939     59.47601     293.2837        20     1.940     0.680 -22.17   0
       231   1009.4450    719.2917 307.4984021  +6.4004573     1479.771     2246.828     2136.362      84.5815     168.6939     337.5556      1.785     6.26     1001.945     59.47601      230.289        16     1.715     0.641 -22.78   0
       232    809.0586    718.4936 307.5816034  +6.3941219     655.1717     987.7333     1217.613     84.44756      168.761     337.5556      1.726     3.48     1008.584     59.47601     111.6831         5     0.778     0.449 -20.10   3
       233    812.5408    716.9321 307.5802102  +6.3948827     990.6018     1407.091     1510.066     84.71522     168.6939     337.4214      1.421     3.61     1008.476     59.47601     167.2064         8     0.957     0.619 -28.87   2
       234    898.6446    714.6635 307.5445469  +6.3986850     1131.393     1815.958     2491.211      84.5815     168.6939      337.455      1.813     3.25     1006.327     59.47601     192.0292        10     1.047     0.667 -24.35   2
       235    871.6432    709.9583 307.5559115  +6.3997299     679.5792     1594.271     1710.452     84.31341      168.761     337.2872      2.191     7.17     1007.178     59.47601      148.133        12     2.025     0.712 -23.81   0
       236    852.6171    706.7552 307.5639157  +6.4004196     946.5912     1904.472     2065.248     84.17905     168.6268     337.1865      2.135     5.05     1007.456     59.47601     176.2147         9     1.198     0.602 -40.75   2
       237     54.9514    704.5529 307.8950621  +6.3746767     1659.029     2784.651     4349.197      84.5815     168.6268      337.455      2.403     4.80     1027.454     59.47601     246.4617        14     1.205     0.869 -47.15   2
       238    117.6946    704.0795 307.8690378  +6.3769763     724.0511     1468.834     1683.381     84.31341     169.0291     337.4885      2.169     6.03     1026.463     59.47601       108.64         9     1.689     0.605  38.69   0
       239    664.3337    694.3315 307.6424819  +6.3992782     3859.033     5468.173     5502.742      84.5815     168.8281      337.455      1.552     3.48     1012.072     59.47601     534.3672        16     1.338     0.753 -51.73   3
       240    667.3447    693.2908 307.6412670  +6.3998084     4111.892     5478.235     5494.605     84.44756     168.6268     337.5556      1.390     3.13     1011.954     59.47601     638.9769        19     1.253     0.819 -49.86   3
       241    611.1841    693.5911 307.6645674  +6.3978114     969.4833     2128.461     2757.988     84.31341     168.4925     337.2872      2.710     4.97     1013.529     59.47601     167.8674        11     1.243     0.691 -20.34   2
       242    639.4743    689.6641 307.6529565  +6.4003768     1523.657     3150.308     3517.143     84.71523      168.761     337.3878      2.199     7.27     1012.596     59.47601     223.8301        20     2.038     0.838 -27.29   0
       243    128.8451    689.7629 307.8648916  +6.3832623     2547.504     5376.965     5552.701     84.31341      168.761     337.3207      2.172     6.62     1025.851     59.47601     351.9902        30     1.983     0.959 -25.47   0
       244   1002.7422    689.0447 307.5021930  +6.4127262     2020.158     3867.082      4025.44     84.44756      168.761     337.4885      2.048     6.87     1001.114     59.47601     327.1808        21     1.973     0.671 -23.54   0
       245    782.6437    685.9836 307.5936539  +6.4066683     14604.52     29483.42     32258.38     84.04446     168.6268     337.1865      2.085     8.49     1007.776     59.47601     2244.194        50     2.153     0.935 -26.70   0
       246    911.2745    686.3160 307.5402508  +6.4108122     2609.026     3596.011     3886.391     84.71522     169.0961     337.4885      1.452     2.84     1004.544     59.47601     453.8005        10     0.991     0.620 -53.17   3
       247    914.5724    684.7239 307.5389350  +6.4115794     2514.009     3177.497     3584.455     84.44756      168.761     337.3878      1.283     4.22     1004.345     59.47601     475.2897        12     1.147     0.652 -41.06   3
       248    482.1170    686.3331 307.7183816  +6.3965001     946.2155     2044.854     2352.243     84.84873     169.0291     337.4885      2.270     7.64     1017.044     59.47601      167.614        18     2.138     0.764 -12.68   0
       249    256.2491    679.6378 307.8123539  +6.3917117     4129.705     8712.819     9895.109     84.31341      168.761     337.2872      2.230     7.71     1023.328     59.47601     577.9927        42     2.239     1.025 -23.90   0
       250    661.3665    679.3442 307.6442151  +6.4053687     4058.224     5661.366     6158.147     84.44756      168.761     337.4214      1.429     3.64     1011.599     59.47601     667.3886        16     1.244     0.734 -51.05   3
       251    664.3979    678.2799 307.6429924  +6.4059093     4770.224     6598.393     7409.773     83.90967     168.2236     337.1865      1.472     3.59     1011.488     59.47601       766.66        20     1.234     0.872 -37.79   3
       252    923.0037    671.3589 307.5358814  +6.4173793     846.3447     1853.912     1966.902     83.77466     168.4925     337.1865      1.943     5.01     1003.437     59.47601     201.2606         9     1.665     0.427 -25.99   0
       253    734.8472    667.3080 307.6141176  +6.4127887     2563.369     5431.117     6265.379      84.5815     168.6939     337.5556      2.209     7.65     1009.474     59.47601     374.2671        29     2.015     0.925 -25.33   0
       254    690.2753    667.8136 307.6326015  +6.4110944     746.0416     1754.709     1518.704     84.04446     168.4925     337.2201      1.976     7.45     1010.587     59.47601     123.2629        13     1.989     0.781 -30.99   0
       255    939.6032    664.3625 307.5292246  +6.4208207     1726.965     3381.519     4063.532     83.63943     168.4925     337.2201      2.103     7.46     1002.552     59.47601     283.9875        23     2.058     0.756 -24.64   0
       256     18.9769    664.1830 307.9113519  +6.3901408      1283.25     2165.203     2532.502     84.31341     168.6268     337.3207      1.805     6.67     1027.752     59.47601     179.2494        14     1.438     0.900 -54.67   3
       257     22.3843    663.3205 307.9099667  +6.3906113     1137.588     1484.289     2185.295     84.17905     168.4925     337.2201      1.394     3.71     1027.669     59.47601       187.33        11     1.111     0.735 -58.52   3
       258   1001.3039    663.7451 307.5036338  +6.4231267     6595.218     13376.63     14676.42     84.44756     168.6939     337.6562      2.069     7.87     1000.347     59.47601     1139.796        34     2.120     0.817 -24.73   0
       259     77.3024    659.3278 307.8873080  +6.3941026     16109.58     26040.34     27609.03     84.31341     168.8951     337.3878      1.721     3.71     1026.425     59.47601     2276.159        31     1.475     0.987 -54.30   3
       260     80.3286    658.2889 307.8860869  +6.3946330     16052.62     20837.29     22085.07      84.5815     169.0291     337.4214      1.381     3.21     1026.343     59.47601     2435.506        26     1.267     0.885 -61.24   3
       261    540.3087    659.4288 307.6951298  +6.4095542     1456.565     2755.142     2971.119     84.71523     168.4925     337.3207      2.121     6.95     1015.008     59.47601     255.8505        20     1.992     0.679 -26.84   0
       262    510.2631    656.2167 307.7077085  +6.4098775     973.2914     1644.949     1929.114     84.04446     168.6939     337.2536      2.130     4.77     1015.534     59.47601     154.5094        10     1.151     0.669  -4.86   2
       263    929.7837    655.5812 307.5335937  +6.4241207      850.888     1755.014     1827.809     84.31341     168.4925     337.3543      1.958     6.48     1002.617     59.47601     173.5122        12     1.825     0.645 -26.54   0
       264    723.0214    651.4790 307.6195556  +6.4189317     2084.552     2974.396      3243.04     84.17904     168.4253     337.4214      1.555     5.20     1008.983     59.47601     318.3999        15     1.330     0.705 -39.91   3
       265    726.3216    650.3090 307.6182249  +6.4195249     2151.665     2557.432     2955.271     84.31341     169.0291     337.4885      1.252     3.13     1008.834     59.47601     386.8329        12     1.051     0.680 -58.39   3
       266    550.5289    653.1443 307.6910982  +6.4124907     722.9732     856.8607     979.9777     84.44756     168.6939     337.3878      1.244     2.67      1014.39     59.47601     139.6854         5     0.728     0.440 -65.97   0
       267    746.7249    649.0419 307.6097981  +6.4207280     2760.479     5828.673     6392.671     84.44756      168.761      337.455      2.089     7.85     1007.989     59.47601     438.2179        28     2.038     0.846 -23.15   0
       268    577.9798    647.0596 307.6799077  +6.4159198     2165.217      4356.71     4249.829     84.17904     168.6268     337.2872      2.058     7.43     1013.096     59.47601     323.7161        25     2.016     0.780 -23.47   0
       269    412.5876    648.5753 307.7485070  +6.4097696     873.0639      1343.41      1216.85     84.17905     168.5597     337.3543      1.494     2.84     1018.019     59.47601     172.9258         7     0.814     0.646 -20.56   3
       270    415.7946    646.4738 307.7472464  +6.4107447     745.6979     1164.229     1538.849     84.17905     168.2908     337.3207      1.995     5.15     1017.799     59.47601     137.2035         8     1.065     0.703  59.74   2
       271   1019.4716    645.2163 307.4967103  +6.4313825     3974.326      7599.83     8377.044     84.04446     168.6939     314.9691      2.007     7.39     999.1771     59.47601     645.9153        28     2.069     0.739 -23.87  16
       272    238.9850    646.5090 307.8206326  +6.4048147     1138.805     2567.336     3252.404     84.31341     168.5597     337.2536      2.236     7.31     1022.445     59.47601      145.931        19     1.993     0.752 -18.90   0
       273    984.9089    644.1097 307.5110942  +6.4306910     5898.091     12042.34     12847.33      84.5815     169.2968      337.522      2.077     8.07     1000.305     59.47601     1042.311        38     2.102     0.865 -27.08   0
       274    323.8767    645.4113 307.7854342  +6.4081095     1068.156     1713.803     2151.229     84.17904     168.3581     337.2536      1.972     3.79     1020.461     59.47601     148.5724        11     1.068     0.811 -29.30   2
       275    706.4925    642.0301 307.6267326  +6.4222830     675.7669     932.6292     1125.509     84.71522     168.4925     337.3543      1.498     3.42     1009.192     59.47601     127.4274         5     0.950     0.355 -45.57   2
       276     95.9611    640.9576 307.8801820  +6.4023144     653.8453     1328.002     1534.195     84.31341      168.761     337.2872      2.196     6.16     1025.695     59.47601     99.12561        10     1.386     0.770 -21.39   0
       277    430.1916    638.5671 307.7415358  +6.4144911     2069.905     4213.042     4816.041     84.04446     168.5597     337.2201      2.240     7.18     1017.191     59.47601     297.5767        28     2.001     0.930 -28.04   0
       278    143.3497    637.5795 307.8606269  +6.4052982     16136.94     34685.28     37454.19     84.04446     168.8281     337.2872      2.192     7.00     1024.174     59.47601     2216.282        58     2.200     1.099 -25.97   0
       279    813.2096    637.6154 307.5825829  +6.4276613     866.3984     1457.359     1824.811     84.31341     168.4925     337.3207      2.086     4.73     1005.419     59.47601     152.4404         8     1.254     0.507 -18.06   2
       280    979.6938    627.1075 307.5138262  +6.4375392     5154.802     11207.18     12157.71      84.5815     169.2968     337.4214      2.189     7.59     999.9374     59.47601     829.4932        42     2.073     1.112 -20.76   0
       281     25.1243    626.1682 307.9100807  +6.4060456     770.1068     1370.572       1646.1     84.44756     168.8281     337.3878      1.922     5.72     1026.912     59.47601      125.745         8     1.538     0.600 -13.27   0
       282    573.3499    622.3800 307.6826562  +6.4259574     33234.23     68974.94     75601.09     84.04446     168.8281     337.2872      2.138     7.16     1012.337     59.47601     4664.547        67     2.209     1.059 -25.67   0
       283    532.2725    622.6485 307.6996979  +6.4244752     437.3918     832.2382     1048.067      84.5815     168.8281      337.455      2.231     4.02     1013.765     59.47601     89.99652         6     1.409     0.328 -14.67   0
       284    179.4444    619.5402 307.8462522  +6.4139574     1781.121     3174.018     4048.653     84.44756     168.6939     337.5556      2.150     6.54     1022.938     59.47601     254.7368        18     1.543     1.030 -41.33   3
       285    182.3976    618.2753 307.8450689  +6.4145787     1936.718     2791.274     3825.394     84.04446     168.2236     337.2872      1.556     3.06     1022.862     59.47601     257.0306        12     0.910     0.875 -88.83   3
       286     73.8458    613.4358 307.8902874  +6.4129381     986.0365     1940.914     1969.529     84.31341     168.6939     337.3207      1.973     5.82     1025.647     59.47601     159.7781        13     1.546     0.616 -24.37   0
       287    470.6131    606.1717 307.7258441  +6.4292203     41950.29     88660.91     97973.28     84.17904     168.5597     337.3207      2.204     7.07     1015.657     59.47601     5527.854        80     2.269     1.123 -25.08   0
       288     12.4790    608.4606 307.9159255  +6.4129336     1223.646     2356.313     3178.468     84.71523      168.761     337.3878      2.629     5.08      1026.84     59.47601     165.0466        14     1.357     0.769 -19.54   2
       289    657.4133    602.7220 307.6484203  +6.4368802     642.3103     1147.756     669.0869     84.17905     168.4253     337.2201      1.883     4.31     1009.705     59.47601     119.1955         7     1.342     0.394  -9.54   0
       290    145.3362    601.2861 307.8610233  +6.4203526     1085.875     2193.016     2318.906     84.71523     168.8951     337.4214      2.056     7.02     1023.372     59.47601      154.235        15     1.846     0.747 -19.05   0
       291    423.0362    599.5985 307.7458131  +6.4303449     598.4088     1019.402     1652.172     83.63943     168.5597     337.1865      1.639     3.85     1015.871     59.47601     97.87891         5     0.888     0.478  -8.21   0
       292    314.4591    596.0004 307.7910024  +6.4281995     1311.857     2112.385      2351.06     83.77466     168.4253     337.0858      1.644     3.56     1018.157     59.47601     189.5431         9     0.974     0.658 -55.93   3
       293    317.5103    594.5300 307.7897853  +6.4289088     1327.764     1991.198     2517.074      84.5815     169.0291     337.4214      1.716     5.02     1018.077     59.47601     187.4816        15     1.361     0.871 -66.72   3
       294    740.6820    590.6349 307.6142596  +6.4446475     3151.046     3756.602     3998.243      84.5815     168.6939     337.3878      1.219     3.09      1005.75     59.47601     493.3173        13     1.061     0.725 -46.46   3
       295    744.3013    589.3060 307.6128016  +6.4453169     3552.302     4897.838     4837.217      84.5815     169.3636     337.2536      1.458     3.03     1005.651     59.47601     578.9178        21     1.291     0.828 -56.48   3
       296    796.1961    584.9267 307.5914060  +6.4488542     9552.202     20138.25     21578.29     84.04446     168.2908     337.2872      2.122     8.46     1004.451     59.47601     1517.879        45     2.149     0.931 -25.78   0
       297   1013.4814    585.4631 307.5011896  +6.4558606     678.3952     1070.536     781.5927     84.71523     168.8281     337.4214      1.926     5.28     997.2874     59.47601      127.093        10     1.738     0.452 -22.93  16
       298    618.6597    583.6794 307.6651444  +6.4434517      1767.31     2710.139     2904.745     84.71523      168.761     337.3543      1.517     3.86     1009.469     59.47601      247.706        15     1.316     0.745 -31.64   3
       299    621.4918    582.5065 307.6640080  +6.4440306     1779.291     2237.737     2370.542      84.5815     169.2968     337.4214      1.270     2.78     1009.374     59.47601      261.072        10     0.942     0.708 -37.94   3
       300    538.9041    585.1254 307.6982025  +6.4401927     888.3224     1880.716     1998.583     84.31341     168.9621     337.4214      1.956     5.01     1012.042     59.47601     143.7715        10     1.602     0.443 -23.39   0
       301    937.3450    579.0070 307.5330108  +6.4559960     774.7264     1534.772     1671.058     84.04446     168.5597     337.1193      1.817     5.78     999.7183     59.47601     151.3127         9     1.874     0.503 -17.76   0
       302    231.1854    577.5946 307.8261861  +6.4330127     759.0056     1699.636     2590.845     84.17905     168.4253     337.2536      3.118     4.71     1020.097     59.47601     168.5054         8     0.893     0.856   6.51   2
       303    377.2669    577.0387 307.7655684  +6.4381311     672.6561     1160.044      1527.85     84.44756     168.6939     337.4885      1.868     3.19     1016.049     59.47601     117.9791         5     0.789     0.497 -33.92   0
       304    870.6286    568.6857 307.5610506  +6.4580392      1673.81     2243.393     2657.393     84.71523     168.4253     337.2536      1.328     3.01     1001.551     59.47601     301.8993        11     1.049     0.695 -46.05   3
       305    873.6992    567.6940 307.5598091  +6.4585509     1900.592      2678.01     2775.204      84.5815     169.2968     337.2536      1.510     3.78     1001.397     59.47601     328.2635        11     1.186     0.604 -33.64   3
       306    831.0673    565.5205 307.5775790  +6.4580296     1791.605      3701.83     3675.809     84.71522     168.9621     337.4214      2.073     6.97     1002.746     59.47601     295.7743        20     2.025     0.672 -25.04   0
       307    811.4257    556.9203 307.5860200  +6.4609274     112267.5     228115.7     249189.9     84.31341     168.5597     337.4214      2.144     8.00     1003.141     59.47601      16932.7       138     2.594     1.087 -26.07   0
       308    259.1497    560.6418 307.8151483  +6.4409500     5310.939      11217.7     11879.64     84.71522      168.761     337.4214      2.174     7.47     1018.184     59.47601     703.4501        41     2.175     1.000 -25.37   0
       309    193.2109    555.1238 307.8427042  +6.4410202     38836.91     84463.53     94992.95     84.17904     168.3581     337.2201      2.255     7.11     1020.853     59.47601     4901.258        84     2.288     1.210 -25.38   0
       310    117.2129    551.4448 307.8743734  +6.4399923     4072.543     9050.704     9487.816     83.90967     168.5597     337.1529      2.235     7.22     1023.804     59.47601     525.0527        37     2.187     0.995 -24.40   0
       311    980.7382    549.3920 307.5159855  +6.4696692     839.8447     1068.165     1295.233     83.90967     168.5597     337.2201      1.404     5.02     996.9689     59.47601     125.2213         8     1.326     0.537 -18.20   3
       312    984.1951    547.8469 307.5146019  +6.4704223     837.1176     1173.203     1143.903     83.90967     168.5597     337.0858      1.197     2.41     996.8062     59.47601     176.0325         5     0.749     0.431 -69.71   3
       313   1002.1331    548.3102 307.5071398  +6.4708271     710.5698     1018.639     1070.524     84.71522     168.8951     337.3878      1.583     4.66     996.0662     59.47601     121.6685         8     1.080     0.569 -34.35   2
       314    846.5771    544.7158 307.5718357  +6.4671379     2884.254     3811.872     4571.092     84.44756     168.4925     337.3207      1.476     3.57     1001.061     59.47601     522.2123        14     1.283     0.651 -40.91   3
       315    849.6853    543.6482 307.5705810  +6.4676822     3028.282     4322.753     4978.104      84.5815     168.6939     337.4214      1.546     3.86     1000.886     59.47601     435.7039        15     1.238     0.789 -48.90   3
       316    366.6582    542.3188 307.7711375  +6.4521146     11353.14     24572.08     27073.26      84.5815      168.761      337.455      2.250     7.01     1014.461     59.47601     1465.238        57     2.215     1.142 -24.04   0
       317    170.1553    540.2604 307.8527741  +6.4463857     1335.967     2695.425     3571.462     84.44756     168.6939     337.5556      2.820     4.98     1021.864     59.47601     202.1409        16     1.336     0.839 -37.14   2
       318    802.1229    537.5060 307.5905308  +6.4686353     4182.539     8277.977     8715.697     84.31341     168.9621      337.455      2.027     7.65     1002.853     59.47601     627.3227        30     1.952     0.839 -26.53   0
       319    533.0458    537.1538 307.7022419  +6.4598081     4386.274     9401.321     10058.74      84.5815     168.6268      337.455      2.221     7.65      1010.37     59.47601     529.3699        40     2.189     0.974 -24.24   0
       320    107.3143    538.1368 307.8789300  +6.4451560     655.4464     1022.139     520.8884     84.71522     168.8951      337.455      1.330     3.84     1023.732     59.47601     114.6581         6     1.006     0.421 -77.63   0
       321    393.0188    533.0000 307.7605079  +6.4568445     848.5861     1614.732     2063.905     84.04446     168.2236     337.0522      2.547     4.14     1013.529     59.47601     139.7715         7     0.890     0.549 -42.85   2
       322    180.0626    530.3019 307.8489966  +6.4508302     4356.436     9395.605      9836.69     84.31341     168.8951     337.4885      2.182     7.87     1020.606     59.47601     564.7612        39     2.156     0.999 -26.71   0
       323    576.7504    530.9472 307.6843075  +6.4638303     1739.666     2900.865     3052.047     84.71522     168.6268      337.455      1.740     4.72     1008.577     59.47601     233.1056        16     1.322     0.935 -16.51   3
       324    579.6286    529.6536 307.6831560  +6.4644606     1451.816     1846.691     2047.806     84.31341     168.8281     337.3207      1.406     2.94     1008.427     59.47601     223.5641        10     0.908     0.784  75.73   3
       325     51.7623    528.9951 307.9022966  +6.4470677     3269.948     7226.543     7990.119     83.63943     168.4925     337.1529      2.292     7.07      1024.54     59.47601     424.7817        38     2.170     1.042 -27.13   0
       326    818.6780    529.6783 307.5839199  +6.4724192     900.7404      1901.25     1794.031     84.84874     169.0291      337.522      2.100     6.69     1001.757     59.47601     155.2201        14     1.956     0.641 -22.05   0
       327    275.2434    526.8022 307.8096050  +6.4554634     57073.75     123458.3     137924.4     83.90967     168.2908     337.0522      2.257     7.01     1016.254     59.47601     7075.319        95     2.297     1.233 -25.31   0
       328    501.9839    517.6286 307.7157907  +6.4668341     27742.83     61695.79     71230.84     84.17904     168.4925     337.3207      2.329     6.89     1009.942     59.47601     3180.703        87     2.381     1.296 -21.60   0
       329    257.8815    522.3679 307.8169610  +6.4567133     980.6487     1682.483     2134.407     84.44756     168.6939     337.3543      2.117     3.94     1016.596     59.47601     142.8108         8     0.907     0.684  -7.13   2
       330    975.9775    520.1872 307.5189362  +6.4815721     1033.213     1695.172     2242.746     84.31341     168.5597     337.3207      2.333     3.49     995.9697     59.47601     220.9036         9     1.088     0.608 -23.19   2
       331    798.3229    519.2069 307.5927199  +6.4760659     11119.28     22798.52     24723.24     84.17905     168.2236     337.2201      2.117     8.55     1002.185     59.47601     1545.179        47     2.163     0.944 -26.45   0
       332    651.3344    516.4236 307.6538323  +6.4723167     761.3759     1135.139     1244.806     84.17905      168.761     337.3543      1.719     4.10      1005.56     59.47601     108.8146         7     1.055     0.456 -11.54   0
       333    214.9006    513.9766 307.8350844  +6.4587391      1232.02     2731.772     3301.265     84.71522     168.4925     337.1865      2.483     8.85     1017.985     59.47601     157.2302        28     2.355     0.928 -31.38   0
       334     48.8944    514.6906 307.9039687  +6.4528787     931.7036     1723.156     2206.874      84.5815     169.2968     337.4214      2.172     5.63     1024.354     59.47601     123.1162        11     1.227     0.728  -9.52   2
       335    672.3564    512.5488 307.6452352  +6.4746179     969.0474     1808.462     1960.183     84.71523     168.6939      337.455      2.254     7.01     1004.748     59.47601     163.7604        17     2.228     0.618 -22.68   0
       336    661.9034    512.6253 307.6495720  +6.4742377     1958.713     4233.363     4887.757     84.71522     168.4925     337.2872      2.419     7.51     1005.085     59.47601     274.4142        24     2.059     0.766 -24.90   0
       337    725.7589    511.0378 307.6231168  +6.4770222     988.8359     1671.941     2253.439     84.31341      168.761     337.2872      2.102     4.87     1003.999     59.47601     140.8858         9     1.030     0.651 -20.62   2
       338    399.9328    508.2375 307.7584688  +6.4673018     1119.462     2531.448     2973.064     84.44756     168.6939      337.522      2.207     7.22     1012.339     59.47601     185.2626        20     2.015     0.724 -19.68   0
       339    331.0360    506.5265 307.7871262  +6.4657039     2635.086     5664.535     5950.689     84.44756      168.761     337.4214      2.189     6.77     1013.674     59.47601      310.662        34     2.158     0.966 -21.72   0
       340    146.3539    505.1207 307.8638360  +6.4600992     16827.38     36528.03      40769.8      84.5815      168.761     337.4214      2.246     7.41     1020.722     59.47601     2332.836        64     2.229     1.173 -26.10   0
       341    509.9706    506.5183 307.7128477  +6.4716891     1252.483      2055.75     2124.522     84.44756     168.5597     337.3878      1.875     4.73     1009.101     59.47601     167.2738        12     1.197     0.795 -22.40   3
       342    513.2999    505.6389 307.7114952  +6.4721635       976.14     1290.161     1291.426      84.5815     168.6268     337.6562      1.245     4.47     1008.987     59.47601     164.4159         8     1.105     0.671 -88.44   3
       343    874.6640    505.0561 307.5615007  +6.4844513     1100.551     2253.254     2641.688     84.71522     168.6939     337.4214      2.161     6.60     998.6121     59.47601     187.8232        16     1.846     0.662 -14.72   0
       344    110.3118    503.7254 307.8788439  +6.4594670       1753.8     3031.415     3124.794      84.5815     169.0961      337.522      1.888     4.58     1022.522     59.47601     258.0038        15     1.244     0.921 -27.86   3
       345    113.5020    502.5274 307.8775600  +6.4600687     1510.642     1944.083     1818.403     84.31341     168.8951     337.4214      1.380     3.43     1022.279     59.47601     204.9392        14     1.046     0.928  56.24   3
       346    970.2726    500.3532 307.5219664  +6.4895735     3350.142     4832.113     4949.159      84.5815     168.8281     337.4214      1.454     2.57     995.3818     59.47601     593.2529        14     1.183     0.723 -48.71   3
       347    973.3606    499.2696 307.5207206  +6.4901237     3677.482     4410.942     5090.061     84.44756      168.761     337.4885      1.244     2.95      995.214     59.47601      618.918        14     1.075     0.714 -40.48   3
       348    350.0252    501.0400 307.7794278  +6.4686050     757.4806     1247.384      1469.64     84.17904     168.5597     337.1865      1.791     5.15     1012.866     59.47601     94.60315         8     0.880     0.852  47.69   0
       349    543.0189    493.0665 307.6995795  +6.4783480     880.2719     1351.559      1318.99     84.17904      168.761     337.3207      1.829     4.93     1007.776     59.47601     120.6564         9     1.061     0.648 -34.53   2
       350    546.6151    491.8074 307.6981288  +6.4789880     808.4189     1127.032      1232.89     84.17905     168.4925     337.2536      1.210     2.65      1007.65     59.47601     139.6473         6     0.775     0.502  87.28   2
       351     10.6325    489.4831 307.9206999  +6.4620042     16620.59     36325.77      41018.1      84.5815     168.5597     337.3543      2.251     7.42     1024.765     59.47601     2137.883        63     2.239     1.157 -24.61  16
       352    443.3172    486.2990 307.7411952  +6.4778121     28555.91     60350.77     66564.14      84.5815     169.2968      337.522      2.206     6.73     1009.953     59.47601      3556.63        66     2.259     1.118 -25.36   0
       353    649.6638    486.6731 307.6555218  +6.4845472     7148.991     9806.495     10721.87      84.5815      168.761     337.4214      1.482     3.46     1004.584     59.47601     919.4282        23     1.264     0.889 -47.41   3
       354    652.6909    485.6467 307.6542995  +6.4850720      8151.36     11941.67     12869.34      84.5815     168.6939     337.5556      1.608     3.67     1004.438     59.47601     1046.272        20     1.302     0.850 -56.22   3
       355    291.3724    486.6400 307.8042591  +6.4725889     698.3292     1730.622     1745.331     84.17905     168.5597     337.2872      2.334     7.87     1013.768     59.47601     97.42773        12     2.020     0.858 -21.19   0
       356    208.4837    483.8594 307.8387608  +6.4709614     12568.04     28205.17     31778.71     84.84873     168.8281     337.4885      2.332     6.64      1017.23     59.47601     1376.576        62     2.247     1.257 -22.79   0
       357    175.8951    484.2184 307.8522765  +6.4697212     1016.535      1925.71     2702.058     84.44756     168.5597     337.2201      2.168     4.70     1018.059     59.47601     153.5352        10     1.290     0.689 -46.12   2
       358    825.3096    483.9233 307.5826960  +6.4915360     634.4954     1320.352     2045.868     84.44756     169.0291      337.455      2.225     6.28     999.6728     59.47601     129.5583        11     1.969     0.563 -29.05   0
       359    983.4603    484.5418 307.5170191  +6.4965418     801.4201     1745.273     2400.667      84.5815     168.6939      337.455      2.571     2.90     994.2058     59.47601      182.208         5     0.759     0.437 -23.86   2
       360    573.2713    482.7252 307.6873672  +6.4836286      1894.28     3836.039     4552.302     84.84874     168.8951     337.4214      2.176     6.94     1006.678     59.47601     267.4526        29     2.112     0.903 -25.08   0
       361    945.2906    480.4025 307.5330035  +6.4969822     2987.749     3956.869     4168.504     83.90967     168.4253     337.1529      1.270     2.40     995.5916     59.47601      574.272        12     0.904     0.782 -64.10   3
       362    948.3871    479.2942 307.5317550  +6.4975429     3172.298     4210.618     4774.967     84.31341     168.4925     337.2536      1.389     3.30     995.4205     59.47601     554.5988        16     1.196     0.744 -35.19   3
       363    620.0198    478.3632 307.6681064  +6.4869901     4307.081     9043.032     9851.344     84.17904     168.5597     337.1865      2.146     6.90     1005.358     59.47601     565.9994        37     2.157     0.941 -24.43   0
       364    108.4719    478.6290 307.8804524  +6.4697691     802.9254     1173.943     756.0403     84.44756      168.761     337.3878      1.646     5.22     1021.809     59.47601     110.7065         9     1.233     0.625  10.11   0
       365    969.7090    472.1012 307.5231432  +6.5012224      2524.08     4893.117     5542.587      84.5815     169.2299     337.3878      2.022     6.93      994.218     59.47601     442.8012        22     2.012     0.669 -24.82   0
       366    532.2419    469.5944 307.7048400  +6.4876814     4836.183     10440.39     12400.22     83.90967     168.4253     337.1193      2.297     7.18     1006.612     59.47601     601.6569        40     2.247     0.984 -27.74   0
       367    378.6581    469.5359 307.7685994  +6.4825729     1947.066     3932.609     4352.566     84.71523     168.6939      337.455      2.121     7.35      1010.81     59.47601     232.6077        28     2.094     0.910 -32.00   0
       368    888.8134    465.5081 307.5569475  +6.5012547     2259.009     4597.397     5707.252     84.31341     168.4925     337.1865      2.219     7.13     996.8235     59.47601     396.4158        23     2.119     0.672 -24.24   0
       369    896.2687    459.8415 307.5540417  +6.5038430     1520.284     3093.965     3586.094     84.44756     168.6939      337.522      2.262     7.33     996.3669     59.47601     278.7412        21     2.027     0.775 -25.79   0
       370    935.9360    459.0498 307.5375999  +6.5054894     870.3098     1550.401     1493.378     84.44756     168.6939      337.455      1.929     6.33     994.9617     59.47601     171.8712        13     1.944     0.579 -19.40   0
       371    718.4471    456.4739 307.6279776  +6.4993121     1652.919     2322.104     2642.301     84.44756     168.8281     337.4214      1.514     3.06     1001.853     59.47601     237.8152        11     0.967     0.762 -38.29   3
       372    721.8159    455.2304 307.6266206  +6.4999379     2068.406      2828.27     2894.708     84.17904     168.4925     337.3543      1.472     3.63     1001.764     59.47601     275.8557        13     1.119     0.750 -22.97   3
       373    391.1423    454.0356 307.7639372  +6.4893916     2449.342     5327.111     5830.784     84.44756      168.761      337.455      2.250     7.12     1009.436     59.47601     298.2584        34     2.101     1.049 -26.14   0
       374     82.5583    454.7791 307.8920121  +6.4787490     1338.984     2693.142     2957.692     84.17905     168.5597     337.2536      2.108     7.43     1021.835     59.47601     183.3884        21     1.929     0.802 -24.17   0
       375    431.1343    454.5038 307.7473194  +6.4905353     733.4706      1434.82     1784.448      84.5815     168.8951      337.455      1.819     5.00     1008.093     59.47601     108.9973         9     1.800     0.393 -38.03   0
       376    781.7289    446.8501 307.6020278  +6.5053951     11340.59     23564.64        26997      84.5815      168.761      337.455      2.244     8.27     999.6237     59.47601     1509.981        61     2.498     1.127 -34.07   0
       377    301.4104    447.4078 307.8014102  +6.4891265     1835.195       3870.9     3956.708     83.90967     168.5597     337.3207      2.100     6.71     1011.698     59.47601     268.3176        26     2.070     0.863 -18.55   0
       378    618.8279    450.5830 307.6695315  +6.4984228     6570.114     14177.93      15612.9     84.17904     168.4925     337.3207      2.216     7.41     1004.061     59.47601     895.5951        45     2.173     1.043 -26.42   0
       379    810.1794    444.3983 307.5902984  +6.5073552     922.7505     1506.145     1057.516     84.17904     168.4253     337.1193      1.830     6.32     998.5441     59.47601      133.928        15     1.775     0.632 -23.19   0
       380    384.8435    443.8647 307.7668934  +6.4933812     1067.513     2303.201     2645.543      84.5815     168.6939     337.4214      2.481     7.23     1008.982     59.47601     154.6448        17     1.781     0.821 -25.49   0
       381    966.5640    442.2600 307.5254448  +6.5134417     1498.806     2775.414     3019.608      84.5815      168.761     337.3878      2.049     6.16     993.0959     59.47601     274.8503        17     1.926     0.553 -23.20   0
       382    119.0289    438.9553 307.8774053  +6.4865067     2801.112     6509.551     7363.804     84.17904     168.8281     337.3207      2.314     7.80     1019.673     59.47601      365.382        36     2.171     1.039 -25.66   0
       383    755.6351    438.7003 307.6131334  +6.5078915     1409.791     2004.024     1718.941      84.5815     168.6268     337.5891      1.500     5.04     1000.179     59.47601     213.5967        12     1.327     0.679 -48.98   3
       384    758.6649    437.6610 307.6119103  +6.5084217     1367.818      1832.11     1559.354      84.5815     168.6939      337.455      1.370     3.09     1000.026     59.47601     200.2205        11     0.973     0.745 -65.39   3
       385   1020.5237    436.8515 307.5032229  +6.5174688     2845.468     6134.699     6023.534      84.5815     168.8281     302.3909      2.127     7.55     991.1153     59.47601     342.4771        33     2.133     0.969 -16.49  24
       386    277.5241    435.9199 307.8117121  +6.4930709     958.5576     2130.334     2417.563     84.84873     169.0291     337.5556      2.396     7.43     1012.013     59.47601     149.0137        17     2.163     0.715 -25.77   0
       387    354.9554    433.7986 307.7796390  +6.4965384     2150.826     4409.649     5152.889     83.90967     168.3581      336.985      2.176     7.99      1009.77     59.47601     259.9165        27     2.001     0.891 -24.43   0
       388    710.5693    431.7543 307.6320751  +6.5092581     1214.577     2538.336     2390.811     84.17905     168.8281     337.2872      2.077     8.09     1000.788     59.47601     147.6496        23     1.986     0.922 -29.12   0
       389    244.6229    429.2883 307.8255933  +6.4947078     548.8018     824.4978     1057.214      84.5815     168.5597     337.2872      1.489     3.51     1013.205     59.47601     102.2375         5     0.778     0.458 -75.48   0
       390    552.6035    424.4618 307.6978997  +6.5069999     722.6689     1494.806     1873.235     83.90967     168.5597     337.1193      2.419     5.96     1003.795     59.47601     106.0511        11     1.420     0.705 -31.84   0
       391    474.6223    422.4790 307.7303400  +6.5052140     888.0715     1516.848     1351.883     84.17905     168.4253     337.3878      1.950     6.40     1004.015     59.47601     146.8214        14     1.846     0.623 -24.58   0
       392    835.3310    422.2873 307.5805954  +6.5173240     879.0532      1125.67     2044.707      84.5815     169.0291      337.455      1.975     3.39     996.9857     59.47601     150.1481         7     1.013     0.473 -41.35   3
       393    838.5721    421.1627 307.5792873  +6.5178963     926.4278     1527.115     1996.432     84.04446     168.4253     337.1865      1.713     4.16     996.8508     59.47601      138.328         8     1.014     0.580 -62.32   2
       394    822.3425    420.9033 307.5860340  +6.5174631      1445.38     2777.829     2988.581     84.44756     168.6939     337.5891      1.963     7.52     997.2668     59.47601     233.3223        21     1.909     0.829 -23.84   0
       395    719.9438    418.7944 307.6286169  +6.5149227     10154.15     21057.63     23431.57     84.04446     168.6268     337.1193      2.159     7.35     1000.079     59.47601     1360.077        50     2.203     0.999 -21.78   0
       396    639.6955    415.3145 307.6620493  +6.5136840     1520.226     2522.625     2607.323      84.5815      169.163      337.522      1.942     3.92     1001.494     59.47601     233.8705        14     1.259     0.905 -14.38   3
       397    642.5120    414.4749 307.6609082  +6.5141247     1698.905     2295.051     2093.394      84.5815     169.0961      337.522      1.462     3.68      1001.32     59.47601     232.0602        12     1.077     0.783 -45.82   3
       398    617.7262    411.2582 307.6713060  +6.5146262     3458.881     5894.207     6787.908     84.71522      168.761     337.4214      1.889     7.29     1001.947     59.47601     434.4232        20     2.023     0.736 -29.58   3
       399    612.5597    409.2724 307.6735174  +6.5152739     9832.456     21640.67      25191.3     84.44756      168.761     337.4885      2.299     7.31     1001.956     59.47601     1277.069        58     2.181     1.372 -23.58   2
       400    945.3856    408.6436 307.5353595  +6.5266205     2768.488     5539.526     5655.723     83.90967     168.5597     337.1529      1.992     7.39     992.3627     59.47601     520.5068        25     2.028     0.754 -24.42   0
       401    384.4118    404.6824 307.7683879  +6.5095478     18996.49     40657.38     45653.93     84.17905     168.4925     337.2536      2.252     6.74     1006.347     59.47601     2277.713        67     2.302     1.169 -26.77   0
       402    901.1861    404.3660 307.5538530  +6.5269169     929.5487     1985.382     2300.269     84.17904     168.4925     337.2872      2.193     6.14     993.8094     59.47601     202.7294        15     1.810     0.585 -23.19   0
       403    129.2017    404.6341 307.8743375  +6.5010211     1454.826     2298.189     2134.919     83.63943     168.5597     337.1865      1.672     4.36     1018.371     59.47601     217.2588        11     1.115     0.694 -29.59   3
       404    132.4719    403.5276 307.8730171  +6.5015877     1397.796     1802.318     2145.819     84.84874     168.8951     337.4214      1.558     3.64      1018.27     59.47601     192.9453        10     1.003     0.756 -45.87   3
       405    912.6082    399.6959 307.5492667  +6.5292255     3138.243      2823.83     3503.781     84.31341     168.3581     337.1865      0.993     3.11     993.1239     59.47601     537.6941        13     1.065     0.723 -36.43   3
       406    915.5390    398.4870 307.5480903  +6.5298223     3110.099     3168.501     3743.876     84.71523     168.9621     337.4885      1.001     2.37     992.9131     59.47601     592.1243        14     0.984     0.815 -48.03   3
       407     65.0288    398.9858 307.9011677  +6.5012011     997.3849     1777.801     2510.825     84.17904     168.5597     337.3207      2.390     7.06     1020.564     59.47601     136.9014        12     1.476     0.948 -20.98   2
       408    241.9705    395.2163 307.8278398  +6.5086894     8904.266     19714.12     21669.26     84.17904     168.4925     337.3543      2.285     7.13     1011.898     59.47601     1064.341        55     2.267     1.145 -25.15   0
       409    966.7996    386.7703 307.5271990  +6.5363658     800.6859     1378.719     1717.651     83.90967     168.5597     337.2201      2.595     3.28     990.7957     59.47601     140.7708         8     0.969     0.577 -32.20   2
       410    355.7468    384.7094 307.7809589  +6.5168371     900.2213     1838.655     1727.604     84.44756     168.5597     337.5556      2.250     8.19     1006.515     59.47601     114.2596        17     1.819     1.030 -11.97   0
       411    188.2382    384.4145 307.8505096  +6.5113500     668.2048     1235.739     1399.789     84.31341     168.5597     337.1193      2.003     5.33     1014.912     59.47601     94.84534         8     1.596     0.502 -33.61   0
       412    142.2707    383.6976 307.8696167  +6.5101052     3392.762     7211.064     8011.324     84.44756     168.9621      337.455      2.239     6.55     1017.519     59.47601     400.7781        39     2.166     1.084 -20.93   0
       413    245.8565    383.4390 307.8266225  +6.5136832     897.6221     1652.223     1720.164      84.5815     168.8281     337.3878      2.107     7.27     1011.294     59.47601     150.7045        13     1.361     1.089 -38.58   2
       414    828.4625    380.3889 307.5848473  +6.5343985     656.2668     1278.714     1260.214     84.04446     168.5597     337.1865      2.004     5.64     994.5591     59.47601     126.1642         8     1.765     0.508 -27.46   0
       415    164.2252    379.7716 307.8606346  +6.5124625     1615.593     3592.603     3738.022     84.04446     168.5597     337.2872      2.152     8.41     1016.668     59.47601     182.7008        27     1.844     1.071 -19.25   0
       416    560.5512    378.6336 307.6961360  +6.5261910     656.2944     1132.479     1313.264     84.31341      168.761     337.3543      2.171     6.47     1000.305     59.47601     91.89056        10     1.681     0.699 -21.08   0
       417    386.3213    375.3257 307.7685808  +6.5217349     1266.712     2055.346     2371.877     84.84874     169.0291     337.4885      1.828     5.72     1003.899     59.47601     172.8112        13     1.335     0.833 -57.88   3
       418    389.9977    373.6730 307.7671100  +6.5225404     991.1077     1418.376     1472.601     84.04446     168.2908     337.2536      1.622     5.01     1003.575     59.47601     142.9163         8     1.225     0.580 -37.51   3
       419     38.0146    368.8573 307.9133969  +6.5127362     2201.547     4743.444     5484.081     83.90967     168.6268     337.0522      2.254     6.51     1020.875     59.47601     261.7544        33     2.039     1.058 -28.32   0
       420    441.5148    368.0427 307.7459110  +6.5265881     4959.193     10527.36     11406.05      84.5815     168.6268     337.4214      2.256     6.47     1000.744     59.47601     569.0083        45     2.190     1.098 -24.77   0
       421    775.5311    366.5455 307.6072863  +6.5383526     1435.454     3217.926     3916.585      84.5815     168.6939     337.3878      2.476     8.01     995.2867     59.47601     211.8768        23     2.205     0.814 -21.46   3
       422    780.3629    366.2779 307.6052892  +6.5386241     7566.382     9416.447     10385.08     84.44756     168.8281     337.4214      1.348     3.16      995.036     59.47601      1126.53        17     1.068     0.862 -53.68   3
       423    783.6459    364.7042 307.6039787  +6.5393834     8566.154      11649.8     12136.67      84.5815     168.6939     337.5891      1.449     3.32     994.7833     59.47601     1215.527        24     1.171     0.977 -45.02   3
       424    346.5366    363.5275 307.7854939  +6.5252763     670.2906     1375.613     1124.848      84.5815      168.761      337.455      2.526     3.52     1005.492     59.47601     97.16907         5     0.794     0.449 -18.48   2
       425   1023.5536    361.8210 307.5044679  +6.5485558     1432.083     1681.482     1467.451     75.08125     136.0012     255.7441      1.023     2.38     987.9374     59.47601     385.4219        10     1.016     0.622 -72.36  24
       426    191.6705    355.5898 307.8500542  +6.5233684      778.121     1078.724     1225.447     84.04446     168.3581     337.2536      1.836     5.37     1013.622     59.47601     122.9719         8     1.125     0.725 -30.99   0
       427    489.8538    351.6608 307.7263917  +6.5349687     1998.841     4282.164     5066.303      84.5815     168.6939     337.3878      2.316     8.27     998.3983     59.47601     234.7938        32     2.226     0.917 -24.55   0
       428    462.3533    352.1639 307.7377923  +6.5338420     1566.922     3398.844     4124.562     84.31341     168.8281     337.3207      2.286     8.47     998.9471     59.47601     184.1281        27     2.036     0.985 -23.71   0
       429    847.5266    348.3462 307.5780031  +6.5482661     22497.07     48268.41     53704.45     84.44756     168.6939     337.3878      2.211     8.04     992.3256     59.47601     3247.417        67     2.213     1.140 -27.10   0
       430    919.0492    351.1815 307.5482127  +6.5494753     524.1796      1133.05     1296.423     84.04446     168.8281     337.1865      2.225     5.35      990.756     59.47601     96.57556         9     1.727     0.467 -22.61   0
       431    618.9783    341.0068 307.6731392  +6.5436799     1791.225     3782.797     3990.759     84.04446     168.5597     337.2201      2.176     6.63     996.5168     59.47601      271.557        26     1.968     0.901 -25.93   0
       432     27.8908    340.6715 307.9185493  +6.5240359     704.6349     1462.537     1502.791     84.44756     168.9621     337.4214      2.238     6.84     1020.621     59.47601     112.8611        10     1.781     0.737 -37.88   0
       433    703.9551    334.2766 307.6380832  +6.5492936     53804.29       112657     124081.7     84.44756     168.8281      337.455      2.179     7.65     995.2783     59.47601     7190.606        84     2.251     1.121 -24.98   0
       434    863.5179    335.0257 307.5718087  +6.5542995     812.6995     1307.003     1549.998     84.44756     168.4925     337.4214      1.757     4.25     991.3808     59.47601      120.865         7     0.885     0.582 -62.29   2
       435     84.7259    333.7784 307.8951865  +6.5287897     987.4395     1625.449     1870.919     84.17905     168.6268     337.3543      1.973     4.61     1018.136     59.47601     133.0132         8     0.932     0.647 -48.12   3
       436     81.6980    334.6189 307.8964153  +6.5283410     829.9366     1385.045      1946.54     84.44756     168.6268     337.1529      2.375     4.50     1018.282     59.47601     126.8945         8     1.241     0.463 -45.01   3
       437    566.8038    330.7112 307.6951461  +6.5461903     1774.406     3895.125     4045.086     84.04446     168.4253     337.0858      2.326     6.58     996.2783     59.47601     241.5599        29     1.960     1.099 -26.95   0
       438    103.7381    329.8865 307.8874246  +6.5310347      3949.36      8723.82     9423.254      84.5815     168.9621     337.4214      2.232     8.04     1017.331     59.47601     456.2228        40     2.158     1.051 -27.49   0
       439    549.5860    327.2786 307.7024097  +6.5470330     4568.943     9947.876     10480.13     84.17905     168.4925     337.2201      2.218     7.35     996.0848     59.47601     537.8585        41     2.159     1.046 -22.82   0
       440    278.4151    324.9866 307.8150704  +6.5389122     1915.315      4231.43     4409.917     84.31341     168.4253     337.3543      2.233     7.40     1007.542     59.47601     216.5294        30     2.067     0.986 -22.87   0
       441    412.6532    322.3802 307.7594259  +6.5444803     16920.42     36914.21     41402.76     84.04446      168.761     337.2201      2.264     6.76     999.5835     59.47601     2030.895        69     2.271     1.217 -24.82   0
       442    518.6329    321.9869 307.7154384  +6.5481846     801.9131     1110.775     1610.169     84.04446     168.4925     337.3207      1.869     6.09     995.8589     59.47601     106.1793         8     1.280     0.814 -12.66   2
       443    522.5652    320.1886 307.7138660  +6.5490586     901.7501     1337.968     1383.425     84.04446     168.5597     337.2201      1.668     5.17     995.6603     59.47601     137.1704         9     1.061     0.712 -36.20   3
       444    393.1696    320.3088 307.7675846  +6.5446841     766.8645     1542.231     2044.511     84.71522     168.5597     337.3878      2.057     6.69     1000.413     59.47601     91.86108        12     1.401     0.895 -23.13   0
       445    490.3566    318.5572 307.7272933  +6.5486563     801.8587     1681.929     2253.097     84.31341      168.761     337.2536      2.546     4.78      995.828     59.47601      123.115         8     1.174     0.553 -21.38   2
       446    501.7162    312.7743 307.7227709  +6.5514240      5993.78     12608.87     14666.13      84.5815     168.4925     337.3543      2.328     6.59     995.2524     59.47601     686.9215        48     2.214     1.102 -22.91   0
       447    770.8721    311.4703 307.6110627  +6.5609422     2121.289     4476.272     5239.337     84.71522     168.8951     337.3878      2.172     7.87      993.019     59.47601     308.4467        27     2.110     0.850 -21.00   0
       448    924.3477    311.6121 307.5473342  +6.5659928     534.9314     673.2883     941.5444     83.90967     168.6939     337.1193      1.078     3.55     988.6616     59.47601      110.173         5     0.942     0.426 -75.37   0
       449    927.9940    310.4998 307.5458574  +6.5665735      612.055     729.9931     1387.032     84.31341     168.3581     337.1193      1.078     2.54      988.463     59.47601     124.4719         6     0.757     0.497   5.72   0
       450    328.6979    309.0099 307.7947312  +6.5471932     844.3835     1672.755     1525.105     84.31341     168.3581     337.2201      1.936     6.34     1003.111     59.47601     143.9386        11     1.783     0.634 -35.24   0
       451    164.1323    303.3696 307.8632438  +6.5440102     707.8381     1436.708     1316.065     84.31341      168.761     337.3878      2.083     7.16     1014.664     59.47601      107.432        12     2.034     0.706 -32.46   0
       452    391.6167    296.8903 307.7690156  +6.5543032     4711.349     10394.95     11574.12     84.31341     168.4925     337.3207      2.317     7.52     999.5075     59.47601     542.4105        44     2.205     1.086 -21.32   0
       453    247.3531    297.6357 307.8288859  +6.5491668     1416.927      2957.24      3059.89     84.17905     168.6939     337.3543      2.075     7.01     1008.005     59.47601     184.1226        23     1.956     0.869 -24.94   0
       454    757.6803    293.6510 307.6171360  +6.5678616     29356.92     39779.27     41324.29      84.5815     168.8281     337.4214      1.431     3.45     992.4685     59.47601     4322.641        33     1.400     0.904 -55.87   3
       455    760.9901    292.4787 307.6158010  +6.5684560     34312.94     48904.42     51332.09     84.17904     168.4253     337.2536      1.487     3.94     992.3519     59.47601     5225.682        38     1.413     0.961 -48.99   3
       456    745.4310    296.7498 307.6221183  +6.5661737     693.5726     1197.931     1002.233     84.31341     168.8951     337.3543      1.962     5.60     992.7482     59.47601     107.4744        11     1.882     0.469 -21.39   0
       457    431.0485    292.5000 307.7527914  +6.5574349     1501.814     3109.911     3600.497      84.5815     168.6268     337.6226      2.240     7.76     997.5296     59.47601     193.6857        22     2.007     0.839 -21.34   0
       458    992.3678    290.3761 307.5198004  +6.5770247     840.5595     1060.306     1212.762     83.90967     168.5597     337.2201      1.210     4.19     983.3263     59.47601     185.2886         8     1.262     0.456 -59.58   3
       459    995.9521    289.4673 307.5183424  +6.5775192      1087.99     1726.459     1319.902      84.5815     168.6939      337.455      1.463     3.89     982.9799     59.47601     226.4468        10     1.164     0.615 -35.30   3
       460    577.4719    289.8081 307.6920876  +6.5634382     784.9222     1691.689      1464.91     84.04446     168.2908     337.3207      2.017     6.26     992.7538     59.47601     115.7733        12     1.866     0.591 -29.97   0
       461    933.4182    289.8022 307.5442964  +6.5753016     1404.772     2119.778     3176.881     84.17905     168.2908     337.1529      1.641     2.85     987.1793     59.47601     256.4979        11     0.985     0.716 -40.57   3
       462    936.9445    288.5187 307.5428750  +6.5759490     1552.123     2202.844     2788.792      84.5815      168.761      337.455      1.407     3.01     986.8639     59.47601     237.9407        10     0.980     0.618 -54.73   3
       463    469.6178    288.1612 307.7369234  +6.5605158     652.5588     1491.451     2449.886     84.17904     168.6268     337.1865      2.715     5.04     994.4029     59.47601      110.603         5     1.219     0.589 -60.28   0
       464    419.0324    287.2088 307.7579579  +6.5592182     1207.487       2465.4     2896.972     84.04446     168.5597     337.2536      2.441     5.93     998.1744     59.47601     165.4739        14     1.401     0.888 -51.14   2
       465    840.1606    281.7580 307.5832871  +6.5755203     740.6012     1230.426     1631.051     84.31341     168.8281     337.2872      1.790     3.86      989.808     59.47601     138.3859         5     0.876     0.488 -47.64   0
       466    194.2329    279.3149 307.8515562  +6.5549527     1521.384     3168.122     3573.325      84.5815     168.5597     337.3878      2.263     8.22     1011.692     59.47601     187.4108        26     2.074     0.910 -28.66   0
       467    757.8983    277.5163 307.6175852  +6.5745321      4335.23     9009.193     9449.274      84.5815      169.163     337.4885      2.155     7.01     991.7133     59.47601     634.5208        36     2.032     0.975 -26.01   0
       468    446.7364    280.0358 307.7466962  +6.5631066     761.2593     1590.674     2166.551     84.44756     168.6939      337.455      2.567     4.17     995.6351     59.47601     138.8026         6     1.028     0.532 -41.02   0
       469    772.3285    276.3302 307.6116333  +6.5755027     1360.855      2032.43     2255.144      84.5815     168.8951     337.3543      1.534     4.17     991.5423     59.47601      200.373        10     1.270     0.577 -54.07   3
       470    775.5226    274.9810 307.6103522  +6.5761663     1739.049     2516.283     3023.771     84.04446     168.4925     337.3878      1.570     3.79     991.4724     59.47601     242.2307        12     1.142     0.735 -52.08   3
       471    230.6704    276.5690 307.8365205  +6.5573076     646.3028     1244.879     744.6298     84.44756      168.761     337.3878      1.904     3.96     1008.873     59.47601     94.09863         5     1.056     0.425  15.27   0
       472     92.0737    276.6850 307.8940586  +6.5526132     721.0295     1260.033     1926.118     84.71522     169.0961      337.455      1.992     3.37     1016.786     59.47601     117.4755         5     0.793     0.414 -18.15   0
       473     77.8322    270.8706 307.9001670  +6.5545365     1017.806     1958.343     1972.978     84.44756      168.761     337.4214      2.132     7.30     1017.458     59.47601     150.8875        17     1.935     0.772 -17.67   0
       474    364.9229    269.8158 307.7810077  +6.5645911     1223.996     2160.427      2434.29     84.17904     168.4253     337.2872      2.052     5.37     999.2945     59.47601     171.1786        12     1.281     0.756 -47.89   3
       475    361.6886    270.6288 307.7823232  +6.5641471     1000.795       1557.9     1964.257     84.71523     168.4925     337.3207      1.777     3.62     999.4561     59.47601     141.7095         9     1.029     0.675 -73.63   3
       476   1012.4381    266.2663 307.5122713  +6.5876487      4335.18     8822.725      9752.32     84.44756     168.6939      337.522      2.133     8.19     981.8768     59.47601     682.5941        34     2.078     0.903 -23.51  16
       477    490.7222    266.1034 307.7289008  +6.5703302     1419.656     3120.279      3324.81     84.31341     168.9621     337.4885      2.255     8.28     992.2899     59.47601      188.802        27     2.258     0.849 -25.75   0
       478    253.1305    261.7460 307.8276939  +6.5641813     3699.816     8064.968     9715.071     84.44756     168.6939     337.3207      2.341     6.94      1007.05     59.47601     435.9287        44     2.229     1.151 -27.25   0
       479    922.1761    259.9431 307.5499615  +6.5872588     507.7982     776.6143     1002.262     84.17904      168.761     337.2201      1.351     4.39     985.7329     59.47601     91.59015         5     1.036     0.530 -53.65   0
       480    772.9461    255.3071 307.6120801  +6.5842053     469.7511     810.9976     1018.356     84.44756     168.6939     337.5891      1.938     5.74     990.5355     59.47601     97.87231         7     1.444     0.644  -7.32   0
       481    387.2412    252.9869 307.7723063  +6.5722874     1081.669     2532.443     2892.147     83.90967     168.5597     337.1193      2.403     7.27     997.4628     59.47601     149.4518        18     1.875     0.790 -17.80   0
       482    971.9456    252.1149 307.5295573  +6.5921469     648.7889     1126.375     1825.925      84.5815      168.761     337.5891      2.957     4.66     983.3445     59.47601     112.6656         7     1.342     0.459 -28.57   2
       483    157.4044    248.2459 307.8678921  +6.5665484     1271.255     2839.339      2946.59     83.90967     168.4253     337.0858      2.306     7.83     1013.208     59.47601     165.2393        21     1.842     0.932 -20.96   0
       484    309.5061    248.8243 307.8047216  +6.5714052     636.0762      1381.31     1641.106     84.71522     168.4925     337.2536      2.074     5.66     1002.624     59.47601     99.09247         8     1.778     0.508 -28.23   0
       485    566.8610    244.1478 307.6980237  +6.5819403     1523.094     3208.464     3222.665      84.5815     168.6939     337.4214      2.153     7.20      989.495     59.47601     191.9808        20     2.013     0.721 -21.32   0
       486    908.5527    243.9568 307.5561523  +6.5934075     1025.704     1358.006     1934.459      84.5815     168.6939     337.3543      1.415     4.30     985.2871     59.47601     208.9331         8     1.292     0.559 -55.48   3
       487    912.1888    242.8013 307.5546811  +6.5940057     1240.899     1861.798      2141.73     84.17904     168.4253     337.2201      1.540     3.42     985.0999     59.47601     199.1993        13     1.029     0.875 -49.81   2
       488    728.3578    242.3364 307.6310281  +6.5880759     2689.077     3619.823     4144.175      84.5815     168.6939     337.4885      1.485     4.73     990.1905     59.47601     400.4645        13     1.297     0.618 -55.58   3
       489    731.3573    241.2959 307.6298174  +6.5886056     3294.602     4975.247     5509.174      84.5815     168.6939     337.5556      1.641     3.91     990.1409     59.47601     465.7048        16     1.276     0.804 -37.37   3
       490    671.1709    241.5128 307.6548008  +6.5865093      1469.92     3135.625     3721.031     84.71522     168.4925     337.2872      2.285     7.61     990.2254     59.47601     179.4291        23     1.906     0.850 -22.18   0
       491    969.1864    240.9589 307.5310754  +6.5966623     641.1175     1071.541     1313.553     84.04446     168.5597     337.1193      1.625     3.57     983.0701     59.47601     105.8872         5     0.812     0.483 -28.32   0
       492    924.5724    234.7058 307.5498094  +6.5977610     654.6552     1138.459     1247.431     84.71523     168.4925     337.3207      1.784     4.56     984.0233     59.47601     142.4076         6     0.924     0.720  29.72   2
       493    927.7312    232.8948 307.5485583  +6.5986139     723.8287     991.0056     1292.013     84.44756     168.8951      337.455      1.487     3.30     983.7518     59.47601     126.7604         5     0.967     0.433 -59.69   2
       494    228.6787    227.6269 307.8389934  +6.5774520     1256.905     2075.119     2597.701     84.44756     168.6939     337.3878      1.994     5.02     1008.675     59.47601     177.3108        11     1.241     0.816 -32.63   3
       495    231.4394    226.0454 307.8379003  +6.5781976     1300.276     1852.657     1953.788     84.31341      168.761     337.3207      1.594     5.65     1008.513     59.47601     176.2559        13     1.172     0.901 -63.92   3
       496    872.4772    225.6573 307.5717434  +6.5997643     1189.007     2172.676     2427.083      84.5815     168.6939     337.3543      2.189     6.41      986.142     59.47601     158.6755        15     1.764     0.654 -24.25   0
       497    761.1045    226.1578 307.6179721  +6.5958486     1017.672     975.2286     839.0375      84.5815     168.6939     337.5556      1.285     4.35     989.2512     59.47601     168.1368        10     1.252     0.550 -23.38   3
       498    764.7005    224.4643 307.6165356  +6.5966678     1110.548     1266.727     1153.558      84.5815     168.8281     337.4214      1.268     3.39     989.1104     59.47601     170.6996         9     0.896     0.764 -59.10   3
       499    464.0651    216.4499 307.7416349  +6.5899446     14987.57     32095.21     36964.96     84.44756     168.6939     337.4214      2.315     7.32     990.9253     59.47601     1731.696        78     2.812     1.195 -31.86   0
       500    789.7593    215.8499 307.6064186  +6.6010602     9347.883     19643.76     22141.12     84.71522      168.761     337.3543      2.221     7.47     988.4474     59.47601     1280.533        52     2.262     1.007 -22.60   0
       501    151.2922    210.6372 307.8716956  +6.5818742     1512.755     2881.997     2758.938     84.71523     168.6939      337.455      1.991     4.32     1012.138     59.47601     194.7411        16     1.269     1.073 -38.02   3
       502    154.2914    209.3298 307.8704944  +6.5825146     1340.499     1711.544     1631.101      84.5815     168.8951     337.4214      1.331     3.90      1011.87     59.47601     212.2772        12     1.081     0.788 -69.72   3
       503    127.3919    208.7293 307.8816831  +6.5818605     813.3531     1648.796     2441.722     84.04446     168.3581     337.2872      2.706     7.36     1013.488     59.47601     132.9362        15     1.992     0.761 -27.90   0
       504    925.9588    206.3084 307.5501822  +6.6095345     996.7095      2217.63     2427.295     84.58149      168.761     337.4885      2.102     7.14     982.4412     59.47601     159.0666        18     2.046     0.698 -26.12   0
       505    587.8148    202.5183 307.6907185  +6.5998315      3016.58     6474.204     7224.876     84.17905     168.4925     337.2536      2.267     7.16     987.6886     59.47601     387.0056        33     2.112     0.925 -26.22   0
       506    550.5541    202.3814 307.7061948  +6.5986440     1475.465      2906.82     2737.691     84.17905     168.6268     337.1529      2.046     7.29     987.6676     59.47601     229.7853        21     1.718     0.866 -24.43   0
       507    392.7709    201.5576 307.7717373  +6.5937108     1173.396     2213.267     2813.895     84.17905     168.6939     337.2872      2.084     7.29     994.7652     59.47601     155.2559        19     1.779     0.836 -36.31   0
       508    308.9662    202.9217 307.8064883  +6.5903431     800.6204     1184.409     994.8608     84.44756      168.761     337.3878      1.750     5.35     1003.061     59.47601     114.7247        10     1.244     0.650 -26.11   0
       509    948.7066    199.6486 307.5409588  +6.6130415     1883.602     3920.425      4427.28     84.44756     168.6268     337.5556      2.216     7.41     981.5229     59.47601     281.7439        21     1.927     0.798 -22.09   0
       510    894.8683    199.0495 307.5633349  +6.6114979       7766.8     16004.64     17200.68     84.44756     168.6939     337.4214      2.125     7.89     983.5516     59.47601     1111.169        42     2.124     0.942 -23.35   0
       511    568.2794    199.7566 307.6989227  +6.6003198     642.1134     1180.076     1708.138      84.5815      168.761     337.4214      2.606     6.19     987.6255     59.47601     104.2868         8     1.816     0.593 -43.53   2
       512    979.6400    197.6723 307.5281797  +6.6148863      5743.92     7096.389     6922.785     84.44756      168.761     337.4885      1.225     3.15     980.6262     59.47601     1000.937        18     1.162     0.736 -50.88   3
       513    983.0124    196.4607 307.5268198  +6.6154988     6387.748     8456.887     8155.732     83.90967     168.5597     337.0858      1.349     3.39     980.4219     59.47601     1155.257        19     1.214     0.782 -44.58   3
       514    691.2418    197.7274 307.6479328  +6.6052608     1666.873     2591.911      3581.05     84.44756     168.8281      337.455      1.934     4.34     988.1445     59.47601     212.8987        14     1.092     0.916 -32.82   3
       515    694.4807    196.4451 307.6466309  +6.6058983      1616.01     2555.276     3163.016      84.5815      168.761     337.4214      1.704     2.98     988.0178     59.47601     238.7969        11     0.954     0.812 -54.01   3
       516    267.3853    196.6627 307.8239635  +6.5915355     891.4392     1602.398     1274.968     84.04446     168.6268     337.2201      1.993     6.70     1006.417     59.47601     123.4596        14     1.801     0.699 -32.00   0
       517     21.0818    195.6490 307.9262630  +6.5836946     17015.78     37131.61     41324.61      84.5815      168.761      337.455      2.257     7.32     1019.466     59.47601     2112.218        61     2.270     1.161 -26.18   0
       518    501.5197    191.9124 307.7269062  +6.6013295     1265.427     2488.748      2856.83     84.31341     169.0291     337.5556      2.370     7.13     988.4457     59.47601     179.6879        19     1.842     0.773 -25.77   0
       519    884.0280    188.1742 307.5681996  +6.6156284     1423.862     2214.316     3061.749     84.04446     168.5597     337.2872      1.859     4.62     983.4595     59.47601     193.1423        13     1.178     0.756 -37.19   2
       520    887.3984    186.8272 307.5668451  +6.6162968     1322.638     1723.313     2376.487     84.04446     168.4925     337.1865      1.245     2.69     983.2724     59.47601     249.0087         7     0.856     0.578 -35.17   3
       521    833.5213    188.3303 307.5891671  +6.6138826     1470.631     2885.534      3133.84     84.84874     169.0291     337.3878      2.174     7.69     985.5121     59.47601     249.2008        19     1.989     0.831 -25.89   0
       522    513.7750    187.6450 307.7219606  +6.6035012     1645.609     3378.883     3793.436     84.04446     168.8281     337.2872      2.089     7.55     988.0316     59.47601     221.5986        23     1.980     0.815 -23.02   0
       523    743.6223    185.6908 307.6265854  +6.6119778     23703.18     34394.19     35728.23      84.5815     168.5597     337.2872      1.573     3.49     986.8727     59.47601     3445.916        28     1.309     0.973 -32.98   3
       524    746.5012    184.5000 307.6254298  +6.6125655     26788.41     37329.01     39383.74      84.5815      169.163     337.2536      1.526     3.34        986.8     59.47601     3539.157        38     1.306     1.098 -57.19   3
       525    348.1833    184.5230 307.7908230  +6.5992537     3940.924     10556.99     12619.12     84.04446     168.4925     337.2872      2.625     8.23     998.9303     59.47601     406.4548        58     2.366     1.527 -43.76   0
       526    977.0143    184.4909 307.5297101  +6.6202426     1563.283     2062.581      2266.73     84.31341     168.5597     337.2201      1.324     5.26     979.8362     59.47601     275.2916        10     1.133     0.690 -41.11   3
       527    980.3217    183.2920 307.5283767  +6.6208477     1745.329     2416.826     2495.399     84.31341     169.0291      337.455      1.442     3.36     979.6832     59.47601     307.1826        11     1.055     0.759 -64.02   3
       528    912.9149    182.0515 307.5564090  +6.6191181     5292.842     10830.39     11739.48      84.5815     168.6939     337.5556      2.155     7.37     981.8783     59.47601     814.6771        38     2.117     0.916 -24.26   0
       529   1017.1025    182.3193 307.5131358  +6.6224720     1203.386     2465.981     2435.561     84.44756     169.0961     335.4025      1.999     6.68     978.4836     59.47601     207.2956        18     1.928     0.649 -20.49  16
       530    456.4797    181.1707 307.7459684  +6.6042602      3326.17     7046.923     7872.588     84.44756      168.761     337.3878      2.214     6.43     989.6072     59.47601     433.8237        36     2.117     1.017 -26.05   0
       531    113.9072    172.5471 307.8885003  +6.5963498     3310.008     7296.726     8053.357     84.44756     168.6939     337.6562      2.278     6.80     1012.567     59.47601     408.2076        39     2.140     1.088 -27.46   0
       532    931.7966    172.2052 307.5488972  +6.6238126     648.4485     1348.351     1802.074     83.90967     168.3581     337.2536      2.027     4.27     980.6224     59.47601     119.1604         6     1.183     0.439 -19.26   2
       533    284.1500    169.2072 307.8179256  +6.6034349     22400.82     48958.17     54907.48     84.04446     168.4925     337.0522      2.273     7.00     1006.601     59.47601     2771.583        71     2.289     1.188 -25.95   0
       534    259.4312    170.2588 307.8281539  +6.6021728      4328.65     9415.314     10587.35     84.31341      168.761     337.3543      2.294     6.60      1007.14     59.47601     544.4506        44     2.203     1.150 -24.80   0
       535    712.8557    168.8214 307.6399256  +6.6179188     647.5002     1309.782     1628.637     84.04446      168.761     337.2201      2.018     5.48     986.3193     59.47601     112.8932        10     1.592     0.531 -32.83   0
       536    408.2186    164.7107 307.7665603  +6.6094439     33289.98     71922.18     80178.78     84.31341     168.4925     337.3207      2.251     6.82     991.7817     59.47601     3865.463        76     2.275     1.208 -25.55   0
       537    164.4082    165.9204 307.8677548  +6.6007800     2603.514     5665.133     6851.643     84.17904     168.2908     337.2536      2.305     6.87     1009.516     59.47601      329.206        31     2.046     0.927 -26.98   0
       538    426.0034    165.3230 307.7591549  +6.6097858     926.8154     1786.614     2005.426     84.04446     168.2236     337.2536      2.152     6.99     990.2991     59.47601     151.7266        15     1.773     0.773 -36.95   0
       539    312.3064    162.4215 307.8064625  +6.6071799      12508.1     26758.68     30596.49     84.44756     168.5597     337.2201      2.304     6.57     1003.662     59.47601     1573.193        64     2.380     1.231 -22.21   2
       540    319.4349    162.4838 307.8035005  +6.6073928     1583.599     3521.964     4757.652      84.5815      168.761     337.3878      2.833     7.70     1002.715     59.47601     184.1298        23     2.009     0.826 -27.98   3
       541    747.4569    160.8804 307.6258233  +6.6223516     22888.21     47356.85     51449.61     84.71522      168.761     337.4214      2.153     7.52      985.288     59.47601     3133.905        67     2.215     1.090 -24.46   0
       542    694.6269    163.6724 307.6476674  +6.6194374     680.9322     1140.594     1650.354     84.17905     168.6939     337.3207      2.182     5.13     986.4662     59.47601     107.5015         7     1.092     0.682 -31.84   2
       543    697.3629    161.6593 307.6465987  +6.6203600     707.4048     1118.859     1249.484      84.5815     168.8281     337.4214      1.790     5.14     986.3215     59.47601     111.5768         5     1.205     0.621  29.53   2
       544    795.8026    161.4119 307.6057299  +6.6237430       800.02     1868.022     2149.127     84.17905     168.4253     337.2536      2.592     6.72      985.288     59.47601     121.7664        15     1.837     0.690 -32.25   0
       545     64.4268    158.1587 307.9095295  +6.6006313      6146.36      13180.5     13857.91     84.17904     168.6268     337.2536      2.190     6.85     1015.231     59.47601     828.6757        45     2.125     1.106 -27.20   0
       546     98.3541    156.2943 307.8955054  +6.6025397     1101.058      2030.19     2497.193     84.44756     168.6939     337.5556      2.108     6.45     1012.851     59.47601     163.0419        15     1.749     0.668 -22.88   0
       547   1004.0532    156.2185 307.5194258  +6.6328173     635.3329     568.4579     234.0947     84.04446     168.8281     337.1865      1.068     2.69     977.1831     59.47601     138.8258         5     0.777     0.492 -32.03   3
       548   1007.7752    154.3975 307.5179410  +6.6336931     677.8538     611.1943     797.0124     84.17905     168.4253     337.2201      1.084     3.75     976.9454     59.47601     141.3679         7     1.021     0.495 -32.21   2
       549   1006.7350    141.5560 307.5188015  +6.6389617     1591.413     3163.429     3790.162      84.5815     168.6939     337.4214      2.116     7.23     976.4638     59.47601      274.798        20     1.939     0.760 -20.85   0
       550    598.1650    137.2926 307.6886067  +6.6271132     1443.067     3195.765     3898.952     84.71522     168.6268     337.4885      2.706     8.15     986.0854     59.47601     221.8099        24     2.138     0.869 -26.22   2
       551    591.8318    138.7346 307.6911882  +6.6263063      822.924     1451.093     2524.493     84.44756     168.8281     337.3543      2.842     4.47     986.1714     59.47601     121.3312         7     1.047     0.542 -30.36   3
       552    283.0466    135.4874 307.8195173  +6.6173229     20351.84     44038.39     50088.92      84.5815     168.6268     337.4214      2.289     6.90     1006.778     59.47601     2511.315        71     2.298     1.208 -24.89   0
       553    714.6348    132.1000 307.6404161  +6.6331430     5589.309     11716.17      13755.3      84.5815     168.6268     337.5891      2.211     7.38     984.3874     59.47601     799.8165        39     2.149     0.956 -26.18   0
       554    125.5105    129.1512 307.8851436  +6.6146595     3341.375     7087.405     8031.813      84.5815     168.5597     337.5891      2.205     6.97      1011.09     59.47601      449.646        35     2.166     0.981 -27.66   0
       555     28.5097    133.8972 307.9252601  +6.6094443     3072.389     6468.133     6647.193      84.5815     169.2299     337.4214      2.145     6.31     1017.447     59.47601     369.8632        35     2.089     1.025 -29.89   0
       556    587.4274    127.2118 307.6934033  +6.6309177     508.2546     971.0016      1163.87     84.17905     168.5597     337.3543      2.261     5.00     985.8586     59.47601     100.5486         5     1.091     0.649  24.22   0
       557    464.9919    126.2992 307.7442752  +6.6272047     889.2801     1556.677     1036.873     84.31341     168.3581     337.2201      1.922     7.20     987.4546     59.47601     142.8118        16     1.807     0.802 -24.01   0
       558    396.2360    125.2597 307.7728606  +6.6253349     2611.901     6042.971     6539.422      84.5815      168.761     337.3878      2.321     7.06     992.8893     59.47601     290.6824        37     2.018     1.247 -30.75   0
       559    360.7616    124.0900 307.7876303  +6.6246311     2131.523     4454.921     5223.633      84.5815     168.6939      337.455      2.282     6.76     996.8788     59.47601     252.1766        30     2.067     0.952 -30.17   0
       560    114.8511    124.1574 307.8897378  +6.6163641      1301.14     2695.748     2985.087      84.5815      168.761     337.4214      2.135     7.59     1011.656     59.47601     175.6156        21     1.847     0.874 -29.17   0
       561    654.5711    125.4291 307.6655813  +6.6338947     570.3588     1210.097     811.2364     84.04446     168.4925     337.1529      2.124     4.17     984.8502     59.47601     92.46344         5     1.008     0.492  -3.44   0
       562    677.6566    121.3604 307.6561312  +6.6363450     601.5443     970.3614      1217.31      84.5815     168.8281     337.4214      1.802     3.75     984.2278     59.47601     107.4839         5     1.014     0.398 -16.70   0
       563   1006.0458    118.6464 307.5198524  +6.6483999     997.5748     1794.211     1775.733      84.5815     168.6268      337.455      2.336     5.41     975.5075     59.47601     167.2769        11     1.365     0.606 -37.54   2
       564    212.6051    112.9744 307.8495240  +6.6242599     3620.415     8161.181     9165.679     84.04446     168.5597     337.2536      2.284     7.32     1007.863     59.47601     435.9984        39     2.181     1.056 -28.88   0
       565    674.2949    111.8224 307.6578466  +6.6401718     4170.693     8806.255     9858.005      84.5815     168.5597     337.2536      2.204     7.39     983.6917     59.47601     601.3251        42     2.222     1.020 -24.65   0
       566     96.8045    112.3575 307.8976286  +6.6206314     1455.063     3256.294     3784.023     83.90967     168.4253     337.1193      2.635     8.15     1012.545     59.47601     310.5571        18     1.606     1.155 -25.76   2
       567    822.4239    111.6773 307.5963384  +6.6451687     724.1716     1255.417     1117.766     84.17905     168.6268     337.3878      1.902     5.98     981.6205     59.47601     110.7889        12     1.697     0.592 -21.34   0
       568    626.4373    109.1137 307.6778108  +6.6396937     6457.856     13561.03     15184.96      84.5815     168.6939     337.4214      2.238     7.34     984.6995     59.47601     835.8004        45     2.234     1.019 -27.56   3
       569    629.9324    100.6014 307.6766446  +6.6433257     36381.04      76889.7     85080.31     84.04446     168.2908     337.2201      2.195     7.26     984.2551     59.47601     4758.453        77     2.268     1.120 -24.90   2
       570     25.8635    107.7324 307.9272407  +6.6201602     802.8619      1745.74     2121.252      84.5815      168.761     337.4885      2.108     6.85     1017.403     59.47601     121.0624        12     1.737     0.758 -23.59   0
       571    353.3695    104.8724 307.7913454  +6.6323198     2587.656     5713.575      6663.73     84.44756      168.761     337.3878      2.308     6.75     997.6299     59.47601     338.5208        36     2.129     1.111 -25.95   0
       572    535.1780    104.1840 307.7158723  +6.6386827      1180.35     2529.367     2780.623     84.31341     168.5597     337.3543      2.085     7.20     985.7123     59.47601     154.5283        19     1.985     0.731 -24.86   0
       573    999.6357    103.5227 307.5230192  +6.6544326     529.3894     937.5264     1006.691     84.44756     168.8281      337.455      2.063     5.15     975.0988     59.47601     92.52234         8     1.914     0.391 -33.35   0
       574    309.0354     94.4570 307.8101050  +6.6351369     2383.768     5218.379     6536.987     84.44756      168.761      337.455      2.380     7.06       1003.7     59.47601     304.6134        33     2.145     1.018 -25.33   0
       575    680.2091     88.1471 307.6561835  +6.6501462     888.1294      1822.02     2134.665     83.90967     168.6268     337.1193      2.029     6.42     982.5054     59.47601     140.5898        13     1.828     0.632 -24.25   0
       576    796.3287   1019.3408 307.5768362  +6.2694539     4433.961     5854.108     6132.588     84.71523      168.761     316.6895      1.399     3.43     1020.368     59.47601     680.9965        15     1.215     0.655 -48.89  19
       577    692.5312     85.4688 307.6511561  +6.6516632     1859.188      2433.08     2456.684      84.5815     168.8951     337.3878      1.417     2.82     982.3289     59.47601     298.9908        12     0.953     0.809 -65.44   3
       578    695.9893     83.9821 307.6497699  +6.6523925     2007.242     3039.939     3200.623     84.17904     168.4253     337.2872      1.537     4.27     982.2727     59.47601     275.1246        18     1.304     0.932 -20.19   3
       579    435.9631     75.7522 307.7580262  +6.6471082     2750.849     5874.422     6812.482     84.31341      168.761     337.3207      2.332     6.71     989.0641     59.47601     338.2064        36     2.201     1.009 -25.37   0
       580    906.6841     71.6720 307.5626843  +6.6644947     2199.952     2526.969     2648.887     84.71522     169.0961      337.455      1.265     2.71     977.0225     59.47601     354.4729        14     1.001     0.855 -71.83   3
       581    910.0483     70.4703 307.5613273  +6.6651029     2745.181      3699.66      3831.69      84.5815     168.6939      337.455      1.413     4.41     976.8535     59.47601     372.9686        16     1.296     0.794 -40.36   3
       582    890.5806     71.7503 307.5693692  +6.6639265     1582.755     3152.689     2878.944     84.04446     168.8281     337.2536      2.013     7.30     977.3594     59.47601     211.5118        22     1.952     0.765 -19.56   0
       583    600.5261     69.5319 307.6898973  +6.6551749     1326.066     2616.382     2622.601     84.71523     168.8951     337.3878      2.026     6.78     983.8171     59.47601     199.9174        17     1.773     0.728 -20.03   0
       584    399.4948     67.3541 307.7734520  +6.6493566      1371.81      2757.66     2961.002     84.44756     168.6939     337.5556      2.073     7.72     992.4477     59.47601     200.2321        22     1.914     0.872 -27.83   0
       585    247.7604     67.5148 307.8364553  +6.6442106     670.9293     1360.061     2126.533      84.5815     168.6939     337.3878      2.271     4.34     1006.822     59.47601     88.96991         6     1.103     0.487   6.46   0
       586    147.7700     64.2800 307.8780849  +6.6421947      2195.63     4595.712     5119.649     84.44756      168.761     337.3878      2.305     7.60     1009.061     59.47601     277.1249        28     2.022     0.912 -28.29   0
       587     29.3043     62.1817 307.9273474  +6.6390858     8187.452     17744.48     20255.59     84.44756     168.5597     337.1865      2.286     6.99      1015.05     59.47601     1088.507        51     2.216     1.128 -27.10   0
       588    297.2521     62.3560 307.8160771  +6.6479987     930.4814     1813.912     2212.377      84.5815     168.6939      337.455      2.222     5.44     1005.266     59.47601     142.6185         9     1.151     0.725  -0.86   2
       589    829.3188     57.3731 307.5952911  +6.6678243     3654.898     5136.075     5156.904     84.44756     168.5597      337.455      1.487     2.66     977.7462     59.47601     587.6301        15     1.063     0.778 -59.16   3
       590    832.3720     56.3075 307.5940588  +6.6683661     4224.638     5629.483     6185.359     84.71523     168.4925     337.2872      1.438     3.06     977.5956     59.47601     647.4673        18     1.199     0.819 -46.80   3
       591    776.1132     56.9949 307.6173994  +6.6662082     2410.051     5019.803     5342.589     84.04446     168.4253     337.1193      2.141     7.85     979.2686     59.47601     310.4019        27     1.966     0.877 -23.56   0
       592     69.6519     54.1501 307.9108642  +6.6437569     2111.645     4717.936     5038.166     84.71522     168.6268     337.3878      2.247     7.69     1012.344     59.47601     296.4706        30     2.125     0.907 -25.39   0
       593    422.7139     57.0045 307.7641575  +6.6544072     727.9321     1277.528     1943.844     84.04446     168.4253     337.1193      2.395     5.36     990.0225     59.47601     93.09692         8     1.026     0.791  -7.84   2
       594    539.7747     54.5842 307.7156268  +6.6593191     756.2131     1232.636     1531.947     84.31341     168.6268     337.3543      1.955     5.16     984.5776     59.47601     99.92993         8     1.122     0.671 -34.33   0
       595    431.3523     53.5618 307.7606858  +6.6561177     704.9836     1169.594     1150.253     84.44756      168.761     337.2872      2.036     5.38     989.4617     59.47601      107.483         9     1.365     0.599 -29.43   0
       596    593.5114     50.6573 307.6934430  +6.6627352     858.1121     1878.574     1663.927      84.5815     168.6939     337.5556      2.318     6.59     983.2513     59.47601     117.0791        13     1.767     0.691 -22.60   0
       597     10.5625     50.4418 307.9355254  +6.6433043     1466.801     2201.378     2358.501     84.31341      168.761     337.2872      1.740     3.19      1015.31     59.47601     248.8051        13     1.000     0.883 -51.76   3
       598     13.7932     49.1126 307.9342287  +6.6439617     1742.522     2115.635     2397.579     84.04446     168.4253     337.1529      1.332     3.31     1015.087     59.47601     231.8788        12     0.948     0.847  -9.56   3
       599    768.5856     45.6930 307.6209037  +6.6706247     1192.594     1659.439      1818.42     84.31341     168.4925     337.2536      1.398     3.52     978.8184     59.47601      211.479        10     1.098     0.656 -66.95   3
       600    771.9666     44.4781 307.6195402  +6.6712391     1161.017     1528.287     1993.724     84.44756      168.761     337.3878      1.373     3.92     978.5928     59.47601     217.1082         8     1.114     0.549 -45.19   3
       601    106.2105     45.0230 307.8959908  +6.6487528     423.6098      915.132     1310.554     84.17904     168.5597     337.2872      1.850     3.57     1010.223     59.47601     72.76532         5     1.306     0.281 -35.12   2
       602     97.4429     38.3741 307.8998555  +6.6512042     6250.972      13598.4     14735.35     84.17905      168.761     337.2872      2.203     7.11     1010.292     59.47601     856.7703        43     2.138     1.068 -24.97   0
       603    426.6524     38.0986 307.7631568  +6.6623462     1683.975      3408.89     3403.731     84.44756      168.761     337.6226      2.194     6.78     989.7606     59.47601     250.1823        26     2.096     0.854 -25.39   0
       604    640.0818     30.3772 307.6747827  +6.6726646     12495.48     26415.05     29237.08     84.31341     168.4253     337.3207      2.182     7.17     981.7491     59.47601      1694.29        52     2.179     1.072 -27.00   0
       605    263.9595     32.2131 307.8309158  +6.6593313     974.5715     2252.963     3493.164     84.04446     168.5597     337.1529      2.959     8.71     1006.342     59.47601      146.535        20     2.006     1.056 -28.18   0
       606    538.4020     27.2771 307.7171128  +6.6705501     3008.362     4793.074     5116.784     83.90967     168.2236     337.2201      1.705     4.24      983.998     59.47601     462.7178        19     1.441     0.886 -59.14   3
       607    541.4705     26.0187 307.7158807  +6.6711723     3280.828     4578.562       4544.1     84.17904     168.6268     337.3543      1.483     3.71     983.8616     59.47601     477.0221        19     1.293     0.865 -53.29   3
       608    258.5024     26.9850 307.8333577  +6.6613074     1277.288     2805.852      4055.52     84.44756     168.4925     337.1865      2.315     7.05     1006.312     59.47601     156.7018        19     2.023     0.689 -14.78   3
       609    799.5109   1018.0212 307.5755598  +6.2701048      4906.39     6450.138     7296.618      84.5815     168.5597     328.9964      1.425     3.23      1020.17     59.47601     785.7661        20     1.248     0.828 -47.56  19
       610    896.0223   1015.5607 307.5355926  +6.2743323     1044.305     2516.239     2327.017     84.17904     168.5597     337.2201      2.107     6.39     1017.086     59.47601     217.3553        14     2.025     0.566 -22.08  16
       611      6.0056     25.2256 307.9382678  +6.6535641     743.9208     1472.497     1470.566     84.04446     168.5597     320.1025      2.228     4.50     1013.932     59.47601     114.0638         7     1.078     0.534 -34.88  18
       612    218.8497   1013.8123 307.8166476  +6.2524571     1620.174     3133.728      3584.62     83.90967     168.6939     337.1193      2.034     7.21     1031.772     59.47601     257.4863        21     1.899     0.768 -25.72  16
       613    921.3759     22.7924 307.5582161  +6.6851694     1150.678     1397.986     1111.532     84.04446     168.6268     337.2536      1.259     3.51     974.3889     59.47601     211.1001         7     0.934     0.502 -47.61   3
       614    924.8876     21.3803 307.5568049  +6.6858694     1508.259     2050.029     1837.284     84.31341     168.4925     337.3207      1.435     3.95     974.3051     59.47601     224.0829        12     1.153     0.742 -27.86   2
       615    326.5429     22.3815 307.8052574  +6.6654871     724.8878     1471.267     1536.447     84.04446     168.6939     337.1865      2.505     5.35     1001.076     59.47601        107.9         6     1.035     0.781  40.82   0
       616    252.6677     19.6836 307.8360263  +6.6641271     1682.333     2560.838      2953.67     84.71523     169.0291      337.455      1.645     4.52     1006.253     59.47601     208.4451        14     1.245     0.836 -49.68   3
       617    255.4995     18.5370 307.8348889  +6.6646955     1876.138     2870.588      3662.61     84.31341     168.8281      337.455      1.751     5.75      1006.24     59.47601     243.2816        15     1.367     0.951  41.70   3
       618    626.2887     20.0351 307.6808574  +6.6764752     2093.577     4787.969     6631.392      84.5815     168.6939     337.4214      2.612     8.27     981.5515     59.47601      272.384        28     2.135     0.896 -20.70   0
       619    308.9848     16.5273 307.8127456  +6.6673168     651.0516     778.4092     561.0986     84.04446     168.5597     337.3207      1.298     3.80     1003.496     59.47601     81.84021         6     0.831     0.499  -0.66   0
       620    721.7464   1011.2294 307.6080564  +6.2703198     5522.359     11168.41     12033.18     84.31341     168.8281     337.3543      2.088     8.12     1022.738     59.47601     858.5734        36     2.124     0.868 -25.02  16
       621    436.7581   1011.3274 307.7263113  +6.2607712     2860.141      5801.73     6580.554     84.44756     168.8281      337.455      2.086     7.54     1029.326     59.47601     487.9358        27     2.114     0.753 -26.87  16
       622    577.9411   1010.2638 307.6677624  +6.2659241     3053.502     6507.321     7741.246     84.71522     168.6939      337.455      2.246     8.03     1026.552     59.47601     481.0599        30     2.046     0.882 -26.85   0
       623    714.3403   1010.3597 307.6111587  +6.2704322      907.221     1861.943     2020.583      84.5815      168.761     337.4885      1.901     6.24     1022.877     59.47601     181.1218        14     1.830     0.598 -24.34   0
       624    752.0410   1007.2366 307.5956185  +6.2729779     939.3834     1778.194     2477.669     84.31341      168.761     337.2872      2.669     3.19     1021.645     59.47601     204.3346         9     1.099     0.540 -18.28   2
       625    959.5012   1001.4697 307.5097205  +6.2822624     4259.293       5091.6     5271.245     84.44756     168.8951     337.4214      1.269     2.89     1015.166     59.47601     641.5076        16     1.003     0.852 -27.37   3
       626    962.8380   1000.3533 307.5083730  +6.2828343     4806.658     6608.682     6730.429     84.44756     168.6939     337.2872      1.463     3.29     1015.053     59.47601     791.4976        20     1.159     0.954 -22.97   3
