#   1 NUMBER                 Running object number                                     
#   2 X_IMAGE                Object position along x                                    [pixel]
#   3 Y_IMAGE                Object position along y                                    [pixel]
#   4 ALPHA_J2000            Right ascension of barycenter (J2000)                      [deg]
#   5 DELTA_J2000            Declination of barycenter (J2000)                          [deg]
#   6 FLUX_APER              Flux vector within fixed circular aperture(s)              [count]
#   9 FLUXERR_APER           RMS error vector for aperture flux(es)                     [count]
#  12 FLUX_RADIUS            Fraction-of-light radii                                    [pixel]
#  13 FWHM_IMAGE             FWHM assuming a gaussian core                              [pixel]
#  14 BACKGROUND             Background at centroid position                            [count]
#  15 THRESHOLD              Detection threshold above background                       [count]
#  16 FLUX_MAX               Peak flux above background                                 [count]
#  17 ISOAREA_IMAGE          Isophotal area above Analysis threshold                    [pixel**2]
#  18 A_IMAGE                Profile RMS along major axis                               [pixel]
#  19 B_IMAGE                Profile RMS along minor axis                               [pixel]
#  20 THETA_IMAGE            Position angle (CCW/x)                                     [deg]
#  21 FLAGS                  Extraction flags                                          
         1    731.2140     18.7612 307.6453625  +6.6898563     6590.517     10950.69     11416.42     82.47285     165.1432     330.2864      1.769     4.02     938.1959     58.27051     874.3001        37     1.570     1.129  42.72   0
         2    651.4604     17.9912 307.6785240  +6.6875018     3312.527     5429.073     5492.067     82.20894      165.209     330.3193      1.787     4.21     940.5295     58.27051     428.9905        28     1.588     1.048  42.67   0
         3    353.4774     18.2073 307.8023182  +6.6774082     882.0813      1403.37     1549.393     82.47285     164.8139     330.3851      1.884     6.58     956.1057     58.27051     108.0732        12     1.534     0.793  65.30   0
         4    451.6167     14.1709 307.7616813  +6.6823727      5297.78     9837.312     10917.94     82.47285     165.0774     330.5166      1.960     4.46     944.6914     58.27051     621.4624        40     1.680     1.241  48.89   0
         5     52.6171     13.8655 307.9274558  +6.6690681     7326.192     13187.35     13816.77       82.341      165.209     330.4508      1.925     4.29     966.2308     58.27051     965.0748        44     1.723     1.235  46.73   0
         6    698.9523     13.7166 307.6589359  +6.6908579     735.5068     1172.798      1293.88     82.86714     165.3405     330.5823      1.655     6.69     938.9774     58.27051     113.3427        12     1.405     0.892 -85.72   0
         7    527.5625     11.0911 307.7302320  +6.6861941     870.8309      1294.08     1509.687     82.99816     165.2747     330.6152      1.891     5.97     942.5485     58.27051     131.4855        11     1.423     0.705  45.63   0
         8    348.2460      9.1792 307.8047958  +6.6809589     10833.29     19629.01     21416.35     82.47285     165.3405      330.418      1.944     4.28     956.6669     58.27051     1255.755        50     1.710     1.301  41.21  16
         9    121.8277      9.6977 307.8988438  +6.6731221     2129.714     3841.145     3750.141     82.99816     165.0774     330.5495      1.900     4.41     965.5365     58.27051     282.0447        25     1.453     1.126  38.02  16
        10    113.4651      8.6244 307.9023543  +6.6732832     1356.586     2237.754     2053.012     82.47285     165.3405     330.5166      1.682     3.80     965.8309     58.27051     219.6491        16     1.238     0.929  55.40   0
        11    414.5236      7.2557 307.7773249  +6.6839809     2084.824     3822.727     3758.345     82.86715     165.3405     324.5453      1.839     5.06     947.4752     58.27051     248.1997        23     1.608     0.981  53.00  16
        12    675.2148      2.7620 307.6691661  +6.6945845     9578.285     15333.62     15963.86     82.60449     151.1982     271.9379      1.714     4.43     939.2705     58.27051     1186.579        36     1.599     1.105  33.61  24
        13   1009.4617      3.9688 307.5302500  +6.7052687       708.75     1118.622     1379.604     82.60449     162.9575     289.3974      1.794     5.37     923.7502     58.27051     104.2623        10     1.230     0.662  37.05  16
        14    839.7585      2.2989 307.6008163  +6.7002854     1608.777     2464.933     3200.685     82.07666     145.6343     265.0175      1.718     4.58     933.7687     58.27051     214.2491        14     1.402     0.770  44.67  24
        15    552.7160      2.7734 307.7200612  +6.6904717     1058.863     1678.965     1058.939     82.99816     151.4854     272.0578      1.693     5.76     942.2742     58.27051     139.5563        14     1.325     0.895  72.16  24
        16    275.6458      1.3836 307.8352209  +6.6817345     2311.665     2893.906     2789.349     72.36813     132.0158      249.474      1.177     3.08     964.7042     58.27051     509.5242        12     1.171     0.546  -0.62  24
        17    910.6500      1.2664 307.5713962  +6.7030825     718.7042      880.269     1541.567     71.15686      130.276      247.638      0.918     2.62     932.7547     58.27051     197.0108         6     0.859     0.442  -1.61  24
        18    551.6491    998.3134 307.6870540  +6.2794761     4051.626     6693.882     7000.459     82.86715     165.2747     330.6481      1.778     4.44     983.1005     58.27051     572.3675        30     1.573     1.067  42.58   0
        19    978.9442   1023.3631 307.5088237  +6.2834322     3863.678     5494.466     5475.446     75.88602     136.3879     254.0487      1.440     4.24     972.5313     58.27051     698.4923        19     1.535     0.673   9.62  24
        20    739.0090   1022.5670 307.6084593  +6.2757403     2644.234     3939.891     4394.885       82.341     147.2665     266.7339      1.664     4.65     978.1635     58.27051     432.9447        20     1.455     0.863  27.98  26
        21    732.4201   1023.8329 307.6111522  +6.2749972     563.9387     990.0398     1487.329     68.98598     128.3434     245.6999      1.815     4.66     978.4146     58.27051     96.82507         7     1.396     0.441 -11.95  27
        22    462.5073   1023.3348 307.7232196  +6.2661570     851.3406     1022.191     911.6912     76.02907     136.7061     254.6041      1.257     3.90     983.9713     58.27051     131.6024         7     0.947     0.515  29.51  24
        23    263.4443   1023.3785 307.8058537  +6.2594525     792.1929      1180.05     1172.154     75.45525      135.909     253.6207      1.549     4.43     986.9194     58.27051     120.5672         8     1.252     0.445   9.45  24
        24    661.1230    997.2582 307.6416418  +6.2835803     1377.665     2448.313     2716.201     82.99816     165.3405     330.5166      1.730     5.21     980.7497     58.27051     201.2296        17     1.400     0.911  48.71   0
        25     86.3913    997.0902 307.8802368  +6.2643459     746.4871     880.2114     1220.363     82.47285     165.0116     330.3522      1.423     4.43      988.442     58.27051     172.4845         7     1.275     0.438  63.50   0
        26    816.8968    996.4410 307.5769993  +6.2891310     574.3391     974.4289     1149.715     82.86714      165.209     330.7466      2.052     4.98     976.4647     58.27051     86.68683         6     1.541     0.456  36.44   0
        27    504.9370    994.8527 307.7065624  +6.2793381     2010.013     3475.139     3306.252     82.86714     165.2747     330.5495      1.760     4.70      983.163     58.27051     275.6555        23     1.529     1.077  40.29   0
        28    939.2788    986.8252 307.5265129  +6.2971909     41912.83     69378.45     73198.34     82.60449      165.209     330.5495      1.763     4.23     973.1791     58.27051     5886.301        72     1.731     1.232  48.42   0
        29    345.0187    988.8749 307.7731514  +6.2764371     561.4146     745.6647     411.1209       82.341     165.0774     330.5166      1.533     3.85     986.8906     58.27051     90.77002         5     0.827     0.514  64.04   0
        30     12.0901    986.3683 307.9114419  +6.2662684     3005.624     4983.057     4711.291     82.99816     165.1432     330.5823      1.759     4.31     988.7501     58.27051     436.6979        29     1.743     1.034  55.44   0
        31    246.4667    985.1549 307.8141886  +6.2746601     1637.131     2870.853     3057.429     82.86714     165.2747     330.6152      1.848     5.28     986.7417     58.27051      224.811        17     1.415     0.971  49.39   0
        32    645.4836    983.8930 307.6485828  +6.2885737     812.9931     1457.616     1553.413     82.60449     165.7343     330.7138      1.954     6.68     980.9514     58.27051     113.3156        12     1.215     1.031  66.02   0
        33    785.4416    978.6008 307.5906557  +6.2954436     6307.187      10494.3     11503.13     82.20894     165.0116     330.2535      1.826     4.25     976.7456     58.27051     961.5609        42     1.828     1.263  75.57   0
        34    134.4825    983.4859 307.8607321  +6.2715810     482.2479      976.875     715.2132     82.60449     165.5375     330.6809      2.170     4.84     987.2438     58.27051     102.3958         7     1.865     0.356  45.06   0
        35    837.5043    980.7511 307.5689692  +6.2962971     2236.228     3565.517     3172.107     82.73592      165.209     330.7466      1.692     4.08     976.0717     58.27051     337.4897        21     1.381     1.010  59.77   0
        36    254.8577    977.5413 307.8109616  +6.2780851     1462.072     2405.841     2451.237     82.86714     165.2747     330.6152      1.699     5.37     986.7595     58.27051     213.1832        15     1.355     0.911  57.41   0
        37    572.4169    977.7642 307.6791222  +6.2886551     876.5206     1512.024     1727.953     82.47285     165.1432     330.3522      1.907     5.09     982.3304     58.27051     107.3174         9     1.133     0.646  61.08   0
        38    219.9426    977.2239 307.8254666  +6.2770418     786.9172     1364.605      1845.73     82.47285     165.3405     330.3851      1.951     4.66     986.6582     58.27051     117.7249         8     0.984     0.626 -64.51   0
        39     79.8931    975.7353 307.8836546  +6.2729421     2625.765     3989.575     4130.106     82.73592     165.5375     330.6152      1.658     4.56     988.0479     58.27051     363.9232        23     1.427     1.033  43.03   0
        40    973.6188    973.5605 307.5126996  +6.3038135     6576.616     10712.66     11448.13     82.47285     165.1432     330.3193      1.798     4.54     971.0675     58.27051       946.83        33     1.583     1.071  40.51   0
        41    656.6935    968.5876 307.6444423  +6.2952673     604.7021     1021.939     959.7136     82.60449     165.0774     330.3851      1.620     3.91     980.4937     58.27051     90.73193         6     0.954     0.458  86.45   0
        42    947.3548    965.0327 307.5238888  +6.3064569     1938.908      3125.94     3392.238     82.60449     165.3405      330.418      1.777     4.33     971.8311     58.27051     307.6664        21     1.447     0.899  48.12   0
        43      5.7013    963.6755 307.9148599  +6.2754203     979.9437     1588.631      1889.08       82.341     165.4718     310.4807      1.887     5.93     988.9059     58.27051     149.9429        14     1.424     0.773  53.60  16
        44    668.0780    961.2132 307.6399633  +6.2986929     4414.722     7180.086     7626.324     82.47285     165.0116     330.3851      1.711     4.24     980.2087     58.27051     681.3788        30     1.540     1.048  47.58   0
        45    280.2523    961.3419 307.8009648  +6.2856260     4149.158     6855.769     6983.624     82.86715     165.3405     330.5823      1.764     4.82     986.7734     58.27051     659.9448        31     1.632     1.049  45.81   0
        46    807.0535    961.7891 307.5822463  +6.3031065     1244.531     1624.179     1453.976     82.20894     165.2747     330.2864      1.572     5.69     976.1942     58.27051      201.649        10     1.259     0.725  52.80   0
        47   1017.3071    960.7037 307.4949912  +6.3105795     591.7353     739.4505     1194.037     82.86715     165.8654     327.3787      1.546     3.50      968.926     58.27051      99.4469         5     1.192     0.297  53.84  16
        48    490.6089    960.1232 307.7136773  +6.2931938     1111.052     1632.115     1349.703     82.47285     164.8139     330.3851      1.472     4.13      983.007     58.27051     174.5951        11     1.212     0.742  60.33   0
        49     49.0769    958.7923 307.8970187  +6.2788978      2153.49     3399.371     3786.432     82.47285     164.8139     330.3851      1.669     4.16      988.222     58.27051     295.4657        22     1.370     1.065  51.36   0
        50    900.0273    957.6379 307.5437853  +6.3079284     811.7812     1209.672     1216.101     82.47285     165.1432      330.418      1.549     3.37     973.4695     58.27051     162.9081         5     0.801     0.411  21.20   0
        51    592.8031    953.6238 307.6714690  +6.2993037     1731.966     2759.571     2771.896     82.47285     165.0116     330.3851      1.698     4.77     981.3704     58.27051     281.7495        16     1.469     0.833  39.75   0
        52    631.7611    950.0858 307.6554139  +6.3020698     1171.701     1758.678     1791.226     82.86714     165.3405     330.5823      1.539     5.39     980.6005     58.27051     182.9075        12     1.523     0.654  43.47   0
        53     82.2533    951.3821 307.8834963  +6.2830744     669.4733     993.2022     1493.584       82.341     165.4062     330.3522      1.529     3.38     987.5137     58.27051     115.3744         5     0.742     0.447  18.85   0
        54    311.9754    947.7145 307.7882539  +6.2923176     1477.063     2521.713     2790.875     82.86714     165.0774      330.418      1.915     4.85     986.5684     58.27051     217.0974        22     1.563     1.024  47.42   0
        55    779.2647    944.0655 307.5943770  +6.3094934      868.163      1216.98     723.1464     82.86714     165.3405     330.5495      1.289     3.92     976.6251     58.27051     140.5378         7     0.898     0.666  79.26   0
        56    916.2744    940.4039 307.5376165  +6.3155857     6637.597     11239.36     11200.44       82.341     164.8139     330.4837      1.809     4.53     971.9273     58.27051     1008.777        39     1.703     1.098  43.92   0
        57    452.2709    937.6699 307.7303480  +6.3011761      2192.62     3513.446     3899.564     82.86715     165.4718     330.5495      1.774     3.88     983.2199     58.27051      317.525        22     1.368     1.048  37.64   0
        58    353.8719    935.9884 307.7712553  +6.2985660     9161.804     15116.31     16092.33       82.341     164.9457     330.3851      1.746     4.25     986.0568     58.27051     1198.302        41     1.577     1.162  46.73   0
        59    273.9962    934.9163 307.8044517  +6.2963240     6659.312     10948.49     11538.84       82.341     164.9457     330.2864      1.722     4.13     986.6638     58.27051     926.6333        35     1.632     1.048  42.62   0
        60    602.0800    929.6233 307.6684231  +6.3095222     1222.246      1880.01     2131.922     82.47285     165.0116     330.5495      1.669     5.09     980.6044     58.27051     208.1528         9     1.241     0.589  48.65   0
        61    786.9724    929.2816 307.5916722  +6.3158542     623.8703     924.6644     681.8457     82.73592     165.1432     330.5166      1.514     3.06     976.3712     58.27051     109.5554         5     0.786     0.486  51.91   0
        62    932.8218    926.2499 307.5312198  +6.3219815     989.6666     1441.583      1726.57       82.341     165.4062     330.4508      1.544     4.78     970.5588     58.27051     125.5363         9     0.965     0.670  68.23   0
        63    889.0820    924.9254 307.5494242  +6.3210668       746.53     845.4594     676.5261     83.12897     165.6687     330.6481      1.176     3.97     972.5712     58.27051      112.422         6     0.763     0.592 -44.21   0
        64    430.8190    923.5066 307.7397300  +6.3063026     581.0438      563.996     981.1245     82.73592     165.0774      330.418      1.247     3.65     983.1099     58.27051     88.54486         5     1.026     0.373 -84.36   0
        65    999.8516    921.4370 307.5035508  +6.3262067     764.1364     1197.776     1425.839     82.73592     165.3405     330.5495      1.819     4.42       968.39     58.27051     127.1859         7     1.027     0.541 -77.56   0
        66    768.6208    918.6400 307.5996479  +6.3196333     1446.157     2531.183     2675.636     82.47285     165.1432     330.3522      1.907     5.87     976.1182     58.27051     232.3911        19     1.527     1.024  59.69   0
        67    632.5276    915.5014 307.6562560  +6.3163721     694.5256     839.4451     732.8157     82.60449     165.4718     330.5823      1.524     4.92     979.8889     58.27051     89.36401         6     0.915     0.749 -76.40   0
        68     19.5521    915.8389 307.9107248  +6.2956335     924.5073     995.7878     712.4962     82.73592     165.4062      330.418      1.313     3.60     988.3143     58.27051     160.3165        12     0.994     0.905  37.77   0
        69    999.9379    914.4426 307.5037488  +6.3290970     1143.283     1688.879     2009.531     82.86714     165.2747     330.6809      1.535     3.92     968.1183     58.27051     153.4446        14     1.176     0.851  55.08   0
        70    644.4513    915.3185 307.6513117  +6.3168471     508.2624     635.9404    -90.22879     82.86715     165.3405     330.5823      1.344     3.47      979.705     58.27051      101.304         5     0.779     0.448  70.07   0
        71    554.1586    914.6939 307.6888197  +6.3140787     1042.706     1446.619     1924.754     82.99816     165.2747     330.6809      1.447     3.11      981.342     58.27051      188.498         9     0.887     0.721 -87.28   0
        72    686.9794    911.8640 307.6337709  +6.3196976     2337.514     3633.758     3851.438     82.47285     165.3405     330.4508      1.610     4.32      978.534     58.27051     336.5032        22     1.436     1.009  50.04   0
        73     83.7021    908.0695 307.8843559  +6.3010021     2656.558     4615.469     4435.798     82.73592     165.4718     330.5823      1.820     4.49     986.6919     58.27051     362.9988        25     1.446     1.173  53.48   0
        74    847.9344    908.6347 307.5670533  +6.3264163     786.2399     964.2755     501.2126     82.73592     165.3405     330.6152      1.457     5.30      973.399     58.27051     141.9271         9     1.230     0.644  51.40   0
        75    227.3191    907.0449 307.8247683  +6.3062594      2152.76     3704.094     3620.854     82.86714     165.3405     330.5495      1.783     4.50     986.4952     58.27051     324.5201        23     1.560     0.928  47.06   0
        76    965.5487    907.4692 307.5182601  +6.3308275     900.7339     1259.812     1534.168     82.73592      165.209     330.5495      1.639     4.78     968.9375     58.27051     116.3397         8     1.158     0.559  51.61   0
        77    101.1066    907.2789 307.8771572  +6.3019147     1766.401      2730.74     3224.061     82.60449     165.5375     330.6481      1.716     5.12     986.4039     58.27051     230.9113        16     1.342     0.827  42.27   0
        78    261.1230    903.8022 307.8108437  +6.3087349     652.0157     1056.647      1049.01     82.20894     164.8139     330.3851      1.742     6.03     986.5534     58.27051     135.9553        11     1.491     0.805  44.09   0
        79    819.5359    902.2384 307.5790582  +6.3281072     646.6362     852.1274     755.5355     82.86715     165.2747     330.6809      1.463     4.14     973.9283     58.27051     125.3776         7     1.006     0.614 -63.57   0
        80    681.6022    901.0223 307.6363670  +6.3239930     6843.288     10910.32      11397.5     82.47285     165.0116     330.3193      1.708     4.13     978.2905     58.27051     1013.334        34     1.563     1.093  39.64   0
        81     41.5446    898.9832 307.9021638  +6.3033325     984.7112     1541.661     1506.921       82.341     165.2747     330.3193      1.559     5.49     987.3694     58.27051     158.6031        13     1.242     0.862  20.70   0
        82     55.0403    897.8071 307.8966009  +6.3042727     1037.009     1488.537     1669.916     82.20894     165.0116     330.2535      1.607     4.70     987.0955     58.27051      163.413        13     1.333     0.868  47.34   0
        83    919.3215    897.2808 307.5377941  +6.3334893     2608.159     4141.466     3770.894     83.12897     165.6031     330.7466      1.679     5.23     970.1984     58.27051     423.0982        21     1.455     0.916  38.28   0
        84    364.5811    894.1911 307.7682154  +6.3161797     15488.41     25547.96     27363.78     82.60449     165.0116     330.3851      1.776     4.40     985.1538     58.27051     2183.778        45     1.650     1.131  45.26   0
        85     99.3518    895.5760 307.8782804  +6.3066864     1202.201     1840.609     2635.328     82.47285     165.3405     330.4837      1.681     3.81     986.2713     58.27051     167.1944        12     1.131     0.769  69.44   0
        86    235.6067    893.4930 307.8217841  +6.3121324     1126.347     1629.454     1701.477     82.47285     165.0116     330.3851      1.670     5.63      986.432     58.27051      150.538        12     1.439     0.620  39.25   0
        87    442.1135    885.3802 307.7363226  +6.3224204     1129.175      1946.03     2293.407     82.60449     165.0774     330.5166      1.937     6.87     982.8645     58.27051     184.9374        18     1.546     1.165  39.55   0
        88    127.9342    884.9992 307.8667712  +6.3120150     1621.549     2434.202     2453.083     82.07666     164.9457     330.3193      1.569     5.46     986.2073     58.27051     222.8488        17     1.524     0.897  31.20   0
        89    696.3445    881.5946 307.6308977  +6.3325067     874.9947     1269.163     1338.443       82.341     165.1432     330.2864      1.523     5.77     976.7283     58.27051     109.8257        10     1.275     0.734  32.43   0
        90    880.4446    878.6788 307.5545581  +6.3398693     1923.791     3118.337     3644.646     82.86715     165.3405     330.5823      1.843     4.76     970.7305     58.27051      328.702        22     1.463     1.127  52.21   0
        91    909.7156    879.1269 307.5423898  +6.3406625       1990.2     3005.594     3371.695     82.99816     165.6687     330.6152      1.618     4.20     969.8613     58.27051      303.936        17     1.349     0.922  30.41   0
        92    843.7343    877.9569 307.5698243  +6.3389401     2794.167      4604.35     4488.517     82.86714     165.2747     330.6152      1.702     4.56     971.7849     58.27051     403.5908        23     1.500     0.954  44.88   0
        93    111.5628    878.4880 307.8737874  +6.3141514     2445.941     3867.567     4759.799     82.86715      165.209     330.5823      1.881     4.40      986.093     58.27051      314.145        20     1.367     0.906  49.46   0
        94    360.0038    877.1389 307.7706894  +6.3230650     587.2244      931.067     1158.622     82.20894     165.0774     330.2864      1.571     4.93     985.1904     58.27051     87.84155         5     1.172     0.586 -79.01   0
        95    579.6916    869.4498 307.6797380  +6.3336118     318199.8     509526.6     536334.4     82.73592      165.209     330.7466      1.747     4.28     979.7985     58.27051     44298.35       147     1.748     1.320  45.17   0
        96    667.8558    872.7733 307.6430217  +6.3351941     1163.215     1725.131     1533.412     82.47285     165.4062      330.418      1.661     4.43     977.7654     58.27051     160.2643        14     1.246     0.825  77.27   0
        97    423.9368    872.0320 307.7443179  +6.3273203     7154.924      11770.8     11879.39     82.60449     165.4062     330.5495      1.723     4.42     982.9784     58.27051     958.9141        32     1.565     1.032  43.74   0
        98    367.1509    870.3627 307.7679501  +6.3261023     11765.84     19484.68     20566.51     82.60449     165.2747     330.4508      1.763     4.30     984.8688     58.27051     1737.988        44     1.617     1.156  43.03   0
        99    685.5274    866.7295 307.6358873  +6.3382809     3299.519     5492.912      5712.64     82.99816     165.4718     330.5495      1.762     4.75     976.6105     58.27051     486.9597        25     1.593     0.949  44.18   0
       100    917.8152    865.5225 307.5394820  +6.3465493     4949.047     8502.675     9473.572     82.47285     165.0116      330.418      1.874     4.29     969.1923     58.27051     688.9769        36     1.742     1.148  25.63   0
       101    757.5613    863.5150 307.6060869  +6.3420193      775.782     1070.498     1039.733     82.86715     165.2747     330.5823      1.638     4.88     973.1316     58.27051     114.2131         8     1.225     0.550  52.04   0
       102    660.3030    860.8216 307.6465584  +6.3398749     3206.441     5264.665     5143.971     82.73592     165.1432     330.3851      1.780     3.99     977.4727     58.27051     482.0419        24     1.538     0.951  47.26   0
       103    848.8578    859.9728 307.5682992  +6.3465354     1558.328     2454.649     2403.881     82.47285     165.4062     330.4837      1.605     4.50     970.7574     58.27051      226.559        15     1.246     0.949  52.11   0
       104    651.0195    859.8413 307.6504458  +6.3399685     898.8168     1582.383     2157.188     82.47285     165.1432     330.3522      1.584     6.17     977.6993     58.27051     108.1942        11     1.520     0.705  35.47   0
       105    976.1135    858.7084 307.5155041  +6.3513095     854.0015      1228.55     764.3553     82.60449     165.7998     330.6809      1.544     4.04     966.8633     58.27051     141.6385         9     1.007     0.621  52.44   0
       106    653.4615    855.3316 307.6495832  +6.3419120     2225.705     3401.047      3580.65     82.86715     165.2747     330.5823      1.672     4.15     977.2833     58.27051     318.4891        18     1.321     0.905  41.28   1
       107    936.9039    853.4599 307.5319599  +6.3521666     3097.873     5035.134     5409.583     82.60449     165.3405     330.6809      1.778     4.61     968.1351     58.27051     447.7038        25     1.473     0.995  38.99   0
       108    347.2670    854.4370 307.7767412  +6.3320084     1071.277     1653.665     1378.198     82.73592     165.2747     330.6481      1.746     3.44     985.1183     58.27051      148.754        10     0.956     0.729 -85.14   0
       109    395.0292    849.4840 307.7570779  +6.3356575     2498.308     4144.889     4521.847     82.86714     165.0774     330.4508      1.792     4.61     983.6075     58.27051     332.7963        27     1.477     1.113  40.00   0
       110    531.4975    839.1256 307.7007660  +6.3445137     2794.486     4553.693     4844.303     82.60449     165.4718     330.6152      1.722     4.16     979.3252     58.27051     390.3022        25     1.427     1.095  43.63   0
       111    876.0491    838.2606 307.5577360  +6.3564075     950.4425     1487.886     1838.831     82.86714     165.2747     330.6481      1.586     4.94     969.4518     58.27051     168.6759        11     1.260     0.761  60.14   0
       112    596.9205    837.2060 307.6736671  +6.3474997     813.6396     1430.983     1566.721     82.47285     164.8139     330.3522      1.791     6.15     977.3329     58.27051      110.345        10     1.363     0.781  67.09   0
       113    578.1761    835.2473 307.6815155  +6.3476799     5687.158     9223.665      10487.8     82.47285     165.3405     330.4508      1.722     4.08     977.6978     58.27051     790.2191        31     1.522     1.070  39.96   0
       114    585.0580    834.9277 307.6786689  +6.3480426     1109.781     1737.622     1994.717     82.99816     165.3405     330.5495      1.699     5.99     977.5038     58.27051     154.8354        12     1.497     0.712  44.64   0
       115    495.9836    834.3495 307.7156716  +6.3452939     1472.098      2118.65      1772.45       82.341     165.4062     330.2864      1.492     3.51      980.453     58.27051     253.8824        14     1.170     0.807  59.02   0
       116    290.3958    835.3919 307.8009940  +6.3379587     663.0493     1014.369     1019.416     82.20894     165.0116      330.418      1.406     4.41     985.9681     58.27051     111.0096         8     1.225     0.451  80.50   0
       117    914.1096    833.4034 307.5420954  +6.3596846     1478.605     2041.386     2317.422       82.341     165.0116     330.3193      1.506     4.02      968.155     58.27051     213.6539        14     1.220     0.788  57.55   0
       118    714.3590    833.2028 307.6250406  +6.3530864     719.3408     1127.637     1202.782     82.20894     165.0116     330.3193      1.656     4.49     973.7695     58.27051     96.17102         9     1.068     0.813  54.82   0
       119    137.7662    833.2532 307.8644341  +6.3337063     1283.388     2034.902     1829.732     82.73592     165.3405     330.4837      1.775     6.03     985.7607     58.27051     185.7365        13     1.402     0.824  49.93   0
       120    548.8077    829.1117 307.6939152  +6.3492280     18381.62     29892.75      31216.2       82.341     165.0116     330.3193      1.710     4.21     978.2184     58.27051     2494.673        49     1.617     1.164  44.56   0
       121    962.3322    827.5044 307.5222699  +6.3637307     3806.918     5970.991     5439.547     82.73592     165.4718     330.6152      1.712     4.43     966.1042     58.27051     594.7625        27     1.605     0.993  43.83   0
       122    716.8629    821.2792 307.6244008  +6.3580924     617.2371     1008.263     1071.632     83.12897     165.4062     330.5823      1.748     3.46     973.2651     58.27051     85.63672         5     0.990     0.349  45.11   0
       123     59.5496    819.7379 307.8973632  +6.3366507     1485.409     2400.029     1979.014     82.86715     165.2747     330.6481      1.720     4.24     985.8184     58.27051     220.7778        19     1.341     0.987  48.48   0
       124    341.4959    818.0458 307.7803619  +6.3468367     3143.331     5323.697     5647.261     82.86714     165.2747     330.7466      1.789     4.23     984.2181     58.27051     437.8628        27     1.562     1.002  38.68   0
       125    806.9567    813.6998 307.5872466  +6.3642362     52556.14     83805.78     87767.08     82.86714      165.209     330.8123      1.695     4.27     970.2067     58.27051     7142.458        67     1.656     1.178  44.52   0
       126     41.4742    816.0529 307.9049919  +6.3375627      2197.29     3373.966     3112.108     82.86714     165.4062     330.5823      1.632     4.79     985.8752     58.27051     343.9751        21     1.410     1.011  47.02   0
       127    264.2386    811.5490 307.8126570  +6.3469215     4827.371     8423.827     10308.36     82.60449     165.2747     330.5166      2.004     4.50     985.5671     58.27051     662.2324        33     1.627     1.134  51.14   0
       128    735.3627    808.3191 307.6171539  +6.3640618     20799.15     32517.05     34504.68     82.86715     165.4062     330.5166      1.699     4.62      972.456     58.27051     3128.584        49     1.639     1.133  55.36   3
       129    728.8871    804.7554 307.6199622  +6.3653161      83868.3     135008.8     143127.1     82.86714      165.209     330.5823      1.722     4.17     972.5106     58.27051     11263.71        76     1.689     1.212  45.61   3
       130    450.1648    811.9042 307.7354498  +6.3530217     689.8506     1369.125     1052.662     82.99816      165.209     330.7138      1.880     6.45     981.4158     58.27051     107.2687        10     1.564     0.746  26.29   0
       131    932.2280    808.9616 307.5353901  +6.3703799     8272.753     13266.83     14146.09     82.47285     165.0774     330.4508      1.678     4.21     966.6503     58.27051     1224.028        37     1.560     1.076  39.22   0
       132    373.8096    805.6415 307.7673629  +6.3530429     18951.95     31633.73     33491.35     82.20894     165.1432     330.3193      1.766     4.17     983.2706     58.27051     2498.028        51     1.655     1.220  45.83   0
       133    423.4451    805.8920 307.7467459  +6.3546065     1130.008      1880.48      1676.87     82.86714     165.2747     330.7138      1.619     4.63      982.494     58.27051     178.1994        12     1.344     0.795  56.80   0
       134    663.3724    805.5639 307.6471377  +6.3627885     660.0846     1105.212      1358.26       82.341     165.0774     330.3851      1.435     3.87      973.754     58.27051     107.9718         5     0.998     0.431 -75.94   0
       135    435.6548    803.4861 307.7417573  +6.3560096     20893.42     33797.77     35399.48     82.86715     165.2747     330.7795      1.782     4.16     981.8605     58.27051      2835.15        56     1.651     1.217  43.30   0
       136    263.5285    789.9197 307.8136802  +6.3558261       775137      1948724      2162003     83.12897     165.6031     330.6152      2.404     6.67     985.0619     58.27051     63707.96       569     2.472     2.013  47.15   4
       137    929.1716    800.3733 307.5369465  +6.3738232      6719.11      10535.6     11568.96       82.341     165.1432      330.418      1.677     3.98      966.439     58.27051     1060.099        31     1.551     0.976  41.57   0
       138    902.4609    802.1249 307.5479788  +6.3722075     563.2329     605.1138     615.5861     83.12897     165.3405     330.5823      1.211     3.45     967.5519     58.27051     114.9816         5     0.755     0.455  70.30   0
       139    669.7729    799.4084 307.6446866  +6.3655439     6145.627     9606.437     9780.027     82.47285     165.1432      330.418      1.691     4.36     973.3058     58.27051     867.1889        31     1.525     1.032  41.05   0
       140    458.5764    797.4774 307.7324422  +6.3592595     1686.577     2509.705     2658.139     82.47285      165.209     330.5495      1.668     3.99     980.5495     58.27051     208.6204        15     1.164     0.896  48.28   0
       141    183.8477    796.4445 307.8465430  +6.3504519     639.8893     812.0368     841.2374     82.86714     165.2747     330.5495      1.574     5.08     985.3251     58.27051     93.75476         7     1.170     0.623  42.29   0
       142    149.1502    790.5658 307.8611471  +6.3517106     905.5095     1663.347     1425.705     82.73592     165.3405     330.5166      1.933     7.15     985.1492     58.27051     133.7621        16     1.696     1.208 -79.11   0
       143    897.8699    791.4904 307.5502411  +6.3764442     757.3469     1027.221     954.3385     82.86714     165.5375     330.5823      1.415     5.70     967.2538     58.27051     109.0632        10     1.387     0.660  48.41   0
       144    174.4790    790.4128 307.8506361  +6.3526264     907.6202     1271.845     1598.031     82.47285     165.0116     330.3522      1.278     4.34      985.128     58.27051     160.7469         9     1.238     0.541  71.72   0
       145    704.8955    789.5635 307.6304333  +6.3707842     2318.836     3834.196     3784.882     82.99816      165.209     330.7138      1.793     4.64     972.3605     58.27051     314.1312        22     1.508     0.993  39.46   0
       146    438.6035    786.1355 307.7411164  +6.3632709     48532.99      81188.8     85965.85     82.07666     165.1432     330.3522      1.800     4.23     980.9977     58.27051     6537.131        76     1.701     1.290  42.15   0
       147    981.8445    788.0509 307.5154873  +6.3806693     742.5204     1263.702     1297.071     82.99816     165.2747     330.6152      1.831     4.60     963.6788     58.27051     115.0366         8     1.213     0.495  67.27   0
       148    556.3318    785.1185 307.6922686  +6.3676409     6392.236     10768.99     11385.78     82.99816     165.6031     330.6152      1.806     4.28     975.6942     58.27051     877.6324        38     1.606     1.171  44.21   0
       149    473.1259    783.7220 307.7268636  +6.3654260     4139.891      7004.84     8066.698     83.12897     165.6031     330.6152      1.846     4.29     979.3304     58.27051     572.4117        31     1.547     1.112  42.90   3
       150    469.9707    777.1403 307.7283948  +6.3680371     2022.152     3521.983     3762.511     82.60449     165.3405     330.5495      1.852     4.76     979.1699     58.27051     292.4377        23     1.560     1.026  40.54   3
       151    801.5748    781.8567 307.5905481  +6.3772014     11105.38     17645.06     18371.08     82.47285     165.3405     330.3851      1.699     4.28     969.1641     58.27051     1716.194        40     1.609     1.083  46.08   0
       152    623.3151    790.9789 307.6642594  +6.3674672     782.5852     1089.979         1114     82.60449     165.0116     330.5166      1.506     5.27     973.3683     58.27051      126.161         9     1.152     0.820  38.46   0
       153     31.5342    777.8106 307.9104096  +6.3530136     1168.313     1925.317     1949.714       82.341     165.1432      330.418      1.766     4.32     985.7203     58.27051     184.5911        16     1.323     0.869  86.08   0
       154    823.4309    776.1115 307.5816652  +6.3803041     1280.207     1981.012     2149.616     82.99816     165.1432     330.5166      1.772     4.95     968.6221     58.27051      194.077        17     1.456     0.858  44.48   0
       155    167.5019    774.1994 307.8540795  +6.3590843     2913.176     4701.042     5109.688       82.341     164.9457     330.1877      1.759     3.79     984.5998     58.27051     426.0894        25     1.468     1.102  44.05   2
       156    159.3608    773.8058 307.8574729  +6.3589728     10493.52     17650.49     18706.23     81.94418     165.0116     330.2864      1.773     4.14     984.5839     58.27051     1529.097        42     1.627     1.155  40.09   3
       157    151.6255    771.2009 307.8607723  +6.3597876     2815.333     4626.661     4686.939     82.47285     165.0116     330.3522      1.774     4.09     984.4841     58.27051     401.1971        25     1.505     0.952  44.81   1
       158    947.0612    770.3331 307.5305232  +6.3868218     6134.695      9883.31      10432.6     82.86714     165.2747     330.5823      1.705     4.38     964.4754     58.27051      912.335        34     1.551     1.079  46.88   0
       159    996.3219    770.4742 307.5100636  +6.3884086     1455.877      2171.76     2456.409     83.12897     165.6031     330.6152      1.557     4.61     962.6251     58.27051     252.2564        13     1.431     0.617  46.03   0
       160    702.6292    768.1661 307.6320919  +6.3795414     1665.623     2558.131     2742.061       82.341     165.0774     330.3522      1.654     5.93     971.4958     58.27051      249.274        20     1.559     0.963  39.73   0
       161    589.4291    767.2219 307.6791270  +6.3761385     2283.858     4030.138     4451.834     82.20894     165.0774      330.418      1.828     4.58     973.4556     58.27051     330.5858        26     1.602     1.009  41.91   0
       162    972.7980    802.4784 307.5187612  +6.3744113     2062.825     3134.244      2936.77     82.20894     164.8139     330.3522      1.659     4.11     964.5129     58.27051     302.3588        21     1.342     1.007  24.82   0
       163    437.7974    766.6876 307.7421050  +6.3712720     1072.929      1706.25     1339.983     82.20894     164.9457     330.3193      1.715     4.72     980.1712     58.27051     152.0991        12     1.155     0.748  64.12   0
       164    151.8311    764.6853 307.8609067  +6.3624841     1769.101     2893.293     2951.022     82.86714     165.1432     330.4508      1.729     4.21     984.2846     58.27051     212.9506        19     1.385     0.939  70.01   1
       165    941.2415    762.4491 307.5332035  +6.3898820     2943.105     4822.181      5027.16     82.86715     165.2747     330.5166      1.729     4.46     964.3843     58.27051     501.5666        26     1.651     1.035  36.89   0
       166    693.5668    761.6293 307.6360741  +6.3819364     1284.765     2651.566     3059.948       82.341     165.0774     330.3193      2.360     6.16     971.4698     58.27051     176.7078        21     1.824     1.062  51.54   0
       167   1001.5844    761.7708 307.5081694  +6.3921772     1727.042     2740.824     2806.884     82.47285     165.0774     330.5166      1.684     4.46     962.2062     58.27051     275.6977        20     1.502     0.911  28.50   0
       168    970.9210    761.8171 307.5209006  +6.3911342     2861.218     4910.685      5075.57     82.47285     165.0774     330.5166      1.779     4.21     963.3131     58.27051      401.403        25     1.473     1.027  37.22   0
       169    840.8536    759.7839 307.5749776  +6.3876270     994.3829     1619.353     1293.418     82.20894     165.3405     330.2864      1.425     4.66     967.7189     58.27051      167.536         8     1.243     0.495  46.79   0
       170    916.6743    757.7553 307.5435619  +6.3909989     908.7799     1472.426     2059.464     82.73592     165.4062     330.6152      1.839     5.35     965.1155     58.27051     128.4458         8     1.097     0.737 -65.25   0
       171    266.3716    756.5380 307.8136241  +6.3697015     1714.748     3055.944      3839.92     82.47285     165.3405     330.5495      1.957     5.09     984.0774     58.27051     240.7325        20     1.461     0.943  48.77   0
       172    958.9110    751.7900 307.5262230  +6.3948725      970.204     1650.949     1646.126     82.47285     165.0116     330.3522      1.817     6.33     963.3907     58.27051     143.2479        12     1.600     0.704  39.84   0
       173    932.9942    750.9423 307.5370131  +6.3943566     1101.688     1854.587     1931.224       82.341      165.209     330.2864      1.730     4.90     964.2105     58.27051     160.5112        13     1.368     0.742  45.54   0
       174    286.6328    752.2277 307.8053567  +6.3721621     724.1682     1218.449     802.5433       82.341     165.0774     330.3522      1.788     4.07     983.8333     58.27051     113.6069         6     0.747     0.633  47.83   0
       175    182.5094    752.2434 307.8485886  +6.3686528     726.0391     1174.012      1007.64     82.86715     165.2747     330.6809      1.676     2.58     983.9429     58.27051     137.1528         5     0.708     0.467 -70.47   0
       176    985.5668    749.6033 307.5152275  +6.3966654     2440.717     3825.362     4539.943     82.07666     165.1432     330.3193      1.720     4.80     962.4398     58.27051      325.725        19     1.336     0.971  46.21   0
       177    705.6711    749.0112 307.6314711  +6.3875505      919.834     1244.826     1238.005       82.341     164.9457     330.3851      1.402     4.81     970.6354     58.27051     131.3865         9     1.064     0.657  77.90   0
       178    496.8468    743.7988 307.7183560  +6.3827025     558.5474     1048.312     1112.118     82.20894     165.0116     330.1219      1.891     5.29     976.4377     58.27051     89.95868         6     1.332     0.594 -74.13   0
       179    426.3725    744.0316 307.7476106  +6.3802408     652.6187     948.0865     248.2725       82.341     165.0774     330.3851      1.560     5.79     979.6232     58.27051      92.3418         8     1.254     0.751  54.13   0
       180    829.0609    741.9073 307.5804731  +6.3946123     1003.188      1469.25     1914.955     82.73592     165.3405     330.6809      1.533     4.14     967.3136     58.27051     137.5076        10     1.037     0.721 -83.67   0
       181    654.2877    742.9731 307.6530098  +6.3883221     617.0769     762.4286     1126.653     82.99816     165.0774     330.4837      1.327     3.24     971.4814     58.27051     91.10974         7     0.731     0.674  88.93   0
       182    914.8138    739.0000 307.5449621  +6.3986791     1479.363     2566.364      2565.29       82.341     164.9457     330.3522      1.932     5.39     964.3876     58.27051     222.7244        21     1.613     1.081  64.46   0
       183    889.5425    734.1277 307.5556190  +6.3998459     1097.868     1657.923     1951.069     82.99816     165.3405     330.5823      1.824     6.32     965.2428     58.27051     187.6235        13     1.389     0.806  35.77   0
       184    872.1172    730.4144 307.5629791  +6.4007964     1550.623     2420.979     2525.953     82.47285     165.0774     330.3851      1.723     4.51     965.8391     58.27051     211.7674        18     1.395     0.902  56.02   0
       185     71.2722    729.2261 307.8955506  +6.3744080     2329.041     3765.891     4471.027     82.47285      165.209     330.4837      1.644     4.01       984.16     58.27051     327.9282        21     1.393     0.928  50.74   0
       186    135.1967    728.2602 307.8690416  +6.3769600      928.936     1740.106     1765.463     82.20894     165.0774     330.2864      2.026     6.55     983.2566     58.27051     137.6023        14     1.612     0.747  73.60   0
       187    683.7429    717.6189 307.6416295  +6.3997752     5639.699     9471.152     9772.671       82.341     165.2747     330.3851      1.791     4.66     969.8757     58.27051     743.5391        33     1.597     1.086  40.59   0
       188    630.8256    717.0523 307.6636219  +6.3982362     1414.659     2572.344     3089.997     82.47285     165.4062     330.4837      2.148     5.23     970.9395     58.27051     197.8196        19     1.422     1.108  45.41   0
       189    541.8069    718.0798 307.7005514  +6.3948277     700.7618     1124.767     1048.489     82.47285     164.8798     330.3522      1.642     5.92     973.0851     58.27051     99.05042         8     1.048     0.941  80.21   0
       190    657.5161    713.3635 307.6526627  +6.4006533      2025.32     3284.462     3418.629     82.86715     165.3405     330.5166      1.767     4.24     970.2067     58.27051     297.2444        21     1.490     0.934  44.40   0
       191    146.7348    713.4635 307.8647499  +6.3834565      3402.07     5814.917     6513.789     82.86715     165.3405     330.5823      1.852     4.32     983.0486     58.27051     420.1904        29     1.534     1.080  51.47   0
       192   1020.7263    712.9514 307.5018530  +6.4129697     2460.262     4108.631     4317.809     82.86714      164.748     293.6834      1.700     4.76     959.8988     58.27051     397.2649        23     1.547     0.911  39.75  16
       193    334.1947    714.2110 307.7868881  +6.3894542     563.2485     632.5266     773.2318     82.47285     165.0774     330.4837      1.164     3.41     979.8485     58.27051     87.72034         5     0.971     0.347 -44.77   0
       194    270.4572    713.9633 307.8133617  +6.3874136     708.6522      1038.74     910.7622     82.86714     165.3405     330.5823      1.387     3.74     982.3922     58.27051     119.5632         6     0.806     0.498  88.32   0
       195    800.5240    709.7221 307.5934012  +6.4069442     18903.55     30179.33     32156.98     83.12897     165.6031     330.6481      1.749     4.40     966.6906     58.27051     2755.172        52     1.647     1.172  42.99   0
       196    930.6027    709.6026 307.5393895  +6.4113424     3651.564     5538.197      5823.93     82.20894     164.8798     330.3851      1.638     4.13     963.4919     58.27051     534.0769        25     1.475     0.941  44.83   0
       197    499.5968    710.1294 307.7183456  +6.3966936     1209.168     2051.787         2332       82.341     164.9457      330.418      1.801     4.46     974.6846     58.27051     165.9069        16     1.315     0.866  44.39   0
       198    302.5865    710.8311 307.8001264  +6.3897869     384.8471     743.1014      1310.39     82.47285     165.0774     330.5166      2.517     3.47     981.2416     58.27051      77.8844         5     0.770     0.453  71.82   0
       199    528.8506    709.9753 307.7062035  +6.3977387      852.477     1159.067     1129.264     82.47285     165.3405     330.4837      1.493     2.96     973.4175     58.27051     123.3552         7     0.814     0.661  20.10   0
       200    345.5189    708.8843 307.7823654  +6.3920336     621.0028     1141.094     1081.485     82.60449     165.6031     330.6481      1.921     6.20      979.037     58.27051     85.87427         8     1.509     0.715  12.62   0
       201    198.9118    706.0090 307.8433366  +6.3882901     7402.788       7600.9     7391.729     82.47285     165.0116     330.3522      0.503     2.71      982.884     58.27051     4669.011         9     0.501     0.435 -26.15   0
       202    274.1371    703.3969 307.8121896  +6.3918991     5593.609      9132.02     9277.158     82.20894     165.1432     330.3193      1.744     4.08      981.798     58.27051      743.524        34     1.551     1.123  46.00   0
       203    681.1006    702.5261 307.6432330  +6.4059171     6333.473     10715.34     11975.59       82.341     165.4718     330.5166      1.817     4.43     969.2097     58.27051     939.5634        35     1.621     1.081  39.16   0
       204    663.5209    703.3030 307.6505068  +6.4050075     749.6875     890.3055     842.9471     82.60449     165.6031     330.6809      1.320     4.87     969.6024     58.27051     95.17346         8     0.849     0.790  15.48   0
       205    375.5351    702.6008 307.7701132  +6.3956360     628.1682     1129.794     1183.559     82.07666     165.0116     330.3193      1.693     5.58     978.2292     58.27051     100.4274         7     1.414     0.621  59.45   0
       206    941.1586    695.5016 307.5354779  +6.4175161     1133.978     1794.592     1419.112     82.86715      165.209     330.8123      1.621     5.11     962.9134     58.27051     181.9763        14     1.402     0.829  49.39   0
       207    752.9113    691.1537 307.6137948  +6.4130161     3341.781     5573.354     5757.363     82.86714      165.209     330.6809      1.769     4.23     967.4515     58.27051     436.0846        29     1.497     1.106  48.77   0
       208    708.3420    691.6570 307.6322855  +6.4113163     940.6492     1332.093     1125.539     82.99816     165.3405     330.6152      1.310     4.42     968.3431     58.27051     159.4963        11     1.285     0.708  39.95   0
       209   1019.1494    687.6042 307.5033552  +6.4233807     8467.761      13506.6     13801.36     82.20894     165.0774     311.7728      1.671     4.25     958.8036     58.27051     1348.571        35     1.583     1.024  43.07  16
       210    957.5941    688.0705 307.5289015  +6.4211328     2289.267     3690.361     2543.244       82.341     164.9457     330.4837      1.771     4.42     961.9447     58.27051     324.6508        22     1.470     0.954  32.16   0
       211   1007.8230    687.8008 307.5080521  +6.4229214      575.744     948.6921     1472.352     82.47285     165.0116     330.3522      1.438     3.65       959.37     58.27051     101.0388         5     1.008     0.380 -87.68   0
       212     38.1520    687.0948 307.9107244  +6.3906830     1357.748     2827.941     3304.026     82.73592      165.209     330.7138      2.129     7.91     983.7051     58.27051     210.2992        22     1.691     1.064  35.20   0
       213     96.5041    682.4462 307.8866527  +6.3945683     23215.58     39116.87     41193.23     82.86715     165.2747     330.7466      1.837     4.23     983.1002     58.27051      3057.91        56     1.710     1.250  46.83   0
       214    557.7721    683.4041 307.6950867  +6.4096775     1949.634     3149.514     3429.952       82.341     165.1432      330.418      1.696     4.71      971.747     58.27051     281.0988        20     1.445     0.973  45.12   0
       215    455.2870    685.2913 307.7375796  +6.4054597     646.1514     1002.772     650.7102     82.60449     165.7998     330.7138      1.167     3.61     975.2469     58.27051     115.9763         5     0.920     0.408  45.08   0
       216    526.6935    680.7695 307.7080805  +6.4097226     1232.313     1934.123     2041.557     82.99816     165.0774     330.5166      1.684     5.40     972.4686     58.27051      172.899        15     1.310     0.958  62.66   0
       217    947.7711    679.5462 307.5332658  +6.4243236     1049.145     1405.927     1601.206     82.60449     165.4062     330.5166      1.488     4.25      962.341     58.27051       142.71         9     1.038     0.611  72.88   0
       218    567.1411    677.5740 307.6913920  +6.4123983     850.4135     1343.328     1726.081     82.47285     165.3405      330.418      1.822     4.86      971.485     58.27051     128.8906         9     0.926     0.723  71.11   0
       219    742.3910    674.6163 307.6187179  +6.4194908     3243.291     5297.283     5757.756     82.60449     165.0774     330.4508      1.798     4.77     967.3461     58.27051     456.4614        26     1.580     1.007  47.20   0
       220    764.6252    672.9808 307.6095397  +6.4209101     3786.541     6334.127     6640.752       82.341     165.1432     330.5166      1.790     4.30     966.4713     58.27051     570.2724        30     1.481     1.189  46.63   0
       221    596.0308    670.9478 307.6796181  +6.4161023     2996.144     4980.919     4939.399     82.73592     165.4718     330.5166      1.770     4.25     970.8901     58.27051     416.2543        27     1.511     1.061  36.95   0
       222    432.3399    671.5715 307.7475696  +6.4103528     1217.659       1981.4     2290.915     82.47285     165.4062     330.4837      1.861     4.59     975.5339     58.27051     186.1316        12     1.267     0.775  27.20   0
       223    256.7406    670.5215 307.8205205  +6.4048848     1604.309       2529.7     2522.823     82.99816     165.3405     330.5166      1.746     5.00     980.8533     58.27051     190.9277        19     1.331     1.008  37.40   0
       224    339.8802    670.0161 307.7860150  +6.4078888      1366.44     2382.055     2815.085     82.47285     165.0774     330.4179      1.862     6.78     977.6921     58.27051     206.5429        17     1.558     1.018  22.62   0
       225   1002.8326    667.9741 307.5107875  +6.4309396     7919.858     12383.93      12813.7       82.341     165.0774     330.4179      1.644     4.24     958.8208     58.27051     1176.879        32     1.507     1.040  39.33   0
       226    723.0948    666.7783 307.6269937  +6.4220804     982.6663     1412.365     1112.635     82.73592     165.1432      330.418      1.515     3.59     967.3431     58.27051     150.0409         8     0.837     0.661  50.51   0
       227    829.9340    662.2487 307.5827789  +6.4275255     1080.137      1810.96     2064.343     82.73592      165.209     330.5823      1.703     4.90     964.7094     58.27051     146.5184        13     1.300     0.818  86.67   0
       228    448.2270    662.4664 307.7412787  +6.4146448      2504.97     4232.644      4319.95     82.47285      165.209     330.5166      1.884     4.19     974.4767     58.27051      331.043        24     1.498     0.995  53.15   0
       229    161.2584    661.3196 307.8604778  +6.4054700     20996.31     36099.91     38157.18     82.86715     165.4062     330.5495      1.838     4.15      982.057     58.27051     2757.545        56     1.709     1.263  46.05   0
       230    380.8041    656.1344 307.7694889  +6.4149943     576.3641     1125.356     1411.484     82.20894     165.0774     330.3193      1.831     4.61     976.2872     58.27051     99.97009         6     1.099     0.550  22.33   0
       231    997.7469    650.9698 307.5134681  +6.4377894     6619.973     11078.26     12083.59     82.60449     165.4062     330.5166      1.811     4.52     958.3785     58.27051     901.0286        38     1.793     1.033  38.98   0
       232     42.9245    650.4476 307.9099800  +6.4059714     1119.043     1635.083     1877.644     82.73592     165.4062     330.5823      1.672     4.77     983.0013     58.27051     165.2017        10     0.964     0.748  76.51   0
       233    591.2148    646.1925 307.6824492  +6.4261599     42677.38     72406.04     76825.41     82.47285     165.0774      330.418      1.829     4.17     970.0419     58.27051     5908.091        75     1.735     1.284  43.07   0
       234    550.5125    646.0119 307.6993573  +6.4248696     594.9858     962.3646     703.0859     82.47285     165.0774     330.4508      1.315     3.78     970.6564     58.27051     100.4714         6     1.261     0.326  71.88   0
       235    234.4234    647.2328 307.8305721  +6.4137475     655.0414     1021.055     1460.852       82.341     165.1432     330.3851      1.960     4.29     980.9385     58.27051     100.2103         5     0.813     0.693  -9.87   0
       236    521.8798    641.7880 307.7113892  +6.4256528     567.7141     986.9216     1353.607     82.47285     165.0116      330.418      1.525     3.24      971.328     58.27051     99.29071         4     0.905     0.337  15.95   2
       237    198.9259    642.7612 307.8454627  +6.4143988     2430.721     4196.045     4192.966     82.73592     165.3405     330.6481      1.790     4.67     981.3391     58.27051     302.2609        26     1.511     1.180  36.20   0
       238     91.8471    637.3706 307.8901074  +6.4130182     1229.549      1991.04     2174.229     82.47285     165.4062     330.4837      1.680     3.92     981.7872     58.27051     178.7739        13     1.214     0.704  34.44   0
       239    488.4873    629.9722 307.7256529  +6.4294099     54951.03      93301.2        98723     82.99816     165.0774     330.4508      1.834     4.15     972.0412     58.27051     7333.652        83     1.741     1.325  42.41   0
       240     32.3680    631.8714 307.9149905  +6.4132836     1475.525     2498.952      2883.86     82.73592     165.3405     330.5495      1.690     5.42     983.1379     58.27051     218.3029        15     1.504     0.748  57.03   0
       241    674.4311    627.2171 307.6485291  +6.4367819     986.9688     1438.172     1747.874     82.47285     165.1432     330.4837      1.549     6.22     966.8347     58.27051     128.7781        12     1.338     0.812  40.26   0
       242    163.2409    625.3671 307.8608670  +6.4203777     1542.785     2506.416     2647.213     82.60449     165.3405      330.418      1.741     4.98     981.0318     58.27051      216.297        18     1.474     0.864  45.87   0
       243    442.6022    622.9120 307.7449446  +6.4307841     772.8669     1250.608     1328.343     82.20894     164.9457     330.3193      1.556     4.67     973.1475     58.27051     120.1718         7     1.081     0.573 -59.70   0
       244    958.5880    622.6432 307.5306777  +6.4481753     598.3082     895.8542     229.1811       82.341     165.1432     330.2864      1.424     3.97       959.11     58.27051     101.4568         5     1.109     0.407  74.48   0
       245    635.0510    622.0357 307.6650565  +6.4376013     646.3782     1061.676     568.1252     82.73592     165.3405     330.4837      1.426     4.59     968.0031     58.27051      108.493         6     1.208     0.495  77.94   0
       246    334.1261    619.2012 307.7901150  +6.4286717     1693.208     3074.145     3196.191     82.20894      164.748     330.4508      1.995     5.62     976.7062     58.27051     229.8135        25     1.751     0.981  60.42   0
       247     35.4009    621.2870 307.9140886  +6.4177549     485.1726     706.3678     1886.587     82.07666     164.8139     330.2864      1.687     4.18     983.0234     58.27051     93.18329         5     1.028     0.485  85.69   0
       248    486.6147    618.2304 307.7268252  +6.4341941     796.2925     1072.504     1865.022     82.47285     165.0774     330.5166      1.636     4.15     971.7283     58.27051     107.1738         9     0.896     0.763  -3.65   0
       249    760.5585    613.6175 307.6132185  +6.4452798     4772.377     7704.506     7252.972       82.341     165.1432     330.3522      1.740     4.66     965.0532     58.27051     688.1646        32     1.596     1.033  39.61   0
       250    814.0928    608.7650 307.5911493  +6.4490743     12590.44     20411.34     21490.67     82.99816      165.209     330.6481      1.714     4.00     964.2421     58.27051     1834.632        44     1.615     1.152  48.42   0
       251    556.6891    609.1504 307.6980306  +6.4402934     1066.963     1723.301     2011.175     82.86714     165.1432     330.7138      1.786     4.51      969.271     58.27051     150.4987        12     1.205     0.734  55.66   0
       252    638.0638    606.8192 307.6643161  +6.4439838     2562.207     4206.249     4519.411     82.47285     165.3405      330.418      1.765     4.10      967.446     58.27051     318.3474        26     1.478     1.087  39.74   0
       253    955.4870    603.2864 307.5326132  +6.4560624     943.0697     1641.999      1920.65     82.60449     165.5375     330.6809      1.665     4.09     958.4015     58.27051      131.559         8     1.036     0.499  87.85   0
       254    250.7586    600.8271 307.8253526  +6.4334531     1125.156     2158.112     2357.823     82.47285      165.209      330.418      2.035     6.38     978.5743     58.27051     165.8762        16     1.577     0.959  57.83   0
       255    396.6483    600.5772 307.7647788  +6.4384606     822.6391     1378.212     652.3763     82.47285     165.3405     330.4837      1.695     6.00     973.8854     58.27051     100.5697        13     1.202     0.842  49.67   0
       256    890.0936    592.0127 307.5601480  +6.4585312     2778.168      4482.63     4232.452     82.60449     165.0774     330.3851      1.634     4.40     961.2343     58.27051      414.137        23     1.492     0.969  41.89   0
       257    848.8085    589.4752 307.5773784  +6.4581984     2316.711     3927.811     3935.882     82.47285     164.8139     330.3851      1.775     4.59     962.8671     58.27051     301.9653        24     1.587     0.948  42.34   0
       258    185.8418    591.3734 307.8526283  +6.4351709     671.7645     1348.483     2630.264     82.47285     165.2747      330.418      2.243     2.90     979.9946     58.27051     103.6841         6     0.728     0.618  68.45   0
       259    829.4964    580.6667 307.5856937  +6.4611888     146295.1     236429.4     249254.5     82.86715     165.4062     330.6152      1.762     4.29     963.0181     58.27051     21306.57       113     1.748     1.301  43.42   0
       260    819.9820    585.3326 307.5894887  +6.4589444     2398.819     3976.338     4874.666     82.47285     165.2747     330.4837      1.842     4.16     963.3532     58.27051     341.9532        22     1.493     0.890  34.40   0
       261    276.9821    584.3575 307.8150180  +6.4411337     6604.273     11473.14     12040.14       82.341     165.1432     330.3851      1.828     4.22     976.7009     58.27051     822.6389        37     1.678     1.146  43.85   0
       262    211.1264    578.9416 307.8425478  +6.4411537     49852.25      87890.1     94498.87     82.99816     165.3405     330.5823      1.903     4.24     978.9187     58.27051     6226.551        84     1.795     1.358  44.96   0
       263    135.0483    575.1618 307.8742673  +6.4401526     5329.927     9299.985     9350.533     82.73592     165.3405     330.4508      1.846     4.03     980.4915     58.27051     691.3921        38     1.653     1.182  52.81   0
       264   1000.4471    572.5298 307.5149702  +6.4702607      1328.14     1959.734     1702.499     82.86715     165.2747     330.5823      1.640     5.28     956.1262     58.27051     204.2744        14     1.340     0.770  47.97   0
       265   1021.6074    571.5392 307.5062153  +6.4713761     791.8832     1062.632     1137.428     82.20894     158.1526     281.3639      1.308     4.47     955.5066     58.27051     132.2725         8     1.337     0.425  59.42  16
       266    866.0995    568.0586 307.5709148  +6.4676176     4192.085     6800.182     7276.764     82.60449     165.3405     330.7138      1.675     4.15     961.6093     58.27051     589.9457        30     1.555     1.070  42.98   0
       267    249.3915    570.1274 307.8269548  +6.4460797     553.2023      1203.73     1381.755       82.341     164.8798      330.418      2.041     5.78     977.1308     58.27051     92.88574         7     1.668     0.564  11.10   0
       268    384.5027    566.1028 307.7709825  +6.4522835     14362.77        25331     26942.89     82.86714     165.8654      330.418      1.893     4.19     973.0853     58.27051     1856.642        52     1.731     1.264  44.81   0
       269    475.5626    566.7170 307.7331467  +6.4550880     731.0026     984.8614     1094.387     82.86715     165.2747     330.5495      1.265     4.02     970.1514     58.27051     118.2838         7     0.990     0.467 -79.03   0
       270    186.6261    564.6705 307.8532029  +6.4462201     1723.699     3066.573     4402.787     82.47285      165.209     330.5166      2.094     4.86     979.2708     58.27051     216.4584        18     1.349     0.977  49.66   0
       271    124.0395    563.1070 307.8792454  +6.4447579      839.896     1412.793     980.1475     82.99816     165.2747     330.6809      1.895     4.05     980.4952     58.27051     122.9364         9     0.964     0.767 -87.05   0
       272    820.0316    561.2069 307.5902764  +6.4689054      5290.51     8739.953     9589.185     82.20894      165.209     330.3522      1.769     4.31     962.5699     58.27051     732.8009        34     1.600     1.089  42.83   0
       273    550.8421    560.9530 307.7020780  +6.4599933     5519.044     9620.108     10294.78     82.86714     165.3405     330.4837      1.852     4.51     967.8511     58.27051     696.2538        37     1.661     1.162  41.68   0
       274    262.0746    562.5803 307.8219422  +6.4496218     813.6465      1124.28      1354.47     82.47285     165.2747     330.5166      1.565     5.23     976.3719     58.27051     100.2986         9     1.066     0.724  83.97   0
       275    409.5984    557.9171 307.7608363  +6.4565056     1209.493     1880.322     1876.355     82.07666     164.8798     330.2864      1.699     4.42      971.954     58.27051     151.5177        15     1.223     0.878  76.08   0
       276    837.1439    554.2053 307.5834043  +6.4723681     1335.514     2101.292     2181.474       82.341      165.209     330.2864      1.611     5.04     961.8709     58.27051     184.1591        10     1.122     0.715  81.38   0
       277    595.5345    554.2261 307.6837436  +6.4642689      1898.71     3742.795     3895.376     82.47285     165.2747     330.4837      2.023     4.99     966.4677     58.27051     230.8745        29     1.508     1.306   6.58   0
       278    197.7700    554.0749 307.8489325  +6.4509690      5603.68      9971.66     11389.29     82.73592     165.4062     330.6152      1.979     4.16     978.4047     58.27051     715.0771        37     1.658     1.201  42.97   0
       279    293.0895    550.5901 307.8094665  +6.4556144     72029.38     129154.1     138370.2     82.60449     165.0116     330.3851      1.929     4.26     975.0156     58.27051      8708.81        90     1.818     1.374  45.66   0
       280     69.7120    552.7880 307.9021536  +6.4471870      4576.25     8045.694     7930.276     82.47285     165.0116     330.4508      1.860     4.09     981.4315     58.27051     597.3263        34     1.603     1.136  47.62   0
       281    583.0465    548.2390 307.6891309  +6.4663217     560.4475     929.8098     1181.912     82.73592     165.3405      330.418      1.587     4.66      966.583     58.27051     75.48657         5     1.217     0.506  71.07   0
       282    816.2261    543.0317 307.5924659  +6.4762810     14757.91     24237.31     25830.78       82.341     165.0774      330.418      1.728     4.12     962.0936     58.27051      2151.47        43     1.602     1.135  43.01   0
       283    277.1468    545.4181 307.8162614  +6.4572133      1356.44     2206.665     2399.277       82.341     165.4062     330.3522      1.833     4.72     975.2079     58.27051     220.6266        16     1.411     0.992  47.88   0
       284    992.4354    544.1666 307.5192463  +6.4817019      1498.02     2475.525     2348.818     82.47285     165.0774     330.3193      1.672     4.39     955.9052     58.27051     259.6752        17     1.485     0.724  44.42   0
       285    519.8508    541.4009 307.7156054  +6.4670248     34029.08     63816.59      70500.2     82.20894     164.9457     330.1219      2.015     4.66     967.9688     58.27051     4003.876        87     1.911     1.451  36.96   0
       286    670.9818    539.8637 307.6528927  +6.4727264     833.1168     1464.749     2058.265     82.47285     165.2747     330.4508      1.943     5.07     964.4524     58.27051     94.56329        10     0.949     0.767  87.15   0
       287    232.6470    537.9715 307.8349919  +6.4587901     1650.692     2635.567     2618.067     82.47285     165.4062     330.5166      1.663     3.98     975.7997     58.27051     230.3839        21     1.301     1.062  49.67   0
       288     68.1150    538.0117 307.9033156  +6.4532326      1000.18     1648.579     1691.694     82.47285     165.0774     330.4179      1.695     5.71     981.3116     58.27051     137.5685        13     1.264     0.934  47.08   0
       289    690.0677    536.4152 307.6450820  +6.4747893     1176.711     2033.649     1946.703       82.341      165.209     330.4837      1.814     4.72     964.1857     58.27051     169.1727        14     1.263     0.908  74.37   0
       290    679.7125    536.4661 307.6493809  +6.4744214     2674.621     4501.064      4850.62     82.86715     165.5375     330.5823      1.812     4.38     964.2127     58.27051     365.7075        26     1.588     1.014  44.45   0
       291    742.3673    535.7467 307.6233842  +6.4768166     1026.269     1697.172     1408.813     82.73592     165.3405     330.5166      1.837     4.29     963.9246     58.27051     154.5447        11     1.230     0.715  86.32   0
       292    417.5026    532.2776 307.7584164  +6.4673551     1362.974     2308.456     2461.791     82.47285     165.5375     330.6152      1.903     5.60     970.6576     58.27051      180.989        18     1.555     0.881  60.67   0
       293    349.0576    530.3734 307.7869049  +6.4658415     3325.902     5745.336      6318.97     82.47285     165.4062     330.3851      1.833     4.15     972.3564     58.27051     423.0627        30     1.496     1.141  46.94   0
       294    164.2138    528.9915 307.8637132  +6.4601935     21671.42     38405.51     40483.57     82.47285     165.0774     330.4837      1.883     4.24     979.2316     58.27051     2737.753        55     1.715     1.270  46.29   0
       295    528.8379    529.4957 307.7122732  +6.4722408     1646.161     2868.238     2660.603     82.86715      165.209     330.7138      1.830     5.70      967.228     58.27051     216.4658        18     1.508     0.892  40.78   0
       296    892.0493    529.0363 307.5614445  +6.4845940     1353.861      2483.21     2150.783     82.60449     165.3405     330.4837      1.761     4.96     958.4297     58.27051     212.3504        14     1.421     0.783  44.67   0
       297    129.4323    527.3420 307.8782126  +6.4597030     2192.627     3962.393     4119.432     82.73592     165.4062     330.5166      1.968     4.85     979.7687     58.27051     277.5573        22     1.458     1.108  49.40   0
       298      9.4493    527.0587 307.9280471  +6.4557760     1660.614     2899.895     3202.257     82.86714     165.3405     330.6481      1.940     5.18     982.8051     58.27051     231.5656        19     1.492     0.874  49.54  16
       299    366.7972    525.6765 307.7796960  +6.4683765     779.4056     1397.987     1480.769       82.341     164.8139     330.4508      2.076     4.92     971.6555     58.27051     98.32397         9     1.195     0.573  77.54   0
       300    989.6615    523.5493 307.5210880  +6.4901204     4919.444     7561.118     7218.459     82.86715     165.2747     330.5823      1.686     4.30     954.9056     58.27051     678.2224        29     1.558     1.005  37.22   0
       301    563.3414    515.9999 307.6983973  +6.4789693     1239.828     1956.777     2344.896     82.07666     164.9457     330.2206      1.635     4.22      965.657     58.27051     175.6631        14     1.141     0.897  87.05   0
       302     28.4772    513.3178 307.9206096  +6.4620897     21617.52      37358.8     40015.56     82.99816     165.6031     330.7138      1.880     4.42      981.924     58.27051     2725.936        60     1.757     1.272  44.46   0
       303    461.1829    510.0911 307.7410225  +6.4779805     35347.43     62708.75     66956.33     82.60449     165.0774     330.4837      1.886     4.19     968.3639     58.27051     4410.387        71     1.766     1.335  46.32   0
       304     11.0666    507.5339 307.9280350  +6.4638901     167019.3     288793.9     308857.2     82.86714     165.3405     330.6152      1.880     4.23     982.2942     58.27051     21532.59       121     1.823     1.399  46.33  16
       305    669.2364    509.8116 307.6546262  +6.4850736      10551.8     17870.89     19250.43       82.341     165.1432     330.2535      1.802     4.01     963.0703     58.27051     1396.122        48     1.669     1.257  36.86   0
       306    226.3730    507.6691 307.8386188  +6.4710876     15847.23     29413.88     31749.04     82.47285      165.209     330.4837      1.977     4.52     973.9653     58.27051     1927.804        61     1.864     1.321  47.40   0
       307    309.4636    510.9906 307.8040004  +6.4725115     853.0599     1343.007     2062.314       82.341     165.1432     330.3522      2.162     5.06     971.8096     58.27051     127.4746         7     1.069     0.678  39.68   0
       308    192.0862    508.5306 307.8528285  +6.4695780     1379.271     2424.807     1709.763     82.99816     165.6031     330.6152      1.876     6.54     976.2771     58.27051     161.4072        18     1.518     0.943  39.40   0
       309   1003.2618    508.2104 307.5159526  +6.4969066     920.1019     1490.418     1598.371     82.20894     165.1432     330.3522      1.612     5.88     953.6431     58.27051     124.3678        10     1.220     0.796  34.67   0
       310    931.7415    507.9189 307.5456665  +6.4946381     667.5029     861.9305     657.4772     82.86714     165.4062     330.5823      1.249     4.12     956.0468     58.27051     116.1387         7     0.916     0.660  84.47   0
       311    844.1254    507.7675 307.5820605  +6.4917716      968.881     1264.856     1434.663     82.73592     165.4062     330.5495      1.379     4.49     959.5767     58.27051     141.0819         8     1.072     0.534  59.80   0
       312    591.1352    506.6396 307.6871688  +6.4837653     2440.119     4169.481     4299.258     82.86714     165.2747     330.6809      1.790     4.35     964.3168     58.27051     285.9417        26     1.417     1.174  41.97   0
       313    965.0355    503.8248 307.5319757  +6.4974404     4621.495     7148.575     7391.866       82.341     165.1432     330.3193      1.598     4.09     954.7789     58.27051     605.6918        26     1.441     1.047  36.13   0
       314    637.9794    502.0929 307.6678666  +6.4872126     5556.104     9682.053      10509.3     82.73592     165.1432     330.3851      1.882     4.36     963.0882     58.27051     693.8302        37     1.676     1.188  40.86   0
       315    125.7612    503.0844 307.8805556  +6.4695926     990.1632     1704.263      1204.49     82.86714     165.2747     330.5166      1.726     6.45     978.9648     58.27051     139.7603        11     1.327     0.881  55.22   0
       316    987.4110    495.9154 307.5229472  +6.5014529     3292.095     5314.856     5196.564     82.47285     165.0774      330.418      1.670     4.76     953.5878     58.27051     487.8784        24     1.499     0.966  47.39   0
       317    550.2029    493.4452 307.7046117  +6.4878393     6156.034     10746.74     11356.51     82.20894     164.9457     330.2206      1.877     4.30     965.0316     58.27051     765.8346        37     1.645     1.157  41.84   0
       318    906.3875    489.1707 307.5568244  +6.5015302     2737.901     4895.587     5680.331       82.341     165.0774     330.4837      1.937     5.94     956.4335     58.27051     454.0997        27     1.798     1.008  34.80   0
       319    396.5279    493.5893 307.7684289  +6.4826210      2288.16     3592.802     3973.206       82.341     164.9457      330.418      1.804     3.94     969.1566     58.27051     314.9634        20     1.428     0.857  44.15   0
       320    913.9951    483.4858 307.5538550  +6.5041312     1931.615     3239.595     3388.516       82.341     165.0116     330.2535      1.758     5.07     956.0535     58.27051     287.4067        22     1.595     0.898  39.17   0
       321    953.3548    482.8858 307.5375278  +6.5056941     1267.565     2101.482     1808.399     82.86714      165.209     330.5823      1.715     4.88     954.5583     58.27051     183.3999        16     1.322     0.992  20.86   0
       322    133.6956    482.7814 307.8779456  +6.4782407     685.8356      974.544     787.7202     82.73592     165.1432     330.3522      1.609     4.86      977.965     58.27051      95.5354         7     1.019     0.658  23.46   0
       323    737.9536    479.4535 307.6271052  +6.4999071     2398.184     3970.197     3817.166     82.86714     165.3405     330.6152      1.721     4.50     961.4014     58.27051     322.0884        23     1.617     0.905  44.17   0
       324    408.9727    477.8352 307.7637906  +6.4895423     3057.945     5170.827     5817.399     82.47285     165.0774     330.3522      1.880     3.87     968.0573     58.27051     402.5064        27     1.459     1.087  47.16   0
       325    100.2757    478.7460 307.8919606  +6.4787806     1397.155     2383.738     2449.832     82.86715     165.3405     330.6152      1.832     4.91     979.0933     58.27051     174.0765        17     1.373     0.948  56.39   0
       326    449.6536    478.1830 307.7468838  +6.4907650     839.9564     1440.413     1787.382       82.341     165.4062     330.2864      1.574     5.09     967.1857     58.27051     154.6211         8     1.195     0.614 -79.49   0
       327    636.7424    474.3373 307.6693122  +6.4986287     8739.386     14856.12     16487.97     82.99816     165.2747     330.6152      1.842     4.14     961.7129     58.27051     1140.021        45     1.696     1.210  43.14   0
       328    799.3985    470.8827 307.6018728  +6.5055018     14442.59     24266.57     25342.77     82.07666     164.8798     330.2864      1.765     4.24     960.1834     58.27051     2019.827        46     1.627     1.194  45.30   2
       329    803.7229    466.0727 307.6002379  +6.5076321     1118.039     2014.038     1897.825     83.12897     165.6031     330.5823      1.802     5.78     959.7165     58.27051     181.7619        15     1.561     0.690  49.22   2
       330    318.9609    471.3389 307.8013917  +6.4891989     2089.854      3625.92      3174.25     82.86714     165.3405     330.6152      1.843     5.13     969.0771     58.27051     253.2333        24     1.526     1.085  46.69   0
       331    828.6373    468.3734 307.5898131  +6.5075159     1123.859     1671.883      1486.37     82.47285     165.1432     330.3851      1.598     3.54     958.4846     58.27051     162.0279        12     0.964     0.886  74.05   0
       332    402.0419    467.9097 307.7670031  +6.4934067     1231.488      2357.94     3199.152     82.86714     165.3405     330.6152      2.325     5.34     967.4897     58.27051     169.4331        19     1.397     1.016  54.91   0
       333    984.5289    465.8188 307.5251511  +6.5137809     1848.819     2878.151     2701.951     82.47285      165.209     330.5166      1.679     4.76     952.2243     58.27051      262.337        20     1.531     0.920  40.19   0
       334    390.9397    464.1051 307.7717419  +6.4946042     680.2365     1228.681     1837.352     82.73592     165.3405     330.6809      1.986     5.61     967.4435     58.27051     82.66852         7     1.154     0.770 -67.55   0
       335    136.8937    462.8657 307.8772895  +6.4865694     3553.959     6470.025     7009.856     82.86714     165.5375     330.6152      1.952     4.38     976.6956     58.27051     425.0693        33     1.677     1.135  38.20   0
       336    775.0094    461.7984 307.6123069  +6.5084357     1970.003     3317.433     3210.621     82.20894     165.0116     330.3522      1.766     4.72     959.9261     58.27051      276.557        20     1.483     0.910  47.96   0
       337    294.7959    459.9220 307.8118121  +6.4930991     1244.726     2159.885     2369.889     82.47285     164.8139     330.3851      1.814     6.24     969.1492     58.27051     145.8873        16     1.517     0.842  65.64   0
       338    372.8436    457.4577 307.7794812  +6.4967402     2558.477     4687.502     5024.936     82.73592     165.2747     330.6152      1.915     4.76     967.4014     58.27051     319.0145        28     1.640     1.084  53.52   0
       339    728.8148    455.4417 307.6317062  +6.5095133      1439.05     2341.727     2595.843       82.341     165.1432     330.3193      1.728     5.53     959.9092     58.27051     180.2224        16     1.420     0.944  36.21   0
       340    261.0297    453.5200 307.8260510  +6.4946061     661.5574     955.3792     703.9074     82.73592     165.3405     330.5495      1.528     3.01     970.0168     58.27051     111.4537         5     0.737     0.598 -85.22   0
       341    570.4875    448.2892 307.6977043  +6.5071602     983.7126     1525.431     1338.292     82.60449     165.8654     330.6809      1.875     6.22     961.8599     58.27051     122.9414        11     1.256     0.865 -22.88   0
       342    492.2455    446.6013 307.7302568  +6.5052318      977.363     1721.454     1226.795     82.20894     165.0116     330.1548      1.753     4.23     963.7764     58.27051     132.6172        11     1.173     0.840  29.85   0
       343    855.2852    445.6502 307.5795066  +6.5177874     1454.185     2018.108     2071.216     82.86715     165.2747     330.6481      1.539     3.26     956.1118     58.27051     188.2137        13     0.994     0.867  46.87   0
       344    840.6181    444.5197 307.5856363  +6.5177636     1833.269     2925.423     3456.435     82.47285     165.0116     330.4837      1.795     4.83      956.746     58.27051     263.6818        19     1.499     0.901  41.09   0
       345    737.9015    442.6158 307.6283624  +6.5151122     12970.32     21726.33     23273.09     82.86714     165.0774     330.3522      1.784     4.21      959.111     58.27051      1666.44        47     1.646     1.214  41.61   0
       346    658.8379    438.4804 307.6613391  +6.5141711     2184.453     3991.338     4524.057     82.73592     165.4062     330.5495      1.984     4.78     959.4386     58.27051     289.9487        25     1.543     1.055  42.69   0
       347    631.3825    433.7903 307.6728997  +6.5151871     12925.64     24532.01     31349.61     82.60449     165.0774     330.4508      2.349     6.41     960.0339     58.27051     1651.161        70     2.595     1.244  36.01   0
       348    963.2135    432.5246 307.5351185  +6.5268132     3446.664     5505.763     5407.368       82.341     165.0774     330.3851      1.702     4.53     951.7034     58.27051     547.7024        25     1.495     0.962  43.15   0
       349    402.3061    428.4978 307.7682196  +6.5096847      23873.2      42885.6     45622.77     82.86715     165.9308     330.4837      1.917     4.36      964.769     58.27051      2849.14        59     1.754     1.313  42.98   0
       350    919.5869    428.7337 307.5533657  +6.5269204     1434.798      2192.56     2855.332       82.341     165.1432     330.4837      1.978     7.03     953.3834     58.27051     215.2143        14     1.937     0.715  44.84   2
       351    148.2867    427.7811 307.8737416  +6.5014357     1877.513     3648.144     3781.905     82.60449     165.0774     330.4508      1.992     5.06     973.8641     58.27051     246.1838        28     1.589     1.225  41.14   0
       352    931.9327    422.9152 307.5484326  +6.5297349     4669.745     7453.735     7322.516     82.99816     165.6031     330.6152      1.700     4.40     952.6988     58.27051     650.2485        30     1.594     1.013  47.19   0
       353     81.8638    423.5370 307.9014706  +6.5009496     1381.475      2481.68      2679.52     82.86714     165.3405     330.6152      1.983     5.34     977.6802     58.27051     198.0898        20     1.442     1.098  32.66   0
       354    613.9866    423.9736 307.6804545  +6.5186563     490.9314       809.14     615.3411     82.60449     165.1432     330.5166      1.601     3.69     960.1567     58.27051     72.66095         5     0.640     0.613  -0.60   0
       355    259.8851    419.0318 307.8276887  +6.5088040      11235.9     20272.01      21466.5     82.86714     165.1432     330.4837      1.914     4.26     969.0207     58.27051     1364.998        47     1.718     1.261  43.27   0
       356    754.8501    412.7743 307.6223238  +6.5279984     609.0432     817.8359     1303.192     82.47285     165.4062     330.4837      1.498     4.41     957.1242     58.27051     79.62744         5     0.763     0.724 -26.32   0
       357    722.9047    412.4694 307.6356024  +6.5270547     790.2323     1124.917     1544.944     82.73592     165.4062     330.6152      1.899     4.64     957.2317     58.27051      124.049         8     0.880     0.694  79.19   0
       358     95.3613    412.7325 307.8962297  +6.5058645     562.3917     1304.791     1381.648     82.73592     165.2747     330.6481      2.148     3.99     976.8393     58.27051     107.4345         5     1.498     0.304  38.94   0
       359    983.6255    411.3368 307.5273493  +6.5362415     894.6059     1328.485     1318.146     82.47285     165.3405     330.4837      1.542     3.66     949.6101     58.27051     133.9908        11     1.067     0.778  76.80   0
       360    372.6172    408.7579 307.7812146  +6.5168357     1089.474     2052.376     2066.709       82.341     165.1432     330.3193      2.004     6.16     964.5787     58.27051     138.5741        19     1.602     0.917  44.19   0
       361    160.1337    407.6300 307.8695013  +6.5101528      4116.11     7744.497     8201.843     82.60449     165.3405     330.5166      1.991     4.53     972.0806     58.27051     512.9415        37     1.752     1.168  38.18   0
       362    205.9891    408.9566 307.8504122  +6.5111492     741.4233     1500.251     1718.113       82.341     165.1432     330.2864      2.448     5.10     970.2854     58.27051     104.9865         8     1.112     0.661  60.41   0
       363    265.3293    406.7412 307.8258418  +6.5140607     1144.008     2056.277     2126.541     82.99816     165.3405     330.5823      1.979     4.63     968.5203     58.27051     165.0659        13     1.347     0.820  51.08   0
       364    457.0059    406.3432 307.7462467  +6.5206673     536.3752     1016.977     1165.245       82.341      165.209     330.2864      1.950     4.14     961.5604     58.27051     95.53418         6     1.412     0.347  27.93   0
       365    847.2764    404.6991 307.5842051  +6.5344246     859.0682     1251.629     1241.079     82.47285     165.4718     330.5823      1.819     5.09     954.5521     58.27051     116.1074         9     0.974     0.751   2.46   0
       366    182.2311    403.5646 307.8604611  +6.5125751     2075.229     4081.492     4724.858     82.47285     165.0774     330.3193      2.132     4.99     971.1118     58.27051     247.7567        28     1.556     1.200  67.16   0
       367    578.1483    403.2078 307.6960371  +6.5260268     749.5534     1433.113     966.2994       82.341     165.1432     330.2206      2.036     5.12     959.0518     58.27051     105.4156         8     1.203     0.616  62.76   0
       368    405.8044    398.3608 307.7677809  +6.5222427      1762.37     3078.098     3251.346     81.94418     165.0774     330.3193      1.846     4.77     962.5572     58.27051      218.892        20     1.366     1.037  50.12   0
       369    294.3306    399.3008 307.8140476  +6.5181076     618.0839     1155.856     785.8178     82.86715     165.4718     330.5823      1.937     5.49     967.3893     58.27051     77.90497         6     1.266     0.672  53.98   0
       370     25.0624    399.6756 307.9258661  +6.5088842     749.6033     1090.889     1607.159     83.12897     165.3405     330.5823      1.692     5.49     979.4251     58.27051     100.0742        10     1.145     0.806  55.89   0
       371    994.6338    397.5841 307.5232371  +6.5422864     926.8503     1264.694     1408.258     82.47285     165.0774     330.4508      1.686     3.92      948.358     58.27051     143.5891         9     0.953     0.710  68.99   0
       372     55.9812    392.8074 307.9132573  +6.5127619     2710.503     5198.306     5570.252     82.47285     165.0116      330.418      2.118     5.18     978.0181     58.27051     313.8295        33     1.632     1.500 -88.94   0
       373    459.4842    391.8287 307.7457056  +6.5267421     6077.343     10966.36      11817.1     82.86715     165.0774     330.4508      1.926     4.18     960.4026     58.27051     714.3416        42     1.702     1.237  43.35   0
       374    800.1145    389.2053 307.6043133  +6.5392428     11302.35     18861.16     19807.21       82.341     165.0116     330.2535      1.765     4.09     955.5679     58.27051     1452.618        42     1.606     1.177  44.95   0
       375    792.3666    390.8083 307.6074778  +6.5383218     1726.637     2687.089     3741.517       82.341     165.1432     330.3851      2.119     4.27     955.7047     58.27051     229.0029        17     1.301     0.909  37.35   0
       376    363.7124    387.7353 307.7856208  +6.5252145     930.8249     1806.437     1653.739     82.86715     165.5375     330.6152      1.989     6.51     963.7505     58.27051     125.6071        14     1.298     0.917  59.04   0
       377    208.7607    380.3359 307.8502262  +6.5230569     809.8085     1397.263     1747.892     82.86715     165.2747     330.6152      1.927     5.46       969.55     58.27051     93.38452         9     0.979     0.859  70.43   0
       378     14.3509    378.6360 307.9310255  +6.5172078     899.1094     2192.153     3736.231     82.60449     165.3405     330.4837      3.854     8.62     979.7335     58.27051      123.549        18     1.780     1.166 -27.19   0
       379    480.0419    376.0114 307.7376991  +6.5339616     1948.944     3299.924     3500.034     82.20894     165.1432     330.2864      1.734     4.49     958.4715     58.27051     246.3652        22     1.450     1.075  45.01   0
       380    507.6734    375.6450 307.7262348  +6.5350404     2610.878     4709.838     5090.193     82.73592     165.4062     330.6152      1.917     4.32     958.0673     58.27051     372.1433        27     1.497     1.143  36.13   0
       381    865.4304    372.1304 307.5777558  +6.5484763     29310.42      50602.8     53778.77     82.73592     165.3405     330.5166      1.852     4.27     952.1839     58.27051     3955.509        65     1.733     1.288  52.81   0
       382    936.3701    375.4269 307.5481794  +6.5494868     651.8745     1103.526     469.2409       82.341     165.1432      330.418      1.641     4.64     950.1261     58.27051     111.4974         6     1.324     0.462  24.39   0
       383    358.2427    367.6972 307.7885673  +6.5333023     662.9125     960.3863     782.6043     82.86715     165.2747     330.8123      1.637     5.36     962.9449     58.27051     80.80188         7     1.119     0.725 -34.03   0
       384    637.0612    364.4896 307.6728681  +6.5439850     2289.538     4153.307     4631.742     82.86714     165.4718     330.6481      2.002     4.74     955.1982     58.27051     272.9717        25     1.575     1.004  34.79   0
       385     45.9832    365.0059 307.9183486  +6.5239008     828.7865     1405.151     947.5589     82.47285     165.0774     330.4179      1.869     4.84     978.0493     58.27051     99.52594         9     0.844     0.787  76.89   0
       386    721.8766    358.1103 307.6378532  +6.5494600      68676.2     117240.5     124851.2     82.86714     165.6031     330.6481      1.834     4.23      953.994     58.27051      8855.54        87     1.755     1.334  44.78   0
       387    880.2072    359.7377 307.5720332  +6.5540862     1050.259     1622.637     1640.819     82.20894     165.1432     330.3851      1.520     4.51       951.16     58.27051     153.1547         8     1.049     0.551  57.84   0
       388    101.3952    357.7774 307.8955789  +6.5287525     1186.238     2062.403     2049.618     82.47285     165.0774     330.3851      1.875     5.26     975.0723     58.27051     152.9885        15     1.334     0.900  43.82   0
       389    963.5882    355.5198 307.5375401  +6.5586141     814.4756     1218.129     1175.945     82.47285     165.0116      330.418      1.777     5.18     947.6813     58.27051     130.2535         8     1.160     0.686  60.59   0
       390    584.4052    354.9567 307.6950594  +6.5461548     2339.421     4122.657      4775.13     82.20894     165.0116     330.2535      1.908     4.57     955.4103     58.27051     306.1992        24     1.476     1.051  36.83   0
       391    121.5993    353.6186 307.8873280  +6.5311500     5116.498      9198.34     10126.24     82.47285     164.8798     330.2535      1.973     4.35     973.5534     58.27051     620.1105        38     1.768     1.169  51.89   0
       392    567.6842    351.0762 307.7021350  +6.5471959     6106.091     10555.17     11099.89     82.99816     165.6687     330.6481      1.857     4.23     955.4888     58.27051     745.4086        40     1.663     1.207  44.40   0
       393    296.5901    348.8674 307.8148084  +6.5390021     2055.042     3682.523     3351.732       82.341     165.1432     330.4837      1.869     4.69     965.1294     58.27051      267.557        26     1.541     1.094  37.32   0
       394    430.4999    346.2026 307.7592790  +6.5446030      21011.4     38656.51     41685.43     82.60449     165.0774     330.2864      1.979     4.44     958.0258     58.27051      2463.59        66     1.809     1.373  42.88   0
       395    538.1810    344.9549 307.7145951  +6.5487330     1050.138     1795.894     1956.953     82.47285      165.209     330.3522      1.689     5.43     955.5987     58.27051     150.3345        14     1.311     0.886  42.17   0
       396    410.7682    344.3821 307.7675359  +6.5446917     1044.757     2030.332     3222.327     82.47285     165.1432     330.4508      3.155     6.25     958.7571     58.27051     141.8165        14     1.436     0.764  73.70   0
       397    825.7827    338.8714 307.5953389  +6.5608798      780.792     1166.759     1325.221       82.341     165.2747     330.4837      1.662     4.26     951.8546     58.27051     161.9553         9     1.189     0.698  80.74   0
       398    519.6007    336.5677 307.7225946  +6.5515718     7263.224     13002.75     13909.68     82.20894     165.1432     330.3193      1.905     4.28     955.1721     58.27051     880.4521        43     1.716     1.241  44.40   0
       399    510.2723    341.6699 307.7262977  +6.5491525     1015.585     1639.857     1842.446     82.99816     165.4718     330.5495      1.915     4.78     955.6106     58.27051     166.6813        12     1.257     0.712  37.89   0
       400    788.8265    335.4470 307.6108044  +6.5610569     2894.006      4973.54     5234.621     82.47285     165.4062     330.4837      1.796     4.31     952.4897     58.27051     397.9617        28     1.478     1.166  51.93   0
       401    944.4858    335.6771 307.5461391  +6.5661672      806.386     1138.159     1423.791     82.86715     165.6687     330.6809      1.154     3.73     947.6931     58.27051     138.9969         7     0.964     0.493 -84.31   0
       402    737.2831    335.2329 307.6322213  +6.5594198     704.0026     1051.103      899.329     82.86715     165.1432     330.5166      1.554     6.05     952.5098     58.27051     93.79614         8     1.261     0.817 -26.92   0
       403    345.7299    333.6388 307.7949113  +6.5469407     876.6209     1694.661     1806.431     82.73592     165.3405     330.6481      2.028     5.87     961.7213     58.27051     114.0302        10     1.085     0.894  10.87   0
       404    181.9746    327.0045 307.8631500  +6.5441696     976.1115      1656.95      1964.16       82.341     165.0774     330.4179      1.905     6.00     969.7698     58.27051      132.853        11     1.256     0.805  61.31   0
       405    282.1936    327.3679 307.8215123  +6.5473927     539.8386     898.4095     988.0939     82.20894     165.1432     330.3522      1.630     3.43       964.79     58.27051       76.151         5     0.773     0.441  17.93   0
       406    409.4786    320.7045 307.7688684  +6.5544224     6135.011     11195.45     11813.99     82.60449     165.6031     330.6152      1.939     4.43     957.8669     58.27051     718.6143        41     1.647     1.283  46.06   0
       407    265.4724    321.2747 307.8286628  +6.5493453     1708.876     2969.047     3201.944     83.12897     165.6031     330.6152      1.883     5.41     965.5048     58.27051     187.1606        23     1.395     1.204  58.93   0
       408    763.3377    320.9207 307.6218790  +6.5662003     1013.436     1732.726     2187.952     82.99816     165.4062     330.5823      2.149     4.56     951.6466     58.27051      140.055        13     1.214     0.994  54.38   0
       409    777.3544    316.6639 307.6161995  +6.5684267     47196.28     80376.25     85090.85     82.86715     165.2747     330.6152      1.837     4.36      951.392     58.27051     6392.199        78     1.734     1.312  44.08   0
       410    449.0643    316.1788 307.7525784  +6.5576203     1757.652     3375.417     3494.343     82.47285     165.3405     330.4508      1.979     5.25     955.7195     58.27051     222.5225        24     1.521     1.158  45.10   0
       411   1012.1765    313.7575 307.5187549  +6.5774767      1586.96     2501.695     2504.799     82.47285      165.209     330.3851      1.672     5.07     943.1161     58.27051     266.1031        19     1.483     0.902  39.57   0
       412    595.2085    313.7227 307.6919574  +6.5635385     1022.837     1961.897     1799.591     82.47285     164.8139      330.418      2.047     6.32     952.7679     58.27051     131.9739        16     1.410     0.888  35.38   0
       413    953.4758    312.9463 307.5431658  +6.5758510     2186.112     3328.429     3044.831     82.86714     165.3405     330.6152      1.562     4.66     946.0162     58.27051     314.3793        19     1.400     0.983  52.12   0
       414    486.6618    312.1353 307.7370977  +6.5605518     885.8608     1785.497     2021.563     82.86714     165.3405     330.6152      2.375     5.93      953.834     58.27051     126.3908        11     1.295     1.013  48.79   0
       415    435.5403    311.7484 307.7583448  +6.5589949     1572.513     2958.238     3214.744     82.86715     165.2747     330.5823      2.016     4.82     956.1544     58.27051     211.4119        22     1.530     1.019  41.43   0
       416    856.7709    306.2700 307.5835595  +6.5753744      1187.37     1691.932     1741.425     82.60449     165.3405     330.5166      1.637     5.50     948.9449     58.27051     158.4096        16     1.466     0.858  44.33   0
       417    212.2969    303.2487 307.8513570  +6.5549967     1987.922     3434.676     3919.033     82.73592     165.2747     330.7466      1.936     4.93     968.1772     58.27051     223.0562        24     1.532     1.042  49.51   0
       418    466.2858    303.2400 307.7458605  +6.5635397     1073.204     1858.344     1980.477     82.86715     165.2747     330.5823      1.845     6.24     954.1274     58.27051     143.2914        13     1.187     0.922  37.34   0
       419    775.8433    301.2750 307.6173433  +6.5747287     5379.104     9086.309     9892.192     82.73592     165.4062     330.6152      1.816     4.54     950.4133     58.27051      682.031        34     1.572     1.168  40.48   0
       420    366.9677    301.1259 307.7871849  +6.5610758     654.9716     1024.763      1121.31     82.73592     165.3405     330.5495      1.616     5.10     958.8617     58.27051     88.59058         7     1.330     0.552  64.12   0
       421    792.1782    299.1064 307.6106307  +6.5761706     2265.649     3900.311     4268.917     82.86714     165.1432     330.3851      1.875     4.71     950.2723     58.27051     295.3959        23     1.544     1.004  46.19   0
       422    108.4698    300.1830 307.8945848  +6.5527650     1031.532     1776.106     2247.447       82.341      165.209     330.4837      2.035     5.90     973.5476     58.27051     139.5127        11     1.072     0.914  47.96   0
       423    247.8116    300.5703 307.8366962  +6.5572977     642.8662      890.304     643.7473       82.341     165.1432     330.4508      1.384     3.52     965.9464     58.27051     102.2321         5     0.766     0.466  16.01   0
       424     95.8765    294.7605 307.8999984  +6.5545789     1009.039     1747.904     1876.779     82.73592     165.3405     330.6152      2.225     5.13     974.1469     58.27051     133.3905        13     1.225     0.830  35.51   0
       425    381.9505    293.8891 307.7812052  +6.5645667      1484.07     3099.203     3887.645     82.86714     165.1432     330.6809      2.304     5.38     957.8481     58.27051      184.595        21     1.565     0.958   9.07   0
       426    508.6068    289.8715 307.7287311  +6.5704789     1759.799     3071.812     3470.381       82.341     164.8798     330.5166      1.981     4.70     952.0197     58.27051     214.2538        22     1.399     1.043  42.91   0
       427    271.1630    285.4921 307.8275052  +6.5643075     4849.205     8698.563      9183.87     82.99816     165.2747     330.6152      1.934     4.53     963.7924     58.27051     587.5641        35     1.683     1.160  44.05   0
       428      2.1733    278.5817 307.9394640  +6.5580975     54894.79     76648.07     78954.49     80.87645     143.6058     262.7528      1.552     3.87     977.7985     58.27051     6884.911        50     1.522     1.033  82.99  24
       429    790.8491    279.0298 307.6118559  +6.5844139     705.1296     964.5504     833.3538     82.47285     165.4062     330.4837      1.546     3.85     949.3605     58.27051     112.5705         6     0.923     0.460  51.72   0
       430    405.8132    276.6477 307.7718738  +6.5724857     1318.905     2554.404     2279.278     82.20894      165.209     330.3193      1.973     3.64     955.9843     58.27051     198.1747        16     1.097     1.011  66.56   2
       431    175.2910    272.4015 307.8677680  +6.5664840     1419.315     2432.955     2615.435     82.07666     165.0116     330.3522      1.906     5.58     969.4486     58.27051     190.5454        19     1.559     0.903  67.40   0
       432    327.5604    272.4943 307.8045177  +6.5715699     941.7209     1704.238     1843.839     82.99816     165.2747     330.6809      1.985     6.43     959.9872     58.27051       123.37        12     1.446     0.872  48.62   0
       433    584.9231    267.9473 307.6977677  +6.5820896     1865.837     3159.913     3272.188     82.99816     165.3405     330.5823      1.815     4.57     949.9545     58.27051     216.3933        21     1.345     1.093  44.68   0
       434    928.3087    267.0946 307.5551553  +6.5939380     1607.014     2676.869     3007.677     82.86714     165.8654     330.5823      1.838     5.27     944.8798     58.27051     219.5471        19     1.544     0.920  26.67   0
       435    688.9678    265.3687 307.6546351  +6.5866418      1950.48     3485.021     3422.882       82.341     165.0774     330.2864      1.851     4.68     949.2386     58.27051     261.6752        25     1.526     1.176  44.28   0
       436    748.1722    265.3029 307.6300441  +6.5886518     4356.803     7344.766     7950.229     82.99816     165.0774     330.5495      1.813     4.80     949.1785     58.27051     642.4553        33     1.669     1.096  41.91   0
       437    986.9951    264.9981 307.5308468  +6.5967641      561.041     738.4399     345.1206     82.20894     164.9457     330.3522      1.278     3.74     942.3764     58.27051     83.09442         5     0.657     0.610  -0.01   0
       438    992.6875    275.6927 307.5281242  +6.5925394     1003.335     1454.366     1938.906     82.86715     165.7998     330.6809      1.764     4.80     942.4609     58.27051     158.6683         9     1.067     0.611  63.34   0
       439    944.3023    257.2841 307.5488400  +6.5985223     939.4829     1493.731     1892.748     82.86715     165.7343     330.6481      2.091     5.20     943.7929     58.27051     163.1536        11     1.236     0.839  81.57   0
       440    247.6654    250.7051 307.8384380  +6.5778766     1770.986     3471.002     3662.511     82.86715     165.4718     330.6152      2.063     6.31     965.2039     58.27051     220.8708        25     1.783     1.041  42.03   0
       441    890.6243    249.6507 307.5713939  +6.5998793     1564.133     2365.704     2501.034     82.47285     165.3405     330.4837      1.554     4.60     945.0792     58.27051     230.2518        15     1.326     0.783  47.38   0
       442    781.0497    249.1252 307.6169294  +6.5964307     1487.395     2453.714     2683.064     82.86714     165.4062     330.6152      1.854     4.40     948.5495     58.27051     240.1235        16     1.361     0.834  51.16   0
       443    481.6670    240.5536 307.7415801  +6.5899328     19201.88     34391.46     37143.71     82.86715     165.2747     330.6152      1.936     4.29     949.5202     58.27051     2248.045        64     1.772     1.387  43.10   0
       444    807.7355    239.6585 307.6061615  +6.6012316     11901.67     19760.47     21877.03     82.99816     165.2747     330.6152      1.831     4.42      947.794     58.27051     1633.483        51     1.722     1.311  28.73   0
       445    746.9035    235.0068 307.6315876  +6.6011156     733.5217     1054.937     890.8666     82.60449     164.9457     330.3522      1.580     5.29     948.5157     58.27051      105.147         8     1.273     0.620  65.24   0
       446    487.3103    235.1605 307.7394173  +6.5923485     1229.964     2354.119     2856.455     82.86714     165.3405     330.6152      1.916     6.34     949.0504     58.27051     145.2256        14     1.380     0.818  53.82   0
       447    169.9901    233.9433 307.8712674  +6.5821805      1932.78     3357.258      3433.89     82.20894     165.3405     330.2864      1.812     4.88     969.1974     58.27051     237.5302        24     1.505     1.036  45.17   0
       448    145.1381    232.5584 307.8816369  +6.5819150     906.6226     1709.844     2131.859     82.86714     165.3405     330.6809      2.282     6.95     970.3068     58.27051     111.3564        13     1.340     1.073  -8.95   0
       449    197.2829    233.0222 307.8599618  +6.5834798     545.3874     680.1888     423.4947     82.60449     165.0116     330.4508      1.322     5.02     967.9152     58.27051     93.38135         5     1.160     0.615  11.67   0
       450    343.3332    242.3835 307.7989804  +6.5845297     671.5552     944.4027     577.9982       82.341     165.2747     330.4837      1.467     4.06     958.5658     58.27051     104.9902         6     0.904     0.522 -46.14   0
       451    944.2985    229.9865 307.5497556  +6.6097908      1475.71     2049.734     2161.564     82.73592     165.0774     330.3193      1.440     3.57     942.6183     58.27051     228.8926        13     1.187     0.755  44.31   0
       452      7.8017    227.1274 307.9388651  +6.5795267     4069.123     7558.648     7724.932       82.341     164.8139     328.0086      1.926     4.39     976.7622     58.27051     508.9709        34     1.596     1.202  51.24  16
       453    605.7668    226.2914 307.6905090  +6.5999842     3978.265     6873.093     7237.982     82.99816      165.209     330.6152      1.850     4.21     947.1993     58.27051     551.4935        31     1.571     1.102  46.43   0
       454    568.5139    226.3694 307.7059813  +6.5987026     1712.284      2926.71     2579.739     82.99816     165.1432     330.4837      1.812     4.62     947.1994     58.27051     192.4445        18     1.311     0.956  56.50   0
       455    326.4088    226.9944 307.8065288  +6.5903131     887.5052     1463.728     1218.192     82.20894     165.1432      330.418      1.778     4.96     959.5208     58.27051     129.3239        12     1.230     0.751  32.69   0
       456    410.3697    225.6907 307.7716964  +6.5936735     1251.548     2262.803     2374.108     82.99816     165.1432     330.5495      1.955     6.19     953.0419     58.27051     148.9008        16     1.260     1.053  77.95   0
       457    966.6827    223.2774 307.5406813  +6.6133083      2347.69      3606.36      3427.32     82.99816     165.6031     330.7138      1.675     4.43     941.6262     58.27051     340.3887        19     1.406     0.854  56.37   0
       458    912.7404    222.8731 307.5631036  +6.6116726     10361.79     16801.78      17732.1     82.99816     165.3405     330.5823      1.734     4.30     943.1793     58.27051     1485.707        40     1.611     1.116  42.42   0
       459    341.1577    223.7476 307.8005117  +6.5921493     736.1423     1230.148     1241.359     82.86714     165.4062     330.6152      1.788     4.50     958.4199     58.27051     96.40186         6     0.934     0.615  23.21   0
       460    999.3827    220.7045 307.5271832  +6.6154626     9307.107     14722.78     15410.09     82.73592     165.1432      330.418      1.691     4.29     940.5912     58.27051     1375.067        36     1.564     1.057  48.27   0
       461    710.7955    221.0140 307.6470567  +6.6056827     2535.755     4061.333      4943.26     82.47285     165.0774     330.4508      1.737     4.28     948.2801     58.27051     345.4219        23     1.492     0.993  50.33   0
       462    587.9820    222.4304 307.6980266  +6.6009816     662.0586     1326.693     1266.914     82.47285     165.1432     330.4837      2.041     5.44     947.0977     58.27051     102.9579         9     1.420     0.587  63.56   0
       463     38.9596    219.4721 307.9261819  +6.5837377     21684.44     39039.18     42186.47     82.73592     165.3405     330.6481      1.927     4.21     975.1439     58.27051     2485.639        60     1.761     1.328  47.15   0
       464    286.0153    220.7070 307.8235195  +6.5915498     962.7098     1705.187     919.3126     82.60449     165.1432     330.4508      1.734     5.28     962.4802     58.27051     134.5458        10     1.212     0.700  81.25   0
       465    519.4553    215.5698 307.7267233  +6.6015145     1520.007     2587.605     2888.847     82.73592     165.4062     330.5495      1.876     5.19     947.5477     58.27051     213.1047        15     1.371     0.879  41.18   0
       466    531.5632    211.7925 307.7218206  +6.6034801     2109.472     3672.315      3981.71     82.07666     165.1432     330.3193      1.919     4.83     947.1949     58.27051     242.7253        25     1.487     1.105  42.01   0
       467    903.5062    211.1637 307.5673319  +6.6161976     1908.143     3433.354     3972.306     82.99816      165.209     330.6809      2.015     4.88     942.8839     58.27051     287.3263        23     1.705     0.913  58.53   0
       468    851.2088    212.1231 307.5890251  +6.6140528     1708.535     2795.872     3029.329     82.47285     164.8139      330.418      1.703     4.86     944.5775     58.27051      271.221        21     1.488     0.957  39.17   0
       469    762.9563    208.8345 307.6257971  +6.6124571        35021     59325.69     62481.16     82.60449     165.3405     330.4508      1.808     4.31     947.3395     58.27051     4460.597        64     1.713     1.245  45.19   0
       470    365.9897    208.2017 307.7907204  +6.5994013     4801.934     11150.85      13209.5     82.47285     165.0116     330.3851      2.450     5.67     956.2269     58.27051     497.9217        57     2.120     1.497  83.20   0
       471    996.6196    207.6198 307.5287690  +6.6207718      2633.14     4007.868      3944.47     82.60449     165.2747     330.5166      1.669     4.44     940.1412     58.27051     368.3185        25     1.538     0.960  44.35   0
       472    930.8837    205.9374 307.5561337  +6.6192701     7029.932     11141.79     11726.19     82.99816     165.4062     330.5495      1.646     4.19     941.9469     58.27051     1040.434        33     1.559     1.034  46.72   0
       473    474.4545    205.0135 307.7457717  +6.6043614     4109.258     7475.093     7784.538     82.20894     165.2747     330.3193      1.913     4.51     948.4532     58.27051     491.6539        35     1.571     1.221  50.72   0
       474    249.2518    202.4206 307.8394070  +6.5978612     591.4978       1052.1     1319.682       82.341     165.4062     330.3851      2.049     4.52     965.0786     58.27051     86.74677         5     1.160     0.500  57.67   0
       475    131.8574    196.3635 307.8883751  +6.5964082     4073.405     7254.264     7493.989     82.86714     165.3405     330.5823      1.908     4.59     970.3444     58.27051     468.1136        32     1.625     1.169  47.51   0
       476    951.5607    195.8598 307.5478813  +6.6241212     894.6187     1278.886     1563.115     82.86714     165.4062     330.6809      1.556     3.89     940.9196     58.27051      124.801         8     0.892     0.655  38.82   0
       477    628.1385    195.2711 307.6822577  +6.6135394     520.3381     1104.054     1412.294     82.99816     165.3405     330.6481      1.917     3.88       947.04     58.27051     86.31982         6     1.200     0.359  61.67   0
       478    302.0626    193.0036 307.8177873  +6.6035253      27168.9     50814.91     54132.49     82.20894     165.0774     330.3193      1.974     4.33     962.0389     58.27051       3218.9        66     1.788     1.375  44.45   0
       479    277.3645    194.1357 307.8280086  +6.6022271     5410.276     9863.287     10227.66     82.73592     165.2747     330.6152      1.939     4.63     963.7839     58.27051     646.3967        36     1.698     1.168  41.07   0
       480    731.7236    192.6260 307.6393155  +6.6181022     809.4287     1426.463     1162.203     82.47285     165.2747     330.5495      1.825     4.22     947.2607     58.27051     107.4348         9     0.900     0.791  16.22   0
       481    426.1094    188.4778 307.7664108  +6.6095635     41046.21     75194.05        80062     82.60449     165.6031     330.6152      1.964     4.35      949.853     58.27051     4741.365        78     1.812     1.395  42.43   0
       482    182.2056    189.8021 307.8676827  +6.6008127     3234.934     5950.174     6155.928     82.20894     165.0116     330.3851      1.918     4.49     967.9565     58.27051      375.221        31     1.657     1.114  33.25   0
       483    443.8705    189.1698 307.7590095  +6.6098745     1261.075     2083.651     2193.741     82.73592     165.3405     330.5495      1.785     4.48     949.1983     58.27051     140.3679        16     1.099     1.045  40.34   0
       484    765.3740    184.7011 307.6256023  +6.6225004     28804.31     48919.05     52177.41     82.99816     165.0774     330.5166      1.838     4.28      946.146     58.27051       3846.7        64     1.742     1.255  45.80   0
       485    330.2261    186.2250 307.8063167  +6.6072707     14971.48     27526.28     29667.34       82.341     165.1432     330.4837      1.974     4.25     959.5317     58.27051     1665.633        56     1.755     1.380  33.69   2
       486    337.9709    186.6742 307.8030844  +6.6073457     1716.862     2861.448     4123.587     82.73592     165.3405     330.5495      2.344     4.86     958.7607     58.27051      193.845        22     1.437     1.126  68.35   3
       487    713.6152    186.7654 307.6470348  +6.6199150     871.0438     1370.791     1030.452     82.47285     165.0774      330.418      1.596     5.47      947.116     58.27051      122.106        11     1.203     0.702  76.72   0
       488    813.8254    185.3592 307.6054523  +6.6238503     1104.554     2050.861     2362.814     82.47285     165.1432     330.3522      2.065     6.30     944.6373     58.27051     158.2202        18     1.541     1.085  47.80   0
       489     82.2461    181.9194 307.9094704  +6.6006983     7603.892      13758.4     14041.24     82.86714     165.3405     330.5823      1.921     4.44     972.8588     58.27051     994.4459        42     1.696     1.231  47.06   0
       490    115.9762    179.9204 307.8955269  +6.6026604     1279.737     2379.433      2600.69     82.47285     165.0774     330.5495      1.972     5.50     971.0167     58.27051     180.3114        18     1.514     0.983  41.77   0
       491   1023.4803    178.7706 307.5185756  +6.6335779      787.271     884.7447     1200.249     74.44044     134.2197     251.9012      1.221     4.08     938.3184     58.27051     155.9622         6     0.893     0.533  48.41  24
       492     15.9090    167.5223 307.9375120  +6.6044039     831.6954     1578.373     1247.381     82.60449     165.6031     330.6152      1.933     6.52      976.362     58.27051     120.5839        11     1.118     1.068 -66.31   0
       493   1023.4770    164.7594 307.5190458  +6.6393617     878.2411     1350.136       1557.9     74.44044     134.3815     251.9875      1.678     3.74     937.7987     58.27051     209.3425         8     1.144     0.541  65.05  24
       494    608.1267    163.3887 307.6916421  +6.6260295     913.6658     1697.667     2311.629       82.341     164.9457     330.4508      2.027     5.63     946.5157     58.27051     127.7458        11     1.148     0.830  47.95   0
       495    300.9527    159.2439 307.8193861  +6.6174236     25121.38     46088.29     49923.71     82.86714     165.2747     330.5166      1.966     4.31     962.9834     58.27051     2805.736        70     1.767     1.448  40.13   0
       496    360.7641    161.7697 307.7944549  +6.6183923     705.2596     1129.865      850.405     82.47285     165.0774      330.418      1.671     4.13     956.1133     58.27051     104.6252         6     0.762     0.640  -5.69   0
       497     46.2471    157.7232 307.9252411  +6.6094721     3770.874     6842.714     7559.023     82.73592     165.4062     330.5495      1.914     4.49     974.6721     58.27051     484.3212        36     1.720     1.179  47.47   0
       498    732.5851    155.8096 307.6401931  +6.6333289     6978.148     11957.05     12260.59     82.60449     165.0774     330.4837      1.831     4.37     945.7868     58.27051     956.8964        39     1.699     1.123  45.56   0
       499    210.3426    157.3452 307.8570897  +6.6151579     755.0745     1181.819     802.8764     82.99816     165.4062     330.6152      1.566     4.19     966.5494     58.27051     98.55225         8     0.974     0.609 -71.48   0
       500    616.3341    161.0786 307.6883101  +6.6272583     1649.242     2926.322     3498.608     82.99816     165.4718     330.5495      1.983     4.50     946.5024     58.27051     229.5772        20     1.351     1.043  31.17   0
       501    143.3188    152.9730 307.8850788  +6.6147052     3976.657     7397.198     7709.014     82.73592     165.1432     330.6152      1.982     4.83     968.9789     58.27051     477.5484        36     1.740     1.174  45.96   0
       502    482.4967    150.1421 307.7442769  +6.6272821     1052.599     1770.647     1455.902     82.73592     165.3405     330.7466      1.761     6.18     946.8562     58.27051     134.4167        14     1.209     0.991  33.97   0
       503    414.1658    149.0551 307.7726993  +6.6254356     3269.166     6350.224     6972.692     82.73592     165.3405     330.5823      2.098     4.92     948.7703     58.27051     372.2936        37     1.771     1.196  55.11   0
       504    671.4755    149.7960 307.6657819  +6.6337641      627.496     925.5226     788.4715     82.47285     164.8139     330.4837      1.541     2.60     945.9795     58.27051     108.8781         5     0.715     0.455 -68.06   0
       505    961.4261    147.9890 307.5453858  +6.6442121     477.3877     710.5729     714.7748     82.47285     165.1432     330.4508      1.987     4.80     938.6555     58.27051     91.46655         5     1.438     0.454  81.77   0
       506    378.7139    147.6945 307.7874724  +6.6248058     2536.359     4776.167     4776.118     82.86715     165.7343     330.6481      1.985     5.07     953.5846     58.27051     320.6041        26     1.535     1.102  48.60   0
       507    132.9734    147.6547 307.8895558  +6.6165519     1445.913      2526.13     2695.665     82.47285     165.4062      330.418      1.866     5.03     969.3447     58.27051     195.5398        21     1.447     1.047  43.39   0
       508   1023.5396    140.8144 307.5198210  +6.6492485     553.3469     813.3054     803.6127     73.55946     133.3262     250.6472      1.377     2.55     936.7122     58.27051     122.0608         5     0.711     0.478  74.40  24
       509    230.4548    136.7965 307.8494281  +6.6243172     4624.401     8037.218     8595.855     82.20894     165.1432     330.2206      1.864     4.27     965.5932     58.27051     564.5386        36     1.671     1.176  45.98   0
       510    113.1452    136.7472 307.8981606  +6.6203861     1906.239     3438.997     3857.165     83.12897     165.2747     330.5495      1.933     5.31     969.8356     58.27051     246.8779        22     1.442     1.069  44.84   0
       511    692.1741    135.6296 307.6576586  +6.6403055     5252.306     8800.494     8994.981       82.341     165.1432      330.418      1.766     4.10     945.0638     58.27051     657.7382        36     1.592     1.125  38.12   0
       512    840.5429    135.6975 307.5960179  +6.6452447      1004.17     1582.709     1573.874     82.73592     165.2747     330.7795      1.553     4.52     941.6898     58.27051     136.5092        11     1.144     0.735  53.08   0
       513    644.3162    132.8827 307.6776327  +6.6398356     8207.503      14199.4     14933.64     82.60449     165.6031     330.6809      1.845     4.08     945.2686     58.27051     1098.732        40     1.610     1.194  40.64   0
       514    279.7043    134.2789 307.8290543  +6.6270140     595.2972     1023.983     1148.615     82.60449     165.6031     330.6152      1.899     4.71     964.6452     58.27051     69.77289         7     1.099     0.574  65.14   0
       515     42.9571    132.5748 307.9274574  +6.6197419     728.4141         1627     1777.061     82.47285     165.3405      330.418      2.100     7.23     974.2118     58.27051      101.079        11     1.500     0.976  29.13   0
       516    583.3755    132.2076 307.7029723  +6.6380708     558.7146     1031.484     1261.131       82.341      165.209      330.418      1.591     4.21     945.2607     58.27051     70.86938         5     1.207     0.419 -77.61   0
       517    371.4586    128.7621 307.7911240  +6.6323771     3178.555     5975.979     6585.268     82.86715     165.4062     330.6152      2.010     4.79     954.5889     58.27051     353.6631        35     1.574     1.311  48.03   0
       518   1018.1612    128.0984 307.5224810  +6.6543181     685.7089      961.271     703.6826     82.86714      165.209     321.6194      1.389     4.02     936.2808     58.27051     140.8332         6     1.064     0.435 -63.11  16
       519    553.4968    127.8783 307.7155303  +6.6388555     1470.955      2540.47     2590.756     82.60449     165.5375     330.6481      1.946     5.71     945.0168     58.27051     174.8823        19     1.383     0.994  59.51   0
       520    647.8676    124.4203 307.6764416  +6.6434479     46439.34     79624.11        84493     82.47285     165.3405     330.5166      1.840     4.10      944.853     58.27051     5806.006        74     1.733     1.320  42.93   0
       521    326.9844    118.1222 307.8099579  +6.6352737     3045.412     5573.113     6181.438     82.47285     165.0774     330.4179      1.954     4.49     960.1843     58.27051       364.72        32     1.612     1.197  40.52   0
       522     24.3201    101.1300 307.9362618  +6.6320929     748632.2      1829707      2026130     83.12897     165.6031     330.5495      2.373     5.93      975.177     58.27051     61505.47       457     2.295     1.903  44.46   4
       523    698.5652    111.6998 307.6558069  +6.6503978     1265.806     2108.236     2040.117     82.86715      165.209     330.7466      1.868     6.22     943.6744     58.27051     156.1351        16     1.228     1.019  44.53   0
       524    712.2238    108.5548 307.6502380  +6.6521537     2827.077     4706.389     4505.691       82.341     165.3405     330.4508      1.760     4.09     943.2595     58.27051     351.7211        25     1.463     1.028  40.70   0
       525    454.1821     99.3684 307.7577480  +6.6472902     3519.659      6271.93     6860.187     82.47285     165.1432     330.4508      1.834     4.31     946.5408     58.27051     389.6224        32     1.588     1.172  47.04   0
       526    908.4416     95.7327 307.5691486  +6.6640129     2022.479     3472.521     3325.865     82.86715     165.2747     330.6481      1.786     4.75     938.2033     58.27051     301.2426        21     1.565     0.932  40.02   0
       527    926.6144     94.7763 307.5616305  +6.6650152     3539.802     5744.826     5606.081     82.60449     165.1432     330.5166      1.707     4.23     937.4326     58.27051      519.035        26     1.470     1.005  48.60   0
       528    606.5759     95.2507 307.6945759  +6.6541045     635.4462     974.4173     762.4684     82.47285     165.3405     330.4837      1.417     3.37     943.9101     58.27051     96.42389         5     0.753     0.438 -68.02   0
       529    618.7700     93.4280 307.6895712  +6.6552658     1575.827     2582.676     2292.662       82.341     165.0774     330.3522      1.778     4.79     943.7575     58.27051     203.0281        16     1.301     0.903  43.89   0
       530    417.3518     91.2600 307.7733215  +6.6494000     1696.147     2809.991     2973.703     82.86715     165.3405     330.6481      1.768     4.76     947.3795     58.27051     195.1154        22     1.423     1.099  47.98   0
       531    264.9265     93.0767 307.8365824  +6.6435243     587.7823     707.8938     1634.301     83.12897     165.6031     330.6152      1.366     3.89     964.7819     58.27051     96.00903         5     0.811     0.535  59.51   0
       532    726.6503    112.4585 307.6441136  +6.6510255     895.9791     1689.334     1492.663     82.86715     165.3405     330.5823      1.907     5.80     943.1511     58.27051     156.7432        11     1.474     0.785  46.83   0
       533    165.6438     88.3099 307.8779874  +6.6421491     2646.047     4750.505     5021.621     82.86715     165.2747     330.6809      1.927     4.47     966.4578     58.27051     302.0703        29     1.514     1.168  39.57   0
       534     47.2651     86.0374 307.9272404  +6.6390967     10601.18     19223.97     20576.73     82.73592     165.2747     330.6481      1.936     4.29     972.0333     58.27051     1346.878        48     1.725     1.288  50.55   0
       535    313.6040     86.9595 307.8165666  +6.6476872     1079.477     1965.907     2247.934     82.07666     165.0774     330.3193      2.176     6.20     961.7193     58.27051        149.1        18     1.480     1.105  11.73   0
       536    782.8742     85.8773 307.6216471  +6.6638807     700.1443      1132.23     1564.844     83.12897     165.6031     330.6152      2.216     5.04     940.9983     58.27051     105.4069         7     0.906     0.792  39.64   0
       537    968.4805     84.7012 307.5445741  +6.6705733     549.5228     636.8805     614.8478     82.73592     165.7343     330.6481      1.253     4.35     935.3074     58.27051      79.3269         6     1.132     0.476 -81.51   0
       538    848.8484     80.5750 307.5944153  +6.6682772     5611.784     9049.999     9597.768     82.47285     165.3405     330.4837      1.729     4.14     939.1634     58.27051     745.9958        30     1.633     0.983  44.93   0
       539    793.9940     80.7841 307.6171982  +6.6663554     2832.183     4708.934     5718.712     82.47285     165.0774      330.418      1.838     4.93     940.5637     58.27051     379.9908        27     1.611     0.998  44.85   0
       540    916.4854     81.4686 307.5662846  +6.6701701     737.7866     1048.906     1124.089     82.99816     165.6031     330.6152      1.572     3.74     937.0868     58.27051     123.8557         6     1.031     0.389  70.80   0
       541    439.3128     81.4008 307.7645300  +6.6542076     984.7828     1476.857     1313.063     82.07666     164.8139     330.2535      1.611     4.51     946.6255     58.27051     137.2932        11     1.059     0.844  40.05   0
       542    781.1344     80.1810 307.6225610  +6.6661739     562.8108     1079.663     1721.325     82.47285     165.3405     330.4837      3.297     5.57     940.6444     58.27051     91.69922         5     1.206     0.724  71.36   0
       543     72.7162     79.0686 307.9169031  +6.6428316     743.8672     926.8648     1407.846     83.12897     165.6031     330.6152      1.685     3.93     969.5511     58.27051     118.6473         6     1.065     0.415  79.70   0
       544    556.8639     79.1355 307.7157703  +6.6590893     925.9324     1522.571     2219.144     82.86714     165.3405     330.6152      1.727     3.36     943.6295     58.27051     144.4445         8     0.854     0.627  43.17   0
       545    449.2220     77.8579 307.7605325  +6.6560029     926.1293     1521.925     1547.727     82.47285     165.3405     330.3851      1.646     4.81     946.2304     58.27051     136.5379         9     1.060     0.751  88.77   0
       546     87.5768     77.7240 307.9107752  +6.6438878     2839.486     4957.449     5454.646     82.47285      165.209     330.5166      1.890     4.17     968.4158     58.27051     350.1184        26     1.447     1.079  41.65   0
       547    611.6807     74.5063 307.6931522  +6.6628389     1158.655      1838.85     1276.483     82.60449     165.6031     330.6481      1.692     6.34     943.2592     58.27051     160.9976        14     1.512     0.746  53.35   0
       548     30.0849     73.2735 307.9348085  +6.6437859     2257.283     3864.995     4321.719     82.99816     165.6687     330.6152      1.833     5.68     972.1058     58.27051     266.0162        24     1.619     1.002  52.17   0
       549    429.8356     68.9781 307.7688854  +6.6590171     934.8727     1676.913     1887.219       82.341     165.0774     330.3193      2.006     5.32     946.8094     58.27051     133.9083        13     1.221     0.851  42.20   0
       550    788.8578     68.3050 307.6197506  +6.6713349     1590.219     2662.953     2818.899     82.73592     165.3405     330.7466      1.752     4.88      939.784     58.27051     248.4312        17     1.423     0.866  36.30   0
       551    126.4925     67.3703 307.8949585  +6.6494733     712.6037     1199.075     1024.599     82.99816     165.0774     330.4837      1.949     5.94     966.8176     58.27051     89.28644        11     1.638     0.605  39.76   0
       552    115.2684     62.0925 307.8997995  +6.6512736     8077.841     14731.71     15461.46     82.73592     165.4718     330.5823      1.937     4.30     966.9789     58.27051       1011.4        46     1.781     1.256  47.17   0
       553    444.2361     61.6662 307.7631489  +6.6625192     2066.642     3695.072     3626.361     82.73592     165.3405     330.6481      1.898     5.29     946.1214     58.27051     255.4996        22     1.593     0.954  46.42   0
       554    265.1721     61.5790 307.8375424  +6.6565344     563.6994     1183.803     1488.029     82.20894     165.0774     330.5166      2.282     4.31     964.7508     58.27051     71.44727         5     0.939     0.564  47.47   0
       555    281.8870     56.1962 307.8307799  +6.6593188     1180.548      2175.95     3070.988       82.341     165.0116     330.2864      2.223     5.64     964.7283     58.27051     148.1724        19     1.642     0.880  33.23   0
       556    658.0120     54.1283 307.6745881  +6.6728042     16014.92     27631.01     29199.54       82.341     164.9457     330.3851      1.829     4.18     941.8207     58.27051     1993.333        49     1.701     1.199  43.34   0
       557    687.6133     55.0138 307.6622601  +6.6734307     510.4412     762.2953     108.9264     82.73592     165.0116     330.5166      1.603     4.90     941.1979     58.27051     65.24921         5     1.236     0.550  39.08   0
       558    557.9144     50.2660 307.7163045  +6.6710416     4528.778     7804.336     8258.288     82.99816     165.6031     330.6481      1.835     4.13     943.0696     58.27051     541.4525        33     1.568     1.178  43.85   0
       559    276.1186     50.6864 307.8333621  +6.6613991     1762.727     3007.622     4377.507     82.60449     165.6031     330.7138      1.895     3.91     964.7314     58.27051     224.9089        20     1.257     1.023  48.51   1
       560     25.1526     48.4608 307.9376961  +6.6538615     1200.438     2306.706     2019.256     82.73592     165.2747     330.6481      1.918     6.94     969.7358     58.27051     148.1611        17     1.507     0.911  27.54   0
       561    644.4246     44.5825 307.6805538  +6.6762892     2957.466     5354.026     6080.761     82.60449      165.209     330.5166      2.060     6.75     941.7194     58.27051     389.5148        37     2.125     1.158  63.09   0
       562    463.4065     45.8222 307.7557178  +6.6697033     19086.61      34395.3     36622.22       82.341     165.1432      330.418      1.933     4.20     944.8188     58.27051     2404.117        58     1.729     1.326  45.53   0
       563    283.9608     46.1132 307.8302583  +6.6635507      7655.98     14006.49     15514.68     82.86714     165.2747     330.5823      1.961     4.46     964.7244     58.27051     894.3876        45     1.741     1.243  43.97   0
       564    941.1268     45.6745 307.5572458  +6.6857696     1837.868     3192.581      3932.39     83.12897     165.6031     330.6481      1.858     4.62     934.0423     58.27051      292.475        19     1.458     0.900  39.34   0
       565    343.7014     46.2058 307.8054363  +6.6655221     816.6274     1715.679     1694.466     82.60449     164.9457     330.3193      2.161     6.47     957.6416     58.27051     97.68848        11     1.368     0.859  56.39   0
       566     49.4913     45.9169 307.9276713  +6.6557326     2066.552     3448.685     3761.609     82.60449     165.6687     330.7138      1.912     4.32     968.7232     58.27051     260.4702        20     1.353     0.965  53.40   0
       567    272.0428     42.7191 307.8353240  +6.6645507     2490.836     4715.882     5792.144     82.86714     165.3405     330.5495      2.222     4.58     964.7288     58.27051     322.4551        32     1.654     1.199  44.97   0
       568    325.2912     41.4174 307.8132461  +6.6668795     1093.849     1475.236     1674.229     82.60449     165.0774     330.4837      1.524     5.75     960.0495     58.27051     125.6069        11     1.017     0.917 -57.05   0
       569    961.7426     35.7675 307.5490121  +6.6905481     949.7538     1634.525     1736.096     82.73592     165.4062     330.5166      1.854     7.37     931.6584     58.27051     144.0247        15     1.654     0.919  65.42   0
       570    713.3985     35.5402 307.6522011  +6.6823332     1713.378     2964.592     2533.999     82.20894     165.0774     330.2864      1.790     4.18     939.5914     58.27051     213.3467        20     1.378     0.961  45.58   0
       571    224.3622     31.4829 307.8555114  +6.6675838     877.8826     1222.712     1273.516     82.86715     165.2747     330.5495      1.687     5.36     964.7178     58.27051      106.853        10     1.157     0.701  53.54   0
       572    279.1662     30.5633 307.8327745  +6.6698081     609.3195     1253.109      1744.66     82.60449     165.0774     330.3193      2.198     5.60     964.7208     58.27051       77.828         7     1.339     0.659  29.12   0
       573    201.5230     28.2560 307.8651087  +6.6681467     9075.306     16468.52     17035.78     82.86715     165.3405     330.5495      1.936     4.33     964.7136     58.27051     1106.569        47     1.722     1.283  43.56   0
       574    545.8226     26.4850 307.7221278  +6.6804525     2636.928     4450.943     4713.812     82.73592     165.0774     330.5166      1.864     4.12     942.8005     58.27051     351.3058        28     1.525     1.105  41.64   0
       575     15.3017     28.9610 307.9424475  +6.6615782      715.632     1187.828     1316.475     82.86714      165.209     330.8123      1.902     2.86     967.8061     58.27051     107.8878         7     0.720     0.667 -83.77   0
       576    947.0813     25.9722 307.5554317  +6.6941017     3877.689     6360.607      6944.28     82.73592     165.1432     330.5495      1.700     4.17     932.2757     58.27051     541.1609        25     1.514     0.936  42.00   0
       577    483.7980     25.0711 307.7479443  +6.6789540     1604.382     2902.119     2745.535       82.341     164.8798      330.418      1.911     5.00     943.0198     58.27051     195.1827        21     1.486     1.018  47.72   0
       578    748.0198     24.5942 307.6381842  +6.6880113     1876.479     3109.838     2758.763     82.47285     165.0116     330.3851      1.685     4.29     938.0406     58.27051     262.9347        18     1.460     0.805  40.58   0
       579   1011.7133     22.2379 307.5287030  +6.6978024     1870.063     3302.276     3965.007     82.86715     165.2747     330.5823      2.061     5.77     925.6611     58.27051     238.4836        21     1.571     0.931  48.96   0
       580    755.2262   1021.5297 307.6017615  +6.2767112     1125.567     1577.986     1550.636     82.47285     158.9066     282.5201      1.486     4.89      977.765     58.27051     138.9705        11     1.072     0.704  72.39  16
       581    385.9035   1020.1489 307.7551270  +6.2649006     1652.782     2531.808     2576.241     82.73592     165.2747     301.0641      1.588     4.82     986.5633     58.27051     228.6677        15     1.389     0.790  43.14  16
       582    996.0588   1017.5836 307.5019117  +6.2863894     592.8425     1065.129     806.8881       82.341     165.2747     325.5815      1.573     5.29     971.3972     58.27051     102.7839         8     1.330     0.593  49.85  16
       583    567.9799   1010.2935 307.6798723  +6.2750781      4188.74     6807.461     7709.884     82.73592     165.1432     330.3851      1.792     4.09     983.0621     58.27051     618.9146        31     1.496     1.154  44.25   0
       584    538.3303   1011.3362 307.6921459  +6.2736536     988.8344     2019.772     2551.233     82.86715     165.3405     330.6481      2.179     5.41      983.431     58.27051     207.9698        15     1.709     0.948  35.60   0
       585    772.6382   1009.6406 307.5949313  +6.2822017     7517.993     12092.87     12782.15     82.60449     165.4062     330.4508      1.734     4.27     977.2374     58.27051     1146.534        33     1.591     1.043  48.53   0
       586    318.3618   1008.8419 307.7835456  +6.2672991     14138.69     23216.24     25946.07     82.60449     165.3405     330.4508      1.802     4.33     987.0939     58.27051     2015.226        58     1.680     1.478  23.57   0
       587     15.2800   1010.1907 307.9093137  +6.2565423     800.0855     1173.364     833.3841     82.47285     164.9457      330.418      1.508     4.65      988.679     58.27051     152.1734         9     1.103     0.830 -78.15   0
       588    833.8295   1008.9545 307.5695506  +6.2845316     944.8831     1709.547       2031.9     82.47285     165.4062     330.4508      2.016     6.24     976.7068     58.27051     125.7488        11     1.324     0.827  42.73   0
       589    407.9224     16.8204 307.7797454  +6.6798109     575.5197     1045.295     1018.678     82.47285     165.0774     330.5495      1.636     3.84       948.47     58.27051     94.56287         5     0.856     0.495  58.52   0
       590    442.5038   1009.4539 307.7319901  +6.2712157     953.5566     1662.604     1660.325     82.73592     165.3405     330.8452      1.808     5.14     984.5626     58.27051     165.8188        10     1.300     0.779  50.28   0
       591    289.5539   1006.3450 307.7955885  +6.2673616     783.7564     1370.265     727.0504     82.86715     165.3405     330.6152      1.793     5.51     987.0085     58.27051     139.2179         9     1.363     0.627  30.13   0
       592    933.9086   1003.0966 307.5281982  +6.2902945     8355.621      13902.2     14231.23     82.86714     165.8654     330.5495      1.745     4.32     974.1855     58.27051     1109.251        38     1.608     1.130  45.85   0
       593    565.3076   1002.4149 307.6812461  +6.2782409     8129.514     12838.43     13312.74     82.60449     165.1432     330.3851      1.717     4.26     982.9507     58.27051     1277.902        32     1.529     1.046  42.29   0
       594    907.5249    999.2198 307.5392813  +6.2910134     11742.49     19820.25     20925.76     82.47285     165.1432     330.5166      1.826     4.51     974.9768     58.27051     1780.572        50     1.692     1.242  41.85   0
       595     17.6220   1001.2685 307.9086426  +6.2603042     641.9952     958.2178     1184.001     82.47285     165.2747     330.5495      1.573     4.42     988.6902     58.27051       96.073         7     1.214     0.458  81.90   0
       596    620.4770    999.7891 307.6584310  +6.2811738      1345.34      2114.15     2207.033     82.47285     164.9457      330.418      1.523     4.30     981.8533     58.27051     190.7078        12     1.263     0.743  34.93   0
