#   1 NUMBER                 Running object number                                     
#   2 X_IMAGE                Object position along x                                    [pixel]
#   3 Y_IMAGE                Object position along y                                    [pixel]
#   4 ALPHA_J2000            Right ascension of barycenter (J2000)                      [deg]
#   5 DELTA_J2000            Declination of barycenter (J2000)                          [deg]
#   6 FLUX_APER              Flux vector within fixed circular aperture(s)              [count]
#   9 FLUXERR_APER           RMS error vector for aperture flux(es)                     [count]
#  12 FLUX_RADIUS            Fraction-of-light radii                                    [pixel]
#  13 FWHM_IMAGE             FWHM assuming a gaussian core                              [pixel]
#  14 BACKGROUND             Background at centroid position                            [count]
#  15 THRESHOLD              Detection threshold above background                       [count]
#  16 FLUX_MAX               Peak flux above background                                 [count]
#  17 ISOAREA_IMAGE          Isophotal area above Analysis threshold                    [pixel**2]
#  18 A_IMAGE                Profile RMS along major axis                               [pixel]
#  19 B_IMAGE                Profile RMS along minor axis                               [pixel]
#  20 THETA_IMAGE            Position angle (CCW/x)                                     [deg]
#  21 FLAGS                  Extraction flags                                          
         1      5.2379     78.2411 307.9362203  +6.6320103     721521.6      1857230      2119630     81.50719     163.2089     301.2727      2.516    12.24     941.6535     57.49646     61777.98       344     2.478     1.683  36.43  28
         2    256.8666     27.5835 307.8334277  +6.6613943     1274.083      2857.12     4307.719      81.2472     163.0793     326.0936      5.244    10.87     935.7715     57.49646     171.1708        31     3.159     1.042  33.16   2
         3    444.0420     22.8228 307.7558410  +6.6696486     14858.66     33179.68     36797.16      81.3773     163.0144     325.9638      2.253     7.42     920.6868     57.49646     1749.817        55     2.191     1.138  32.31   0
         4    264.6614     23.2192 307.8303381  +6.6634580     6194.299     13660.48      15025.5      81.3773     163.0793     326.0612      2.247     7.41     935.7614     57.49646      802.931        48     2.123     1.155  35.30   0
         5    624.8813     21.5439 307.6807657  +6.6762413     2311.808     5431.351     6731.145     81.76635     163.1441     326.2234      2.509     7.93     916.7221     57.49646     306.6492        36     2.172     1.172  49.48   0
         6    252.6634     19.7759 307.8354386  +6.6644758     1971.787      4219.12      4860.22      81.3773     163.1441     326.1261      2.296     7.57     935.7325     57.49646     250.7019        28     2.009     0.911  32.06   0
         7    942.4133     13.1651 307.5491448  +6.6903215     823.7682      1739.45     2444.408      81.2472     162.9495     326.0287      2.360     6.64     906.9032     57.49646     144.2998        14     1.798     0.687  36.33   0
         8    695.8159     13.5302 307.6515706  +6.6819251     1111.302     1599.481     1733.598      81.2472     163.0144     326.0936      1.644     6.49     914.8497     57.49646     143.5573        14     1.481     0.803  50.86   3
         9    692.3729     11.7754 307.6530602  +6.6825343     1095.948     1640.195     1738.969      81.2472     162.9495     326.0287      1.554     4.43     914.9401     57.49646     161.9494        10     1.122     0.683  76.57   3
        10    183.3376      5.6683 307.8647136  +6.6679666     6621.762     10251.76     10614.04     81.76636     163.0793     306.1491      1.680     4.01     935.5326     57.49646     769.3785        24     1.377     0.964  54.75  19
        11    180.5096      4.4651 307.8659292  +6.6683680      6276.58       8759.7     9169.758     81.63688     163.3385      292.254      1.511     3.14     935.5214     57.49646     833.9747        23     1.247     0.968  89.83  19
        12    927.7488      3.0362 307.5555782  +6.6940130     2885.313     6041.845     6103.673     81.63687      152.694     272.5502      2.116     7.78     907.1228     57.49646     529.0972        27     2.071     0.817  29.72  24
        13    527.4962      3.9903 307.7218129  +6.6802227     1874.692     3208.921     3153.204     81.50719     160.6612     285.7383      1.796     4.47      916.999     57.49646     252.9211        19     1.497     0.896  51.78  19
        14    524.6749      2.3012 307.7230421  +6.6808253     1504.305     2180.536     2690.143     80.46218     143.8469     261.3351      1.449     4.45     916.9719     57.49646     271.3157        10     1.248     0.584  75.55  19
        15    464.8995      2.3411 307.7478710  +6.6788034     1224.168     2462.004     2806.537     80.98637      144.434     262.0224      2.095     8.21     918.7544     57.49646     173.7894        19     1.666     1.131  28.51  24
        16    729.0056      2.0373 307.6381719  +6.6877804     1309.073     2294.706     2284.105     78.46529     139.8949     256.8438      1.810     6.45      913.074     57.49646     192.7874        16     1.745     0.670  26.04  24
        17    994.2510      1.2259 307.5280131  +6.6969807     633.7474      585.144     537.5886      69.4542     128.1333     243.5679      0.864     1.95      902.814     57.49646     189.2409         5     0.701     0.408   9.26  24
        18    736.8192    999.8143 307.6012417  +6.2761537     782.5767     1095.301     1682.281      81.3773     162.8845     326.0936      2.667     4.51     948.5035     57.49646     112.4416         7     1.024     0.564  21.17   0
        19    967.3205   1023.2466 307.5047768  +6.2741805     473.6382      1009.69     1472.048     76.41624     136.1392     252.4821      2.797     4.86     943.6389     57.49646     84.65417         5     1.328     0.503  26.51  24
        20    576.5529   1011.0590 307.6673836  +6.2661479     2902.484     6642.382     9591.476     81.76635     163.1441     326.3206     10.300    29.70      951.676     57.49646     1216.987       102    10.036     2.441  33.54  19
        21    588.6642   1016.3208 307.6621789  +6.2643814     51283.33     74353.19     77838.88      82.0247     163.2089     326.1585      1.566     3.34     951.5388     57.49646     6724.016        30     1.297     0.952  55.38  19
        22    585.6552   1014.3110 307.6634957  +6.2651103     46499.76      56211.8     58652.83     81.76636     163.0144     326.3206      1.286     3.68      951.558     57.49646      6710.71        16     1.100     0.763  60.15   3
        23    586.9853   1023.4936 307.6626334  +6.2613642      94632.3     117210.2     118191.7     73.01824     132.0367     248.2143      1.296     3.72     951.7068     57.49646     13941.31        19     1.172     0.867  24.98  27
        24    583.7327   1021.3714 307.6640551  +6.2621313     90951.94     104135.9     105136.8     81.50719     158.3399     281.2229      1.162     2.56     951.7242     57.49646     15549.42        25     1.020     0.831  88.76  19
        25    218.2420   1023.6978 307.8156727  +6.2489081     1374.132     1711.255     1915.561     70.66219     129.0382     245.0402      1.134     4.39     953.9556     57.49646     340.0491         8     1.219     0.450   4.60  24
        26    367.8806    997.8806 307.7544405  +6.2645913     1088.763     1489.441     1969.782      82.0247     163.4033     326.3531      1.321     5.69     954.8861     57.49646     200.5485        11     1.382     0.660  49.53   3
        27    364.4555    995.9772 307.7559266  +6.2652620     981.7737     1338.879     1153.047      81.3773     163.1441     325.9963      1.478     5.52     954.8636     57.49646     181.6779        11     1.493     0.576  70.16   2
        28    441.1391    999.4620 307.7239806  +6.2663964     630.3325     1068.956      1057.77     81.76636     163.1441     326.2234      1.649     3.23     954.8406     57.49646     119.2938         6     0.733     0.640 -52.14   0
        29    978.3694    996.0321 307.5011064  +6.2857837     453.2491     521.7962     331.9543     81.24719     162.8845     325.8989      1.307     4.61     941.9943     57.49646     69.60504         5     1.054     0.572 -17.92   0
        30    548.7416    987.2122 307.6797329  +6.2750603     2874.108     6555.316     7520.861     81.11689     163.0793     325.8989      2.281     8.49     951.8646     57.49646     439.4108        30     2.064     0.975  34.29   2
        31    545.9009    979.4012 307.6811760  +6.2781895     5810.721     12614.39     14291.88      81.2472     162.8196     325.8989      2.215     8.25     951.8154     57.49646     965.6957        35     2.046     0.930  33.69   2
        32    520.5856    989.3667 307.6913467  +6.2732274     743.6741     1090.515     1164.963      81.3773     162.8845     326.0936      1.964     5.32     952.9938     57.49646     112.5112         9     1.299     0.616  33.40   0
        33    754.6432    987.3405 307.5942641  +6.2818991     5317.458     7438.409     7135.195     81.63688     163.1441     326.2882      1.495     3.26      948.081     57.49646     768.6536        20     1.156     0.901  49.98   3
        34    751.4580    985.5057 307.5956481  +6.2825500     4995.805     6268.939     6433.546     81.63688     163.1441     326.3855      1.298     2.92      948.088     57.49646     761.4341        17     1.019     0.896  27.22   3
        35    300.0145    986.7983 307.7829840  +6.2668874     10247.93     16036.94     17640.44      81.3773     162.8196     325.9638      1.676     5.34     954.5212     57.49646     1339.747        40     1.468     1.455  25.87   3
        36    296.8040    984.9238 307.7843800  +6.2675534     8866.536     10786.22     11397.12      81.3773     162.6245     326.0287      1.232     2.14     954.4881     57.49646      1713.72        18     1.135     0.714 -78.30   3
        37    814.3000    985.8080 307.5695533  +6.2845259     878.7479     1841.198     1469.042     81.50719     162.7546     326.0287      1.963     6.82     947.3127     57.49646     126.9295        15     1.918     0.681  31.03   0
        38    421.3553    985.2231 307.7326738  +6.2716106     602.8698     1167.583     1317.574      81.2472     163.1441     326.0287      1.076     3.05     954.3519     57.49646     130.7432         6     0.954     0.419 -74.38   0
        39    271.7328    984.1099 307.7948135  +6.2670472     786.2772     1275.449     1624.642     81.89563     163.2737     326.1909      1.754     2.66     954.3163     57.49646     132.0571         7     0.822     0.560  60.77   3
        40    268.2047    982.3964 307.7963359  +6.2676360     712.9114      1053.37     1363.218     81.11689     162.6896     326.0287      1.614     4.45     954.2728     57.49646     118.4749         7     1.165     0.484  28.39   3
        41    914.5447    980.0673 307.5281367  +6.2902441     6208.312     13290.02     14101.48     81.76635     163.0144     326.1585      2.235     8.67     944.5778     57.49646     854.2805        42     2.188     0.960  32.41   0
        42    888.1301    976.3145 307.5392274  +6.2909113     8763.523     19164.78     20755.61     81.89563     163.4033     326.2234      2.232     9.05     944.9964     57.49646     1348.117        51     2.155     1.078  32.55   0
        43    599.4036    975.6832 307.6590940  +6.2815165     799.0944      1429.04     1674.002      81.2472     162.7546     325.8665      2.474     5.09     950.5549     57.49646     156.5913         8     1.389     0.570  52.36   2
        44   1009.8927    975.6633 307.4887068  +6.2952438     3537.183     7769.375     8301.318     81.76635     163.3385     326.2558      2.226     7.77     939.5217     57.49646     461.9163        34     2.221     0.870  32.45  16
        45    532.4196    975.2262 307.6869128  +6.2794612     2908.991      6617.96     7549.079      81.2472     162.8845     326.0936      2.308     8.81     952.2466     57.49646     441.2972        36     2.225     0.973  28.13   0
        46    641.8453    974.5750 307.6415149  +6.2833950     964.2523     2056.201      2360.65      81.2472     163.2089     326.0612      2.406     7.46     949.9553     57.49646     151.4297        19     2.005     0.777  30.44   0
        47    486.6378    972.3337 307.7060133  +6.2791207     1516.145     2154.545     1791.412     81.63688     163.0793     326.2882      1.531     3.52     953.7357     57.49646     233.4458        12     1.111     0.760  30.07   3
        48    483.7845    970.9404 307.7072447  +6.2796002     1452.255     1795.185     1804.726      81.2472     163.0793     325.9314      1.269     2.71     953.7968     57.49646      224.092         9     0.856     0.670 -76.53   3
        49    919.9081    963.8139 307.5264577  +6.2971327     30958.66     66723.68     72694.81     81.50719     162.8845     325.9638      2.195     9.32     943.7456     57.49646     4460.582        71     2.194     1.105  33.90   0
        50    227.4602    962.1692 307.8139328  +6.2746165      1143.23     2475.815     2361.286     81.50719     163.1441     326.1585      2.201     7.41     953.9578     57.49646     198.4232        20     1.973     0.778  31.81   0
        51     68.5130    974.7961 307.8794753  +6.2640579     578.3127     878.2083     944.6006      81.2472     162.8196     325.8989      1.639     3.08     953.4574     57.49646     104.8958         5     0.737     0.449  67.96   0
        52    817.7410    957.6242 307.5690750  +6.2962755     1755.816     3631.765     3896.078      81.3773     163.1441     326.0287      2.096     7.23     945.9633     57.49646     253.6599        22     1.898     0.772  34.43   0
        53    766.1443    955.3298 307.5905697  +6.2954979     4461.836     9972.776     11284.77     81.76636     163.0793     326.1585      2.245     8.51     946.9847     57.49646     735.5959        37     2.133     0.949  32.66   0
        54    554.4974    955.4727 307.6784164  +6.2883553     557.2944     905.6395     1156.337      81.3773     163.2737     326.1585      2.319     4.67       951.27     57.49646     92.70746         7     1.211     0.510  45.79   0
        55    235.6147    954.6642 307.8108026  +6.2779886      1101.48     2170.555      1996.31      81.2472     163.0144     326.0612      1.998     6.30     953.9891     57.49646     162.7715        15     1.925     0.579  34.44   0
        56    199.9786    954.3879 307.8256031  +6.2769047     609.2029     1446.314     1672.136      81.3773     162.8845     326.0612      2.492     7.52     953.9161     57.49646     96.74756         9     2.034     0.779  47.48   0
        57     61.7909    953.2326 307.8829975  +6.2727327      1799.81     2656.388     2955.338      81.2472     162.9495     326.0287      1.538     4.39     953.3703     57.49646     259.8979        15     1.261     0.761  50.62   3
        58     58.5306    951.4700 307.8844106  +6.2733505     1640.154     2065.462     2339.704     81.76636     163.2737     326.1585      1.349     3.92      953.333     57.49646     266.0528        13     1.130     0.854 -78.90   3
        59    955.6915    951.3429 307.5120240  +6.3034753     4896.899      6926.62     7273.878     81.63688     163.0793     326.2882      1.502     3.55     941.5996     57.49646     680.5836        20     1.164     0.902  31.56   3
        60    952.4763    949.4788 307.5134214  +6.3041375     4526.175     5747.052     5739.461      82.0247     163.4033     326.2882      1.351     3.00     941.7225     57.49646     665.6108        20     1.053     1.002  71.62   3
        61    212.1210    947.6169 307.8207928  +6.2801080     417.3158     718.7516     907.5726      81.3773     162.8845     326.0936      1.422     3.90      953.929     57.49646     109.6855         5     0.902     0.483   4.35   0
        62    927.8766    942.2684 307.5238755  +6.3062930     1478.097     3207.363      3161.66     81.89563     163.2737     326.1585      2.103     7.31     942.5801     57.49646     258.8842        22     2.141     0.698  33.27   0
        63    788.7509    939.4706 307.5817207  +6.3028005     905.9366     1513.592     1765.327     81.76636     163.0793     326.2234      1.977     5.21      945.897     57.49646     142.6204         9     1.366     0.561  25.43   2
        64    649.9878    938.9861 307.6393367  +6.2983589     3147.792     4570.485     4907.027     81.63687     162.8196     326.1261      1.507     3.94     948.9329     57.49646     429.2145        20     1.301     0.852  33.86   3
        65    646.7689    937.0413 307.6407385  +6.2990539     2741.615     3350.872     3644.982      81.2472     162.9495     325.9963      1.187     2.06     948.9266     57.49646      561.272        11     0.944     0.638 -75.53   3
        66    260.8752    938.3280 307.8008716  +6.2855809      2960.63     6506.456     6975.857      82.0247     163.4033     326.1909      2.204     8.38     953.9945     57.49646      490.825        32     2.126     0.922  34.15   0
        67    471.0042    936.5196 307.7137137  +6.2933807      809.067     1433.147     696.0505      81.2472     162.6896     325.9314      1.866     6.45     952.5403     57.49646     141.8522        14     1.868     0.625  39.75   0
        68     31.3081    936.6319 307.8962133  +6.2785589     1435.515     1782.235     2372.904     81.89563     162.9495     326.2234      1.593     4.24     952.9846     57.49646      200.547        13     1.070     0.853  46.28   3
        69     28.2668    934.7007 307.8975411  +6.2792537       1452.8     1888.698     1880.721     81.76636     163.2737     326.1585      1.421     2.77     952.9473     57.49646     263.6894        10     0.903     0.738  84.24   3
        70    880.6561    934.7820 307.5437289  +6.3078068     616.2872     1390.091     1219.593      81.2472     163.0793     325.9314      2.101     5.50     943.2839     57.49646     128.0788         9     2.232     0.383  26.88   0
        71    953.1580    932.2924 307.5137169  +6.3112550     562.6561     907.7338      756.788     81.76636     163.1441     326.2882      1.795     4.67      941.004     57.49646     94.08673         8     1.108     0.559  53.35   0
        72    295.3959    930.7902 307.7867986  +6.2898522     633.1849     1097.254     1732.601      81.2472     162.8196     326.0612      2.189     4.43     953.9324     57.49646     93.68719         6     1.167     0.479  19.87   2
        73    574.8712    931.6552 307.6707644  +6.2988698     1216.765     1640.452     1654.091     81.63687     163.0793     326.1585      1.498     5.24     950.3414     57.49646     214.1283        11     1.216     0.637  49.34   3
        74    571.4565    929.4417 307.6722567  +6.2996692     991.1185     1397.603     1435.222     81.63688     163.0793     326.2234      1.644     4.54     950.4009     57.49646     179.9958        10     1.220     0.731  67.61   3
        75    613.9370    927.9271 307.6546746  +6.3017172     973.8844     1672.405     1753.048     81.89563     163.1441     326.2558      1.933     4.78     949.2408     57.49646     150.2069        11     1.246     0.682  42.66   2
        76     60.5084    926.8516 307.8844257  +6.2835793      740.131     1357.145     2201.533     81.63687     162.9495     326.3855      1.752     3.60     953.3591     57.49646     110.5981         6     0.784     0.499  86.88   0
        77    293.5365    925.5466 307.7877480  +6.2919543     991.5873      1905.28     2624.773     81.76636     163.0793     326.1585      2.062     4.90     953.8995     57.49646     160.5781        10     1.115     0.677  23.95   2
        78    757.7565    919.9863 307.5952435  +6.3098076     597.2059     973.4291     1097.482     81.11689     162.9495     325.9314      1.599     2.64     946.0869     57.49646     103.0148         5     0.773     0.482 -30.36   0
        79    898.6371    918.3514 307.5368184  +6.3151901     4710.365     6887.627     7426.217     81.63688     163.1441     326.0936      1.572     4.39     942.3076     57.49646     700.4927        19     1.299     0.874  53.79   3
        80    895.2719    916.5898 307.5382746  +6.3158049     4450.153     5951.276       7009.8      81.2472     162.7546     326.0287      1.396     2.48     942.3752     57.49646     824.5534        18     1.210     0.776  72.32   3
        81    434.2463    915.2693 307.7296902  +6.3009200     1503.984         2098      2570.42     81.76636     163.0793     326.1909      1.618     4.04     952.5675     57.49646     204.9684        14     1.193     0.875  42.37   3
        82    431.2593    913.3454 307.7309951  +6.3016140     1499.471     2139.595     2454.033     81.89563     163.0793     326.1585      1.526     3.09     952.5815     57.49646     246.9673        10     0.907     0.812  61.04   3
        83    335.8094    913.5814 307.7706068  +6.2983132     6508.691     9380.282      9930.19     81.50719     162.8845     326.0287      1.569     3.77     953.5457     57.49646      833.144        24     1.240     0.993  38.93   3
        84    332.5410    911.5895 307.7720310  +6.2990257     5531.283     6587.327     7426.774     81.11689     163.0144     325.8989      1.211     2.64       953.55     57.49646     1001.808        17     1.053     0.857 -38.46   3
        85    255.9321    912.4875 307.8037993  +6.2960817      4849.62     7017.193     7112.722     81.89563     163.4033     326.2234      1.539     3.92     953.8801     57.49646     682.8246        22     1.296     0.951  53.38   3
        86    252.7115    910.6776 307.8051974  +6.2967206     4047.713     5067.948     5560.343     81.76636     163.4033     326.2882      1.239     2.39     953.8794     57.49646     744.4828        20     1.101     0.927 -70.24   3
        87    582.4953    906.1921 307.6684601  +6.3096365     871.8768      1775.56     2305.975     81.50719     162.7546     325.9963      2.226     6.57     949.5611     57.49646     145.1782        15     1.887     0.643  31.55   0
        88    913.4993    902.9697 307.5311670  +6.3220360     784.5914     1324.361     1587.732     81.76635     162.8845     326.2558      2.012     7.18      941.502     57.49646     128.8973        14     2.089     0.691  37.74   0
        89    867.3738    900.7800 307.5503881  +6.3213996     641.9791     1058.123     1134.116      81.3773     162.9495     326.0936      1.568     3.00     942.6967     57.49646     95.71362         5     0.714     0.466 -76.27   0
        90    410.9101    900.4623 307.7398778  +6.3062495      515.577     959.1284     1551.463     81.76635     163.2737     326.2558      2.144     5.82     952.6531     57.49646     87.65735         6     1.434     0.664  18.65   0
        91    978.8380    896.9265 307.5042473  +6.3267115     665.1552     996.0588     1951.252     81.63687     163.2089     326.2558      1.598     5.12     939.1014     57.49646     96.83685         8     1.233     0.600  27.09   0
        92    748.9204    895.3691 307.5997418  +6.3196744     1133.535     2358.702     2443.121     81.63687     163.0793     326.1585      2.150     6.70     945.4303     57.49646       167.52        17     2.080     0.606  35.03   0
        93    981.9427    892.1365 307.5031197  +6.3287925     936.6304      1541.53     2311.484     81.89563     163.0793     326.2234      1.989     4.88     938.9057     57.49646     131.7869        10     1.159     0.658  36.44   2
        94    614.2686    893.0391 307.6557154  +6.3161302     542.4227     772.2516      738.064     81.63687     163.1441     326.2882      1.391     3.45     948.6185     57.49646     107.4163         5     0.991     0.348  45.84   3
        95    611.0245    891.0709 307.6571285  +6.3168341     599.0154     645.1804     884.7235      81.3773     163.0144     326.1261      1.192     4.95     948.6489     57.49646     106.3151         8     0.997     0.695  68.13   2
        96    532.7480    890.0140 307.6896569  +6.3146481      565.955     1107.806     1586.706     81.11689     163.0793     325.9314      2.605     4.23     950.2192     57.49646     109.0914         6     0.804     0.634  67.39   2
        97    668.7973    889.5581 307.6331977  +6.3193927     1708.829     2609.803     2673.194     81.11689     162.8196     325.8989      1.604     4.11      947.349     57.49646     219.0977        17     1.383     0.810  38.56   3
        98    665.7499    887.8942 307.6345189  +6.3199776     1596.371     1908.526     2151.827     81.63687     163.0144     326.3206      1.228     2.73     947.3643     57.49646     258.6666        11     0.997     0.669 -61.47   3
        99     65.5292    885.5876 307.8837431  +6.3007817     1943.934     3052.771     3437.838      81.2472     162.8845     326.0287      1.815     3.93     953.4133     57.49646     293.2801        16     1.222     0.981  73.35   3
       100     62.3406    883.7473 307.8851291  +6.3014340      1657.68     2325.622     2410.731     81.76636     163.0793     326.1909      1.414     3.21     953.3902     57.49646     333.0133        12     1.036     0.816  38.70   3
       101    209.0642    884.5297 307.8242010  +6.3060473     1504.792     2856.735     2987.293     81.76635     163.2089     326.1909      2.168     5.42     953.8443     57.49646     253.5638        15     1.426     0.699  39.39   2
       102     81.6365    884.2493 307.8771029  +6.3018763     1345.922     2623.364     2947.607     81.50719     163.0793     326.0936      2.045     7.20      953.504     57.49646     178.5948        20     1.984     0.732  39.60   0
       103    947.0898    885.1070 307.5178245  +6.3305313     783.3764     1515.884     1915.752     81.76636      163.662     326.2234      2.050     6.02     939.8802     57.49646     129.8798        10     1.444     0.705  20.38   0
       104    828.2260    885.1374 307.5671660  +6.3265492     670.2673     1313.879     1327.577      81.3773     163.0793     326.0936      2.117     5.36     943.2797     57.49646     114.2177         8     1.714     0.473  26.45   0
       105    798.0327    877.5272 307.5799564  +6.3286817     534.0909      854.426      1608.14     81.63687     163.1441     326.1909      2.696     4.59     943.7841     57.49646     84.77185         7     1.307     0.458  25.92   2
       106    662.0967    877.9857 307.6363699  +6.3239456     4787.748        10157     10558.44     81.50719     162.8845     325.9638      2.123     8.15     947.2044     57.49646     785.7982        34     2.042     0.909  33.38   0
       107     23.6337    876.8319 307.9014301  +6.3029851     896.4763     1487.248     2057.034      81.2472     162.8845     325.9314      1.868     5.86      953.217     57.49646     114.5455        12     1.209     0.800  21.27   2
       108     20.3997    875.2714 307.9028255  +6.3035204     763.1819     1159.718     1474.919     81.11689     162.6245     325.9638      1.378     4.36      953.212     57.49646     140.9666         7     1.123     0.482 -78.16   2
       109    901.6440    875.3484 307.5370186  +6.3330426     1850.395     2502.246      3237.76     81.89563     163.0793     326.2234      1.487     3.31      940.981     57.49646     278.1101        14     1.013     0.864  37.17   3
       110    898.4460    873.4597 307.5384099  +6.3337155     1876.802     2473.389     2729.178     81.63688     163.1441     326.2882      1.426     3.24      941.055     57.49646     301.6871        14     1.073     0.839  14.29   3
       111     36.4347    876.1205 307.8961410  +6.3037099     688.2191     1029.023      1525.26     81.63687     163.2089     326.2234      2.390     4.27      953.277     57.49646     122.1098         9     0.956     0.812  85.00   2
       112     33.4914    873.9558 307.8974362  +6.3045043     786.1309     1051.228     1287.924     81.76635     163.0793     326.3206      1.335     4.25     953.2731     57.49646     111.5922         7     0.773     0.666  76.64   3
       113    346.5000    871.9739 307.7675785  +6.3158476     11159.56     15812.41      17424.9     81.76635     162.8845     326.0936      1.551     3.76     953.1222     57.49646     1498.297        25     1.337     0.922  62.75   3
       114    343.4854    870.4151 307.7688827  +6.3163899     10267.24     13611.25     14418.04      81.3773     162.8845     326.0936      1.412     3.91     953.1391     57.49646     1646.087        24     1.208     0.913  65.56   3
       115     80.3175    872.6653 307.8780437  +6.3066137     941.2944     2864.217     3331.228     81.89563     163.4033     326.2558      2.473     7.42     953.4678     57.49646      945.369        12     1.898     0.813  63.63   2
       116    217.5199    871.2152 307.8211427  +6.3118276     940.3245      1552.91     1971.695      81.3773     162.8845     325.9963      2.107     6.24     953.8239     57.49646     128.4382        12     1.507     0.726  28.21   2
       117    109.7482    862.3934 307.8661764  +6.3118443     1282.847     1808.734     1920.195      81.2472     162.9495      325.834      1.461     3.38     953.5142     57.49646     171.7136        10     1.031     0.632  61.10   3
       118    106.6230    860.8428 307.8675263  +6.3123792     933.1184     1366.406     1194.603      81.3773     163.0144     326.0287      1.413     3.80     953.4811     57.49646      180.697         8     1.096     0.526  49.74   3
       119    424.2516    862.2521 307.7356330  +6.3224703     725.1815     1198.922     960.0566     81.89563     163.0144     326.1909      1.687     3.71     951.9509     57.49646     115.1816         5     1.122     0.352  12.11   2
       120    677.1018    858.3538 307.6308039  +6.3325520     600.9475     1392.705     2474.398     81.76635     163.0144     326.3855      2.480     6.17     946.2184     57.49646     116.0682        10     2.040     0.525  39.16   0
       121    891.7915    856.9797 307.5417275  +6.3402964     1217.084     1603.893     1854.322      81.3773     162.8845     325.9638      1.484     3.92     940.7725     57.49646     180.8879        13     1.167     0.736  41.05   2
       122    888.4561    854.6083 307.5431920  +6.3411640     1211.187     1326.469     1800.387     81.11689     163.0793     325.8989      1.184     2.86     940.8428     57.49646     222.3336         8     0.895     0.633  66.53   3
       123    825.8452    855.8282 307.5691424  +6.3385688     2145.373     3174.521     4410.365      81.2472     163.2089     326.0936      1.721     3.74      942.464     57.49646     323.5411        17     1.155     0.991  62.24   2
       124    822.5402    853.5952 307.5705896  +6.3393802      1676.36     2049.539     3054.786     81.11689     163.0144     325.9638      1.137     2.54     942.4468     57.49646     333.8624         8     0.764     0.706  76.25   3
       125     93.4903    856.0273 307.8731409  +6.3139250     1676.942     2474.152     2975.335     81.89563     162.8845     326.0612      1.643     6.26     953.3246     57.49646     239.9951        15     1.576     0.698  52.91   3
       126     90.2666    854.6060 307.8745273  +6.3144032     1496.834     2310.785     2542.314      81.2472     162.8845     325.9963      1.434     4.26     953.3026     57.49646     273.0319        13     1.437     0.639  67.62   3
       127    860.8743    855.4593 307.5546133  +6.3398915     1487.045     2722.928     2607.283     81.89563     163.1441     326.1909      2.031     7.29     941.7086     57.49646     260.7343        21     2.036     0.731  29.77   0
       128    561.6609    847.3068 307.6790986  +6.3332467     221987.1     309052.4     320972.8     81.63688     163.1441     326.2558      1.528     3.44     948.3046     57.49646     30439.69        84     1.354     1.161  76.52   3
       129    558.6364    845.2992 307.6804219  +6.3339741     204479.2     248763.2     257235.1     81.76636     163.0144     326.3855      1.263     2.68     948.2975     57.49646     31806.01        77     1.245     1.005 -89.56   3
       130    405.9692    849.4908 307.7436541  +6.3271247     5404.782     7935.528     8467.482     81.89563     162.9495     326.1585      1.600     5.10     952.0476     57.49646     719.7367        21     1.314     0.904  39.56   3
       131    402.7098    847.7283 307.7450668  +6.3277429     3797.121     5019.815     5472.391     81.63688     163.4033     326.1909      1.229     2.22     952.0729     57.49646     841.8113        16     1.065     0.759 -73.96   3
       132    347.7632    847.3251 307.7678890  +6.3260651     8606.661     18573.03     20209.04     81.63688     163.2089     326.2234      2.175     8.50     952.7318     57.49646     1341.458        41     2.123     0.951  35.40   0
       133    666.1987    843.7954 307.6358215  +6.3381969     2278.396     5164.354     5198.682     81.11689     162.6896     325.9314      2.176     8.23     945.9823     57.49646     381.5361        30     2.121     0.893  35.14   0
       134    898.6736    842.5993 307.5393549  +6.3464627     3529.838       7661.5     8550.171     80.98637     162.5595     326.0287      2.207     8.12     940.0774     57.49646     585.2262        31     2.159     0.854  29.72   0
       135    739.3947    841.0863 307.6055275  +6.3417642     504.4277     801.1786     927.2097     81.24719     162.8196     325.8989      1.206     3.43      944.061     57.49646     101.1403         5     0.795     0.428  69.37   0
       136    641.0060    837.6110 307.6464884  +6.3399065     2271.552     4981.115      5567.32      81.3773     162.9495     326.0936      2.221     7.69     946.3176     57.49646     352.2542        26     1.987     0.834  32.82   1
       137    629.5455    835.5170 307.6513167  +6.3403872     560.2675     891.4611     1619.577     81.76636     163.1441     326.2882      1.323     3.49     946.4804     57.49646     91.17908         5     0.778     0.451 -72.07   3
       138    829.5065    836.8792 307.5682612  +6.3465135     1028.175     2159.209     2350.284     81.50719     163.3385     326.2558      2.230     6.73     941.6469     57.49646     182.8678        17     2.004     0.634  30.49   0
       139    958.2744    837.3722 307.5147885  +6.3506102     546.9191     962.1573     1569.722     81.63688     163.0793     326.1585      1.840     3.51     938.0917     57.49646     107.3599         5     0.754     0.471  10.83   0
       140    954.8118    834.6674 307.5163171  +6.3516112     577.0056     973.7661     1141.985      81.2472     163.0144     326.0936      1.681     4.22     938.1087     57.49646     100.2925         5     1.130     0.449  59.12   0
       141    633.8206    832.2816 307.6496513  +6.3418660     1502.247       3451.4     4973.988     81.50719     162.8196     326.1261      2.480     7.99     946.2242     57.49646     266.4097        24     2.052     0.871  30.02   1
       142    918.7781    831.1568 307.5313942  +6.3518576     2425.255      3357.69     4047.745      81.2472     163.0144     325.9963      1.560     4.19      939.036     57.49646     374.1105        16     1.273     0.816  44.30   3
       143    915.5148    829.4593 307.5328061  +6.3524494     2103.497     2703.004     3417.736     81.76636     163.2089     326.2882      1.292     3.05     939.0707     57.49646     325.0812        10     0.880     0.734  74.53   3
       144    646.3411    848.3300 307.6439117  +6.3356603     815.6894     1337.899     1760.712     81.89563     163.1441     326.1909      3.012     7.53     946.6083     57.49646     134.1479        12     1.889     0.840  48.89   2
       145    325.7150    829.8776 307.7776324  +6.3325270     636.6227     1236.712     1760.365     81.76636      163.468     326.2882      1.477     3.84     952.8087     57.49646      128.949         6     1.046     0.405 -78.04   0
       146    375.8072    826.3724 307.7569573  +6.3356557     1782.029     3756.219     4088.605      81.2472     162.9495     325.9963      2.146     7.94     952.0547     57.49646     270.0137        27     2.047     0.862  32.33   0
       147    513.2266    816.9993 307.7002292  +6.3441346      2151.23     3414.131     3562.768      81.3773     162.8196     325.9963      1.595     3.85     948.7317     57.49646     291.2149        18     1.260     0.943  38.82   3
       148    510.2996    814.7026 307.7015220  +6.3449845     1644.135     1896.774     2556.971     81.76636     163.5974     326.0287      1.180     2.89     948.7563     57.49646     319.0151        10     0.925     0.738 -26.24   3
       149    854.9696    814.3336 307.5584505  +6.3566714     681.6088     1052.394     1986.141     81.50719     163.1441     326.1261      2.124     5.50     940.3614     57.49646     136.0533        10     1.411     0.604   9.52   2
       150    576.8461    813.3987 307.6739408  +6.3477528     663.8132      1161.09     1295.883     81.11689     162.8196     325.7366      1.861     5.22     946.8029     57.49646     138.4093        10     1.589     0.485  30.74   0
       151    558.7475    812.2687 307.6814923  +6.3476130     3936.466      8721.66     9870.373     81.63688     163.0144     326.1261      2.207     8.16     947.2714     57.49646     657.5161        31     2.098     0.887  32.86   0
       152    565.9252    811.8362 307.6785272  +6.3480320     927.1219     2057.021     2967.454     81.63687     163.2089     326.2234      2.463     7.31     947.0752     57.49646      137.865        18     1.963     0.762  29.17   0
       153    895.8328    811.2013 307.5415920  +6.3593293     840.0081     1143.918     1306.985     80.98637     162.9495     325.9314      1.324     4.46     939.1298     57.49646      141.335         8     1.281     0.441  40.99   3
       154    892.6072    809.2052 307.5429983  +6.3600456     806.0399     1123.719     1478.601     81.11689     162.8845     326.0287      1.214     3.37     939.1577     57.49646     125.6423         6     0.795     0.504  89.05   2
       155    477.6966    811.6978 307.7151579  +6.3451318     1278.349     1788.033     1402.163     81.76636     163.7267     326.0287      1.493     4.54     949.5858     57.49646     177.7863        12     1.212     0.698  36.69   3
       156    474.5483    810.4836 307.7165059  +6.3455274     1022.558     1109.464     1013.056     81.76636     163.0793     326.2882      1.160     3.53     949.6174     57.49646     162.1662         9     0.974     0.714  74.50   3
       157    118.0117    810.2976 307.8645148  +6.3336271     864.2479     1735.688     1888.993     81.50719     162.8845     325.9963      1.987     6.89     952.8249     57.49646     115.1157        15     1.883     0.706  39.22   0
       158    529.4531    806.0779 307.6938625  +6.3491868     13506.71     28999.32     31205.95     81.89563     163.1441     326.1909      2.188     8.92     947.9456     57.49646       1994.7        50     2.142     1.037  33.73   0
       159    944.6522    805.2980 307.5215236  +6.3633962     2437.798     3339.148     3694.322     81.63688     163.1441     326.3855      1.436     3.38      937.425     57.49646     379.7855        14     1.107     0.848  51.09   3
       160    941.2766    803.6015 307.5229821  +6.3639839     2544.105     3224.705     3825.014     81.11689     162.5595     325.9963      1.337     3.31     937.5156     57.49646     433.2997        13     0.996     0.804  40.57   3
       161    323.3308    795.6187 307.7797827  +6.3465889      2101.24     3154.057      3220.62      81.3773     163.0144     326.1261      1.722     3.91     952.2834     57.49646     294.6012        19     1.255     0.974  60.00   3
       162    320.2890    793.6703 307.7811115  +6.3472910     1827.335     2397.726     2488.851     81.76636     163.4033     326.1909      1.296     2.44      952.257     57.49646     316.0832        13     0.982     0.766 -88.29   3
       163     40.0442    796.2634 307.8973557  +6.3367955     1044.976     2435.435     2725.538     81.76636     163.0793     326.2234      2.275     6.91      952.694     57.49646     158.5544        16     1.942     0.689  31.09   0
       164    788.9683    791.4871 307.5866208  +6.3638969      38048.5     51619.19     53524.11     81.89563     162.9495     326.1261      1.473     3.84     940.9169     57.49646      5125.66        31     1.283     0.929  45.00   3
       165    785.5597    789.5174 307.5881023  +6.3645961     32313.99     38494.62     40429.72     81.76636     163.2089     326.1261      1.184     2.60     941.0098     57.49646     5540.484        37     1.137     1.063 -63.35   3
       166     23.6533    793.9442 307.9042383  +6.3372008     1327.245     1769.634     1776.039     81.89563     163.1441     326.1585      1.375     4.92     952.8188     57.49646     227.4289         9     1.290     0.531  59.64   3
       167     20.3058    791.6864 307.9057046  +6.3380200     1396.208     2210.067     2197.796     81.76636     163.5974     326.2558      1.723     5.59     952.8544     57.49646     248.6722        14     1.647     0.657  63.27   3
       168    246.6375    789.3185 307.8118330  +6.3466129     3136.677     4752.183     7041.182     81.76636     163.2089     326.1585      1.983     3.99     953.0376     57.49646     457.7529        20     1.425     0.840  66.27   3
       169    243.2870    787.5976 307.8132822  +6.3472107     3310.666     5365.305     8092.643     81.11689     162.7546     325.8989      2.412     4.85     953.0347     57.49646     508.1318        25     1.631     1.012  71.81   3
       170    432.2579    789.9335 307.7347571  +6.3525921     657.7718     1145.474     913.1833     81.89563     163.0793     326.1909      1.870     4.46     950.2394     57.49646     103.8511         6     0.900     0.628  46.77   0
       171    710.9703    782.4857 307.6193050  +6.3650042     60259.68     99426.32     136552.9     81.89563     162.8845     326.0612      2.355    10.19     943.1168     57.49646     7842.181        80     3.484     1.031  29.94   3
       172    707.5459    780.5386 307.6207924  +6.3656934     51130.88     62219.42      65342.9     81.89563     163.0793     326.1585      1.209     2.64     943.1395     57.49646     8783.751        51     1.243     1.070 -42.05   3
       173    912.9241    785.9415 307.5353475  +6.3703276     5982.584     12833.77      13766.3     81.89563     163.2089     326.1585      2.149     8.34     937.8113     57.49646     1017.871        37     2.126     0.913  33.44   0
       174    404.9818    782.9811 307.7463155  +6.3545468     1005.985     1672.761     2062.554     81.50719     162.9495     326.1261      1.897     5.15     950.4453     57.49646     145.2535        12     1.238     0.864 -79.36   2
       175    401.7721    781.9897 307.7476815  +6.3548483     879.3481     1189.416      1452.36      81.3773     162.9495     326.0612      1.355     5.11     950.4229     57.49646     136.6993         9     1.103     0.669  46.06   3
       176    355.8102    783.2189 307.7667199  +6.3527981     13614.86     20776.24     21808.71      81.3773     162.8196     326.0612      1.632     4.58     951.0213     57.49646     1770.781        32     1.436     0.994  49.04   3
       177    352.5461    781.4969 307.7681332  +6.3533994     10761.94     13382.23     14176.17     81.63688     163.1441     326.4179      1.210     2.41      950.976     57.49646     1793.056        20     1.131     0.778 -82.53   3
       178    417.5163    781.0079 307.7411788  +6.3557820     14796.29     22071.97     23189.47      81.3773     162.8196     326.0287      1.604     3.83     950.1468     57.49646     1934.829        30     1.426     0.966  57.59   3
       179    414.5135    779.4569 307.7424779  +6.3563215     13135.15     16368.91     17920.37     81.76636     163.1441     326.3531      1.298     2.85     950.0787     57.49646     1926.004        24     1.097     0.893  76.22   3
       180    244.4107    766.9729 307.8135151  +6.3557622       741231      1973216      2304648      81.3773     162.9495     326.0612      2.582    13.55     952.2568     57.49646     62873.29       557     2.706     1.887  37.82   4
       181    909.8231    777.2930 307.5369262  +6.3737943     4769.608     10384.56     10883.13     81.76636     162.9495     326.0287      2.173     8.34     937.6189     57.49646      747.415        36     2.100     0.927  35.57   0
       182    881.8196    777.8607 307.5485329  +6.3726247     503.3549     1112.886     802.6846      81.3773     163.0793     326.0936      1.784     5.50     938.4908     57.49646     98.72791         9     1.969     0.434  33.05   0
       183    651.5037    777.0012 307.6441775  +6.3652781     4327.665     6409.822     7126.334      81.2472     162.7546     325.8015      1.627     3.78     944.0536     57.49646       562.97        18     1.240     0.869  55.85   3
       184    648.5085    775.4216 307.6454742  +6.3658299     3802.103     4600.817     5649.862     81.76636     162.9495     326.0612      1.237     2.80     944.0613     57.49646     608.0897        14     1.018     0.767  67.86   3
       185    438.8338    774.2324 307.7325586  +6.3592941     964.0309     2567.552     2949.359      81.2472     162.8845     325.9314      2.586     7.75     949.0834     57.49646     223.6302        20     2.266     0.741  34.77   0
       186    686.8528    767.1260 307.6298358  +6.3705379     1518.587     2120.889     2065.947     81.76635     163.2089     326.2234      1.458     3.55     943.1523     57.49646     225.3757        12     1.088     0.766  35.16   3
       187    683.4995    765.4749 307.6312837  +6.3711072     1357.855     1545.556     1939.477      81.2472     163.2737     326.0936      1.105     2.63      943.186     57.49646     221.9293         9     0.859     0.689 -86.81   3
       188    602.5561    767.5865 307.6648158  +6.3675256     501.3555      826.908     850.0871     81.11689     162.9495     325.9314      1.553     4.10     944.7548     57.49646     74.67725         5     1.216     0.395  35.87   0
       189    419.2784    763.1267 307.7410527  +6.3632225     36422.83     80075.79     87218.98      82.0247     163.4033     326.2234      2.249     9.59     948.9911     57.49646     4983.864        77     2.198     1.168  33.44   0
       190    156.0573    767.6992 307.8501677  +6.3524914     689.7704       1115.8     1281.255     81.50719     163.1441     326.3855      1.876     4.46     952.5206     57.49646     108.0928         7     0.919     0.615  28.28   0
       191    131.1369    767.4373 307.8605214  +6.3517611     620.8425     1265.494     1150.496     81.76636     163.2089     326.1909      2.481     5.02     952.2758     57.49646     108.0098         7     0.995     0.718  54.87   0
       192    961.6712    764.3286 307.5158377  +6.3808770     531.7942     1240.157     1203.912      82.0247     163.2737     326.0936      2.160     4.48     936.1553     57.49646     87.51605         6     1.647     0.346  22.91   0
       193    537.0424    762.0743 307.6921998  +6.3676061     4697.849     10417.37     11100.31     81.63687     163.2089     326.2234      2.215     8.88     946.0285     57.49646     739.7529        41     2.095     1.051  34.98   0
       194    453.8584    760.7012 307.7267793  +6.3653838     2979.509      6746.32     7978.749     81.50719     163.1441     326.3206      2.328     8.95     947.9381     57.49646     434.2886        41     2.569     1.160  42.66   2
       195    451.5260    754.5092 307.7279571  +6.3678617     1463.841     1971.726     2447.151     81.76636     163.3385     326.2234      1.528     4.84     947.6653     57.49646     209.3699        11     1.297     0.703  75.81   3
       196    448.3635    752.6872 307.7293316  +6.3685077      1229.59     1462.478     1613.915     81.76636     163.0144     326.1909      1.430     4.38     947.6549     57.49646     192.7411        12     1.033     0.814  39.36   3
       197    782.1535    758.7446 307.5905543  +6.3771856     7935.949      17106.4     18265.37     81.76636     163.1441     326.2558      2.166     8.47     940.3229     57.49646     1271.541        41     2.137     0.938  34.13   0
       198     12.8500    755.3139 307.9100356  +6.3527829     713.4506     1456.643     1491.452     81.76636     163.0144     326.2882      2.310     7.75     953.0236     57.49646     126.4132        11     1.462     1.151 -11.58   2
       199    954.5596    780.0534 307.5182606  +6.3741482     1416.752     2164.707     1521.191     81.63687     163.1441     326.1585      1.697     4.57     936.5742     57.49646     205.6298        10     1.216     0.632  38.73   3
       200    804.3757    753.0972 307.5815190  +6.3802598     811.0449     1757.196     1443.664     81.89563     162.8845     326.0936      2.122     6.78     939.4935     57.49646     154.6573        12     1.863     0.691  35.26   0
       201    951.4786    778.5186 307.5195914  +6.3746790     1098.615     1533.701     1481.006     81.89563     163.4033     326.3855      1.592     4.64     936.6401     57.49646     204.5101         8     1.099     0.600  43.72   3
       202    132.2525    741.7723 307.8609296  +6.3623929     1434.874     3173.021     3390.021     81.50719     163.2737     326.0936      2.300    10.82     951.7891     57.49646     250.2631        27     3.527     0.924  42.37   3
       203    132.2222    748.0455 307.8607292  +6.3598024     2088.845     4368.605     7015.646      81.3773     163.1441     326.0287      2.703    11.28      951.908     57.49646     504.1923        39     3.657     0.969  29.46   3
       204    148.0480    750.9814 307.8540599  +6.3591229     2081.847     4797.383     5813.104      81.2472     163.1441     325.9963      2.496    10.73     952.0326     57.49646     319.2591        37     2.874     1.117  18.82   3
       205    141.5182    751.4869 307.8567534  +6.3586946     7797.583      9822.48     10420.44     81.50719     163.3385     326.2882      1.404     3.25     952.0082     57.49646     1017.154        17     1.080     0.887  59.91   3
       206    138.3102    749.6604 307.8581471  +6.3593406     6813.185     7599.673     8138.766     81.63688     163.2737     326.2234      1.213     3.33     951.9703     57.49646     1022.042        10     0.924     0.761  38.08   3
       207    971.9879    751.7805 307.5119770  +6.3864013     429.6894     843.3583     984.7932      81.3773     162.8196     326.0936      1.976     4.91     935.8591     57.49646     72.26447         5     1.543     0.443  23.05   0
       208    928.7700    747.9955 307.5300471  +6.3865213     4292.726     6152.766     6529.859      81.2472     162.9495     325.9963      1.485     4.13     936.1512     57.49646     666.1936        20     1.490     0.792  54.64   3
       209    925.7212    746.3289 307.5313690  +6.3871075     3832.784     4378.355     4749.738      82.0247     163.4033     326.1585      1.161     3.16     936.1769     57.49646     736.8064        14     1.128     0.675  59.48   3
       210    976.7308    747.0540 307.5101670  +6.3885107     1051.726     2190.103     2261.055     81.63687     163.0793     326.0936      2.042     6.50     935.7601     57.49646     213.5627        16     1.953     0.607  34.61   0
       211    683.1107    745.0901 307.6321334  +6.3795092     1027.773     2286.082     2956.054     81.76636      163.662     326.2882      2.309     7.48     942.6817     57.49646      208.938        18     2.097     0.746  25.86   0
       212    569.9931    744.0898 307.6791284  +6.3761343     1418.511      3092.22     2907.808      81.2472     162.8196     325.9638      2.089     7.29     944.7282     57.49646     252.1879        20     1.955     0.761  31.08   0
       213    419.4192    744.6552 307.7416195  +6.3708523     799.1034     1771.452     2202.648      81.2472     163.1441     325.9963      2.530     3.86     947.8668     57.49646     148.0224         8     1.215     0.499  47.15   2
       214    951.3885    738.8895 307.5209632  +6.3910354     2167.192     4599.997     4939.395     81.50719     162.8196     326.0287      2.118     7.55      935.784     57.49646     381.0593        24     2.065     0.773  31.69   0
       215    674.2729    738.6762 307.6360190  +6.3818611     967.4833     1997.147     2057.141      82.0247     163.4033     326.2234      2.188     7.19     942.7744     57.49646     160.8337        16     2.016     0.719  33.61   0
       216    983.9348    739.4984 307.5074305  +6.3918702     1079.999     1527.391     1235.355     81.76635     163.2089     326.2234      1.606     3.98     935.6511     57.49646     201.8328         8     1.099     0.582  20.41   2
       217    980.4468    737.5220 307.5089451  +6.3925697     1044.465     1062.996     962.0247     81.63688     163.2089     326.1909      1.030     2.72     935.6583     57.49646     191.1538         7     0.866     0.546  54.59   3
       218    821.1141    736.4800 307.5751302  +6.3876790     692.4056     1432.962     1391.528     81.50719      163.468     326.2882      2.212     6.03     938.6835     57.49646     112.0806        11     1.801     0.569  27.90   0
       219    898.0069    735.5521 307.5432381  +6.3906309     520.7355     904.9803     1411.979      81.2472     162.9495     325.8015      2.092     3.55     936.6814     57.49646     103.4273         5     1.223     0.297  36.22   2
       220    246.6091    733.2930 307.8137445  +6.3697390     1316.015     2685.055      4118.64      81.3773     162.7546     325.9963      2.404     7.21     950.9634     57.49646     184.3702        20     1.933     0.753  35.15   0
       221    765.8080    733.3939 307.5981955  +6.3871040     343.3148     682.7399     479.2963     81.11689     162.9495     326.0287      1.690     4.55     940.0573     57.49646     67.20129         5     0.831     0.709  65.15   0
       222    921.9342    739.3435 307.5331765  +6.3898647     2159.513     4643.409      4945.45     81.89563     163.0793     326.1909      2.189     8.09     936.0756     57.49646     351.3608        29     2.109     0.868  31.10   0
       223    914.7613    728.5511 307.5365181  +6.3940804     906.5882     1504.689     2022.586     81.76636     163.2089     326.0612      1.970     4.69     935.9893     57.49646     122.1678         8     1.179     0.529  49.01   2
       224    967.7728    727.2498 307.5145529  +6.3963873     1770.862     3137.997     3879.251      81.3773     163.2737     326.1261      2.135     5.13      935.263     57.49646     265.3569        14     1.485     0.644  45.69   2
       225    685.5231    725.7505 307.6317848  +6.3875735     742.4802     1497.314     2076.118     81.63687     163.2089     326.1909      2.091     5.58     942.0208     57.49646     123.7969         9     1.379     0.638  28.71   0
       226   1009.7665    721.1284 307.4973242  +6.4003154       1175.9       1693.8     1446.453     81.63687     163.1441     326.2558      1.490     4.70      934.656     57.49646     208.5428        10     1.331     0.574  44.89   3
       227   1006.2856    719.2969 307.4988310  +6.4009554     980.3336     1127.592     706.2806     81.76636     163.5327     326.2558      1.145     2.29     934.5798     57.49646     187.0288         7     0.737     0.615  80.94   3
       228    808.7051    718.0748 307.5809027  +6.3948621     819.1246     1782.399     1952.739     81.50719     163.3385     326.1909      2.123     6.64      938.459     57.49646     127.5157        13     1.788     0.692  30.51   0
       229    897.1620    716.7195 307.5442234  +6.3983770     1016.634     2000.275     2741.441     81.63687     163.2089     326.1585      2.755     5.49     936.2056     57.49646     189.1577        10     1.444     0.588  40.79   2
       230    871.9918    712.1827 307.5548264  +6.3994091     645.9056     1204.887     1535.884      81.3773     162.8845     326.0287      2.500     3.02     936.8576     57.49646     111.8043         6     0.884     0.461  38.90   0
       231    853.6245    708.1426 307.5625882  +6.4004634     982.8856     1605.369     1636.345      81.3773     163.1441     326.0287      1.693     4.15     937.2179     57.49646     164.9531        11     1.291     0.605  31.03   3
       232    850.4806    706.1767 307.5639598  +6.4011699     837.6401      954.448     999.1863      81.3773     162.8196     326.1585      1.151     2.83     937.2536     57.49646       185.17         6     0.727     0.636  25.37   3
       233     53.3668    706.6965 307.8948683  +6.3742163     1415.358      2387.54     2593.055     81.89563     163.0144     326.2882      1.728     5.23     951.8351     57.49646     216.1163        15     1.300     1.005  13.06   3
       234     49.7334    704.9855 307.8964348  +6.3748002     1403.754     1739.797     1793.271      81.2472     163.0144     326.1261      1.260     2.42     951.8326     57.49646     286.9904         9     0.855     0.658 -34.24   3
       235    114.2869    703.2087 307.8696969  +6.3777070      567.565     1488.531     1717.383      81.3773     162.8196     326.0287      2.233     4.75     951.0536     57.49646     86.74371         7     1.455     0.440  85.72   0
       236    665.6435    695.3201 307.6410658  +6.3994700     4087.406     5905.383      6249.74     81.76636     163.1441     326.1585      1.553     3.30     941.3616     57.49646     594.9782        19     1.203     0.883  42.83   3
       237    662.5079    693.5183 307.6424285  +6.4001089     3842.165     4732.895      5247.42     81.50719     163.4033     326.2558      1.277     2.74     941.3654     57.49646     535.8794        14     0.905     0.877  55.37   3
       238    611.3268    693.9479 307.6636629  +6.3982178     908.8044     2160.521     2789.328     81.76635     163.2089     326.2234      2.467     6.34     942.0582     57.49646     165.6094        14     2.163     0.522  38.26   0
       239    521.2978    693.5336 307.7010540  +6.3953722     612.4044      981.955     797.8006     81.76636     163.2089     326.2234      1.822     3.44     943.7033     57.49646     100.3745         5     1.069     0.320  22.03   0
       240    639.4736    691.0426 307.6520753  +6.4003597     1392.234       2158.3     2278.693     81.63687     163.2089     326.2234      1.655     4.33     941.5678     57.49646     220.1592        13     1.209     0.798  48.32   3
       241    636.4678    689.4494 307.6533770  +6.4009167     1266.626     1918.878     1845.126     81.63688     163.0793     326.1909      1.592     3.17      941.528     57.49646     197.6763         9     0.928     0.744 -46.67   3
       242    127.3648    690.4493 307.8647010  +6.3834141     2563.504     5417.842     5567.564     81.63688     163.1441     326.0936      2.185     7.95     950.6176     57.49646     328.7323        30     2.116     0.899  34.78   0
       243   1001.0748    689.8358 307.5019861  +6.4129435     1836.334     3745.446     3737.452     81.63687     163.2089     326.2234      2.096     7.28     933.0814     57.49646     243.0626        23     2.066     0.718  33.97   0
       244    912.6796    687.3433 307.5387706  +6.4110221     2300.908     3417.633     3554.324     81.76636     163.1441     326.1909      1.659     3.21     934.8671     57.49646      330.902        16     1.114     0.882  52.64   3
       245    909.4380    685.4784 307.5401793  +6.4116837     2360.879     2990.302     3055.957     81.63688     163.2089     326.1909      1.288     2.90      934.947     57.49646     423.7756        14     1.001     0.797  47.11   3
       246    781.2225    686.7476 307.5933695  +6.4068755     13661.51     29705.81     32066.62      81.2472     163.1441     325.9963      2.179     8.76     938.2936     57.49646     2039.714        49     2.139     1.001  33.40   0
       247    481.3274    687.5414 307.7178510  +6.3965056     854.6106     1864.276     1942.337     81.89563     163.1441     326.1585      2.686     4.67     944.3427     57.49646     162.7391        10     0.973     0.911  83.49   2
       248    507.9736    685.8321 307.7068462  +6.3981047     597.4125     1319.333      1340.96      81.2472     162.8845     325.9963      2.213     6.93      943.683     57.49646     103.8408        10     2.055     0.656  41.87   0
       249    327.7340    687.6288 307.7816138  +6.3913148     524.8179     856.1395     1094.565     81.50719     163.0793     326.1261      1.672     3.93     947.9961     57.49646     83.71106         6     1.341     0.330  15.74   0
       250    256.6274    681.2941 307.8113487  +6.3915407     3380.299     4726.267     5063.424     81.89563     162.8845     326.0287      1.432     3.65     949.5463     57.49646     558.3445        16     1.386     0.684  70.47   3
       251    253.3077    679.6081 307.8127841  +6.3921250     4078.678     6635.335     6964.725      81.3773     162.8196     325.9963      1.739     5.68     949.5571     57.49646     553.8531        24     1.520     0.921  54.55   3
       252    661.7593    679.5898 307.6432097  +6.4058336     4645.044     10253.12     10874.55     81.11689     162.9495     325.8989      2.217     8.42     940.8661     57.49646     640.6354        38     2.111     0.999  33.33   0
       253    645.9869    681.3815 307.6496975  +6.4045660     539.1927     792.3701     1036.074     81.50719     162.8196     326.0936      1.560     3.85     941.0934     57.49646      73.1911         5     0.876     0.486  -0.74   0
       254    355.9288    678.7098 307.7702107  +6.3959434      451.179     701.7419     1070.544     81.63687     163.4033     326.1909      2.005     5.56     946.7292     57.49646     78.23157         6     1.165     0.748 -13.71   0
       255    922.3923    672.7046 307.5352311  +6.4173894     849.8628     1180.213     1332.962     81.50719     162.7546     325.9963      1.684     3.61     934.1562     57.49646     138.2356         7     1.126     0.458  21.51   2
       256    919.7264    671.2709 307.5363863  +6.4178923     733.8725     1128.871      1310.57      82.0247     163.2737     326.2234      1.194     2.11     934.1754     57.49646     177.1638         5     0.705     0.460  60.62   3
       257    734.8101    668.8047 307.6132445  +6.4127303      2437.51     3670.701     4350.123      81.2472     162.8845     326.0612      1.625     3.87     938.9879     57.49646     342.0894        19     1.283     0.902  56.74   3
       258    731.7555    667.0176 307.6145731  +6.4133659     2157.957     3123.414      3528.07      81.3773     163.0144     325.9314      1.461     2.75     938.9686     57.49646     358.3501        15     1.241     0.807  68.04   3
       259    688.4986    668.5145 307.6324821  +6.4113006     729.9709     1084.182     548.3387     81.76636     163.5974     326.2558      1.831     4.40     939.9487     57.49646     87.44373         8     1.108     0.498   2.12   0
       260    999.7081    664.6158 307.5034025  +6.4233091     6373.628     13469.39     14562.33     81.50719     162.9495     326.0287      2.148     8.24     931.5577     57.49646     974.3527        38     2.126     0.892  33.72   0
       261     18.8717    664.5179 307.9106217  +6.3904652     1383.383     3034.509     4117.007      82.0247      163.468     326.2234      2.817     8.10     951.4158     57.49646     203.7332        23     2.024     0.906  32.51   0
       262    938.2656    665.0474 307.5288986  +6.4210804     1618.978     3259.133     3126.937     81.63687     163.0793     326.2234      2.126     7.03     933.4434     57.49646     246.0403        20     1.868     0.742  32.13   0
       263     78.3668    659.7015 307.8860864  +6.3944571     15341.18     23972.91      25745.6     81.76636     163.0144     326.3206      1.683     4.24     950.6776     57.49646     2189.873        31     1.494     0.982  57.31   3
       264     75.6449    658.3134 307.8872635  +6.3949385     15139.57     21595.37     22626.83     81.76636     163.0144     326.1909      1.495     4.41     950.6566     57.49646      2229.26        29     1.381     0.974  72.07   3
       265    539.6796    661.0203 307.6945220  +6.4094100     1231.646     2091.025     1808.372      81.3773     162.8196     326.1909      1.699     4.95     942.0519     57.49646     163.9006        12     1.275     0.881  74.21   3
       266    536.6714    659.3295 307.6958280  +6.4100071     1300.134      1719.31     1513.731     81.89563     163.2737     326.1261      1.441     3.69     942.0486     57.49646     189.4136        11     1.019     0.762  50.51   3
       267    506.9332    657.5746 307.7082340  +6.4097346     881.2826     1821.298     2161.977      81.3773     163.0144     326.0936      2.060     7.00     942.6914     57.49646     118.3778        16     1.874     0.733  39.03   0
       268    926.4535    655.4957 307.5341247  +6.4246291      690.428     970.7437     852.4208     81.63688     163.1441     326.4503      1.511     3.45     933.5726     57.49646     115.8118         5     0.766     0.449  71.31   2
       269    548.3253    654.6786 307.6911469  +6.4123176     660.5832     1347.729     1356.068      82.0247     163.4033     326.2558      2.355     5.40     941.6724     57.49646     101.0601         9     1.229     0.670  29.61   2
       270    723.0956    651.6591 307.6186870  +6.4194163     2291.523     5078.808     5233.558     81.63687     163.1441     326.2882      2.198     7.95     938.5016     57.49646     362.7949        27     2.049     0.862  31.66   0
       271    745.0452    649.8744 307.6096340  +6.4208873     2793.442     5937.863     6157.159     81.63687     163.2089     326.2234      2.190     7.98     938.0214     57.49646     472.4158        29     2.070     0.861  33.90   0
       272    576.4942    647.8397 307.6796829  +6.4160847     2349.657     4973.714     5322.825     81.89563     163.0793     326.2882      2.116     7.69     940.9333     57.49646     338.7103        24     1.868     0.886  30.66   0
       273    412.4438    648.1267 307.7477834  +6.4104652     918.3552     1961.582     2132.186     81.63687     163.2089     326.2234      2.062     7.23     944.9261     57.49646     119.7201        17     1.983     0.738  28.01   0
       274    237.3893    647.6328 307.8204771  +6.4047892     1187.208     2449.077     3071.395      81.2472     162.8845     326.0287      2.234     6.86     948.3281     57.49646     142.2449        18     1.669     0.791  29.04   0
       275   1018.0026    646.0568 307.4964313  +6.4315809     3651.294      7911.98     8485.248     81.11689     162.9495     318.1461      2.113     8.18     929.2125     57.49646     685.4626        32     2.075     0.900  30.72  16
       276    321.1702    646.7646 307.7857236  +6.4079629     1053.637     2071.473     2044.301      81.3773     162.8845     325.9963      1.998     7.24     946.5529     57.49646     141.5504        18     1.823     0.805  29.47   0
       277    983.3156    644.8676 307.5108735  +6.4309145     5781.827     12057.73     13470.71      82.0247     163.4033     326.2234      2.159     8.33     930.7372     57.49646     877.9191        38     2.175     0.891  34.65   0
       278    704.2573    644.4807 307.6267508  +6.4217493     723.8054     1165.166     1451.873     81.89563     163.1441     326.1909      1.678     5.91     938.4017     57.49646     117.2562         9     1.347     0.746  11.75   3
       279    701.4582    642.4055 307.6279830  +6.4225123     565.1614     1074.581     1261.659      81.2472     163.0144     325.8989      1.637     3.51     938.3409     57.49646     133.7521         5     0.807     0.440  68.47   3
       280    536.6573    645.3200 307.6963077  +6.4157898     599.5828     1021.393     1468.847     81.76636     163.1441     326.1909      2.122     5.26     941.5513     57.49646     102.5016         8     1.534     0.510  20.13   0
       281     95.9251    642.2110 307.8793912  +6.4022682     652.0225     1405.654     1443.762      81.3773     162.7546     325.9963      2.360     5.07     949.9217     57.49646     99.03046         8     1.281     0.569  40.68   0
       282    143.3431    638.6901 307.8598248  +6.4053175     13955.04     20794.23     20985.36     81.63688     163.0793     326.3206      1.593     3.62     949.0958     57.49646     1972.153        26     1.373     0.957  65.33   3
       283    140.4588    637.4520 307.8610643  +6.4057315     15022.41     21307.61     21658.13     81.76636     163.1441     326.1909      1.571     4.01     949.0941     57.49646     2309.429        34     1.437     1.020  67.50   3
       284    428.7637    639.2563 307.7413081  +6.4146745     1901.331     4084.771     5108.192     81.63688     163.1441     326.2234      2.236     7.47     944.0934     57.49646     244.7205        27     1.931     0.914  34.26   0
       285    810.3705    639.0497 307.5828764  +6.4275402       846.46     1838.922     2456.202      81.3773     163.2089     326.0936      2.078     6.11     936.1982     57.49646      128.897        11     1.821     0.577  36.64   0
       286    362.8244    634.2239 307.7688549  +6.4145386     545.6266     948.6017     1406.238      81.2472     162.9495     326.0936      1.656     3.43      945.087     57.49646     80.13135         5     0.980     0.346  45.56   0
       287    978.2831    627.9374 307.5135330  +6.4377356     5310.065     10894.78     12248.98     81.89563     163.1441     326.1585      2.194     8.24      929.899     57.49646     777.9606        37     2.179     0.871  33.96   0
       288     21.0890    626.1385 307.9110057  +6.4063823     912.4365     1362.112     1688.876     81.76636     163.2737     326.2558      1.880     4.69     951.2564     57.49646     143.2126         9     1.080     0.698  45.61   2
       289    571.8727    623.1699 307.6824357  +6.4261137     31688.41     69881.16      75696.6     81.63687     163.1441     326.1585      2.227     8.33     940.1345     57.49646     4515.318        71     2.184     1.156  32.41   0
       290    216.2960    624.2363 307.8300280  +6.4137379     496.9728     952.9928     1442.792     81.89563     163.0144     326.3206      1.759     3.79     947.6686     57.49646     85.06897         5     0.911     0.453  43.72   0
       291    530.6113    623.0317 307.6995717  +6.4247878     465.7868     852.6414     814.9315     81.24719     162.8845     326.0612      2.048     5.62     940.9065     57.49646     83.41675         7     1.613     0.551  19.16   0
       292    179.4481    619.9252 307.8454723  +6.4142782     1977.298     4262.348     4765.272     81.63687     163.2089     326.2234      2.260     8.25     948.1161     57.49646     282.2521        28     1.981     0.960  31.89   0
       293     74.2693    614.7103 307.8893159  +6.4128910       742.15     1205.318     1494.773     81.89563     163.4033     326.1909      1.693     2.17     949.7347     57.49646     161.8521         5     0.654     0.582 -38.53   2
       294     71.0072    612.9014 307.8907316  +6.4135279     801.0927     1318.261     1769.018     81.50719     162.7546     325.9963      1.766     4.58     949.7767     57.49646     143.9081         6     1.071     0.653  19.08   2
       295    469.1439    606.9535 307.7256362  +6.4293639     41243.99      90361.7     99660.56     81.76636     163.1441     326.2558      2.240     7.76     941.7672     57.49646     5192.173        86     2.222     1.216  33.20   0
       296    655.9443    604.8331 307.6481491  +6.4364990      662.311     1183.493     1407.389     81.63687     163.1441     326.1909      1.415     3.63     937.2368     57.49646     101.3949         5     1.133     0.335  -8.75   0
       297    143.6750    601.9769 307.8609334  +6.4204836     1213.863     2445.154     2304.729      81.3773     163.0144     326.1261      1.846     7.15     948.2433     57.49646     182.6338        19     1.975     0.724  34.75   0
       298    940.1498    600.4212 307.5302932  +6.4478218      430.669     610.8344     877.1542      81.2472     163.2089     326.0612      1.389     3.50     931.1094     57.49646     96.24921         5     0.821     0.431  20.21   0
       299    423.5157    599.2845 307.7448402  +6.4309988     651.5219     1229.401     1430.202     81.50719     163.2737     326.2882      2.015     5.05     942.4716     57.49646      80.3811         7     1.268     0.569  22.84   0
       300    314.6087    596.3350 307.7901570  +6.4285597     1382.583     3178.909     3761.487      81.2472     162.8845     326.0612      2.346     7.67     944.1739     57.49646     186.3457        23     1.948     0.914  30.66   0
       301     11.3644    607.6319 307.9156720  +6.4136940     1096.964     2246.637     2973.362      81.3773     162.8845     325.9314      2.508     4.87     951.4711     57.49646     173.1757        11     1.260     0.725  49.65   2
       302    741.0971    590.4494 307.6132788  +6.4452864     3439.521     7604.195     8493.226     81.63687     163.0793     326.3531      2.229     8.11     936.0549     57.49646     538.0817        31     2.040     0.901  31.69   0
       303    794.7462    585.7013 307.5911633  +6.4490406     9516.662     20450.78     22221.05     81.63688     163.1441     326.4179      2.181     8.93     934.9649     57.49646     1359.885        47     2.100     1.061  33.81   0
       304   1013.2251    587.1881 307.5003965  +6.4557233     750.4933     1026.205     1524.584      81.3773     162.9495     326.1261      1.409     2.99     926.3113     57.49646     117.0079         6     0.749     0.553  39.33   2
       305   1010.0000    585.1110 307.5018056  +6.4564732      636.018      1097.66     1510.472     80.98637     162.6245      325.834      1.646     4.40     926.4983     57.49646     110.7477         5     1.063     0.519  78.60   2
       306    537.7477    585.9468 307.6978629  +6.4403358     859.2635     1853.289     2177.212      82.0247     163.0144     326.2234      2.279     6.36     939.6854     57.49646     125.9301        13     1.810     0.628  25.48   0
       307    618.6265    583.7971 307.6643544  +6.4439332     1982.278     3978.708     4355.267      81.2472     162.8845     325.9963      2.116     7.77     937.5909     57.49646     268.2159        26     2.048     0.834  31.67   0
       308    937.4931    581.4614 307.5320350  +6.4555600     865.0821     1380.814      2368.66     81.63688     163.1441     326.2558      1.874     2.64     930.3441     57.49646     150.2656         8     0.876     0.616  74.65   2
       309    934.0179    579.3160 307.5335503  +6.4563296     759.4199     1218.684      1645.07      81.3773     162.8196     326.1261      1.916     4.63     930.3942     57.49646     121.3544         7     1.154     0.526  34.50   3
       310    377.0999    577.5271 307.7648486  +6.4384223     602.1791     1222.777     1253.323     81.50719     163.2737     326.1585      2.014     6.26     942.4293     57.49646     83.97565         9     1.623     0.678  33.41   0
       311    229.7470    576.1838 307.8260736  +6.4340260     821.8112     1499.753     2268.278      81.2472     163.2089     325.8989      2.394     4.81     945.6942     57.49646      122.283        11     1.173     0.814  42.68   2
       312    360.3719    576.6071 307.7718251  +6.4382404     376.5092     590.5215     346.6404      81.2472     162.9495     325.9963      1.436     4.41     942.6547     57.49646     81.60168         5     1.026     0.538  44.87   0
       313    870.7936    568.9904 307.5601504  +6.4584807     1976.023     4178.646     4818.506      81.2472     162.9495     326.0287      2.252     7.52     932.3817     57.49646     286.3248        24     2.071     0.765  34.00   0
       314    830.8024    567.1945 307.5768163  +6.4578857     1545.221     2212.198     2764.402     81.11689     162.8196     325.9963      1.809     3.57      933.461     57.49646     234.1196        14     1.069     0.891  58.03   3
       315    827.4805    565.4589 307.5782541  +6.4584911     1373.557      1767.22     2550.439     81.89563     163.1441     326.1909      1.286     3.41      933.504     57.49646     220.9183        10     1.056     0.653  73.06   3
       316    801.5374    563.0159 307.5891087  +6.4586324     1713.642     2574.229     3741.406      81.2472     163.0793     325.9963      1.651     4.11     934.1074     57.49646      257.045        12     1.212     0.768  74.23   3
       317    798.6678    561.3235 307.5903574  +6.4592351     1531.771     2071.828     2723.021     81.89563     163.2737     326.1585      1.562     4.84      934.112     57.49646     204.8223        13     1.258     0.726  57.40   3
       318    257.5635    561.4621 307.8150238  +6.4410381     5188.833     11350.19     11891.65     81.76636     163.2089     326.1909      2.230     7.85     944.3365     57.49646     723.9283        40     2.103     1.063  32.67   0
       319    810.1198    557.6554 307.5857259  +6.4611322     107437.4     230582.1     249090.9     81.89563     163.1441     326.2234      2.191     8.69     933.7366     57.49646     14894.18       112     2.215     1.153  33.40   0
       320    193.3344    556.6399 307.8418548  +6.4408690     34746.38     49205.51     51920.21     81.76636     163.0793     326.3206      1.567     3.29     946.1792     57.49646     4546.229        45     1.360     1.114  88.02   3
       321    190.3204    554.6995 307.8431720  +6.4415686     33926.73      50692.5     52981.35     81.50719      163.468     326.2234      1.604     3.48     946.2161     57.49646     4986.959        39     1.349     1.110 -86.72   3
       322    117.3594    552.6889 307.8735328  +6.4399435     3646.026     5397.569     5853.449     81.76636     163.0793     326.2234      1.607     3.62      947.882     57.49646     510.9962        18     1.277     0.829  45.78   3
       323    114.3920    551.1841 307.8748159  +6.4404647      3640.49     5771.163     6540.204      81.3773     162.8845     326.0287      1.715     6.31     947.9117     57.49646      551.543        28     1.867     0.997  62.81   3
       324    980.8062    549.3240 307.5151326  +6.4702725     980.9964     2099.915     2329.929      81.3773     162.6245     326.0287      2.308     6.84     927.5487     57.49646      148.368        17     1.988     0.660  26.35   0
       325   1002.0338    548.3314 307.5063517  +6.4713905     510.2172     1174.858     1062.939     81.63687     163.1441     326.2558      2.445     4.91      926.994     57.49646     88.63611         7     1.759     0.387  34.52   0
       326    847.9939    545.7985 307.5703995  +6.4672927     2986.599     4222.595     4301.091     81.11689     162.8196     325.9963      1.524     4.06     932.3364     57.49646     446.9985        18     1.252     0.884  42.04   3
       327    844.7725    543.9570 307.5717992  +6.4679452     2606.019     3282.875      3350.31      81.3773     163.2089     326.0936      1.254     2.44     932.3406     57.49646     478.8945        10     0.894     0.669 -84.28   3
       328    365.1510    543.0795 307.7709768  +6.4522410     10870.69     24488.28     27232.64     81.76636     163.2089     326.1909      2.285     7.41      940.924     57.49646     1374.416        56     2.225     1.167  33.66   0
       329    168.2234    542.5778 307.8527579  +6.4458290      1324.44      2328.31     2576.385      81.3773     162.9495     326.1585      1.793     4.69      946.593     57.49646     172.9781        14     1.275     0.886  21.15   3
       330    165.3444    540.7180 307.8540164  +6.4464998     1200.903      1421.77     1606.785     81.76636     163.1441     326.2234      1.304     3.21     946.6249     57.49646     182.6928        12     0.976     0.837  54.49   3
       331    454.5706    542.5408 307.7338673  +6.4554646     488.4779     1005.553     1011.643     81.50719     163.1441     326.1585      2.142     5.87     939.9193     57.49646     87.31567         5     1.067     0.910  48.05   0
       332    533.0044    538.5162 307.7014366  +6.4597563     3977.165     6233.921     6370.237      81.2472     162.7546     325.8989      1.674     5.09     938.4478     57.49646     503.7123        24     1.339     1.068  43.75   3
       333    529.6846    536.7043 307.7028763  +6.4603930     3184.188     4065.438     4497.111     81.76636     163.5327     326.2882      1.281     2.88     938.3889     57.49646     539.2845        16     1.089     0.866 -74.32   3
       334    802.0216    538.7043 307.5897278  +6.4686847     3671.096     5484.741     6203.348     81.63687     162.9495     325.9963      1.601     4.77     933.2756     57.49646     556.7581        16     1.350     0.747  37.38   3
       335    798.6876    537.3251 307.5911587  +6.4691426     3024.322     3951.436     4579.963     81.76636      163.468     326.2882      1.294     6.02     933.2613     57.49646     549.2306        17     1.685     0.774  57.87   3
       336    242.0578    539.4904 307.8222070  +6.4495867     600.9622      1140.58     983.8748     81.63687     163.1441     326.3206      2.117     4.82     944.1284     57.49646     129.6062         7     1.803     0.365  28.52   0
       337    106.1382    539.8271 307.8786285  +6.4448749     580.8337      1138.58     859.0522      81.3773     163.2089     326.1261      2.201     4.70     947.8633     57.49646     77.80261         6     1.121     0.559  66.54   0
       338    391.4909    535.4130 307.7603000  +6.4562901     795.6266     1668.878     2144.033     81.50719     162.8845     325.9638      2.550     4.45     940.4865     57.49646     125.1464         9     1.233     0.556  25.14   2
       339    576.3990    531.1208 307.6836685  +6.4642636     1641.889     3627.823     4153.306     80.98637     162.5595     325.9638      2.298     8.31     936.8214     57.49646     200.3834        26     1.810     1.066  30.14   0
       340    178.5263    531.0287 307.8488722  +6.4509430     4442.034     9655.212     10379.07     81.63687     163.1441     326.1585      2.218     7.42      945.868     57.49646     593.8939        41     2.130     1.055  33.27   0
       341    818.6114    531.2514 307.5830906  +6.4723159     768.4074     1551.298     2037.309     81.11689     163.0144     325.9314      2.861     4.79     932.4615     57.49646     137.8567         8     1.356     0.542  48.09   2
       342    273.7755    527.5811 307.8094417  +6.4555690     56259.79     125819.6     138795.8     81.50719     162.9495     326.1261      2.271     7.63     942.7216     57.49646     6839.277        92     2.231     1.279  33.45   0
       343     51.6506    530.2973 307.9015749  +6.4469739     3031.284     4667.214     5002.241     81.63688     163.0793     326.3855      1.693     3.49     948.7531     57.49646     391.2979        18     1.255     0.923  72.18   3
       344     48.5255    528.5381 307.9029321  +6.4475948     3023.545     4163.485     4933.448      82.0247     163.1441     326.1909      1.514     4.06     948.7965     57.49646     468.1196        19     1.324     0.905  70.28   3
       345    562.6904    524.9897 307.6895679  +6.4663351     625.6771     1127.554     1579.296     81.50719     162.7546     325.9638      1.897     5.04      936.991     57.49646     104.1089         8     1.528     0.470  23.52   0
       346    257.5308    522.3434 307.8163642  +6.4571850     996.3765     2158.411     2791.835     81.89563     163.0793     326.1585      2.420     7.67     943.0385     57.49646     130.6116        17     1.950     0.845  28.74   0
       347    796.8838    520.0443 307.5924908  +6.4762159     11002.49     23442.83     25542.66     81.76636     163.1441     326.1909      2.175     8.91     932.5711     57.49646     1691.262        52     2.128     1.042  32.95   0
       348    500.5078    518.3986 307.7156105  +6.4669714     28674.03     61506.31     70130.92     81.11689     162.7546     325.9314      2.286     6.88     937.6889     57.49646      3274.95        83     2.322     1.281  30.70   0
       349    974.7223    521.9925 307.5185794  +6.4813522     873.6766     1439.496     2119.071      81.3773     162.6245     325.9963      2.388     4.28     926.9935     57.49646     243.1678         7     1.210     0.467  40.06   2
       350    650.2531    516.0855 307.6535105  +6.4729440     763.1605     1463.229     1813.698     81.76636     163.0793     326.3531      1.962     5.81     934.7029     57.49646     118.4989         9     1.510     0.629  26.08   0
       351    660.4415    513.6145 307.6493634  +6.4743052     1941.449     4291.656     5220.747     81.11689     162.9495     325.8989      2.368     7.63     934.4881     57.49646     276.5009        26     1.980     0.901  32.64   0
       352    214.6555    515.3419 307.8344037  +6.4586336     1014.938      1706.16     2839.179     81.89563     163.2089     326.2234      2.802     4.25     944.2366     57.49646     147.7365        12     1.271     0.713  55.72   2
       353    211.7553    513.9899 307.8356538  +6.4590942     1176.196     2160.929     2767.451      81.2472     163.0144     325.8989      2.495     6.71     944.2996     57.49646     146.6683        11     1.569     0.806  29.65   2
       354     48.6807    514.9095 307.9033309  +6.4532257     825.9968     1563.768     1467.583     81.50719     163.3385     326.2882      1.967     6.19     948.5203     57.49646     125.9987        12     1.757     0.613  35.44   0
       355    670.5179    513.3580 307.6451880  +6.4747484      958.362      2078.09     2471.187     81.76636     163.1441     326.1261      2.350     6.92     934.2786     57.49646     151.4949        16     1.881     0.715  34.57   0
       356    722.6157    512.6035 307.6235807  +6.4768035     1025.133     2095.167     2531.926      81.3773     162.7546     326.0287      2.533     7.00     934.1248     57.49646     156.0453        15     1.756     0.782  37.68   0
       357    398.6075    509.0622 307.7582376  +6.4674065     1058.553      2171.62     2018.847     81.11689     162.9495     325.9963      2.027     7.24      939.813     57.49646     142.9499        17     1.894     0.776  32.27   0
       358    329.6910    507.3539 307.7869108  +6.4657975     2678.755     5886.307     6763.289     81.76636     163.0793     326.3206      2.285     7.14     940.6837     57.49646     339.3204        32     2.109     0.989  33.42   0
       359     79.4015    510.6019 307.8907221  +6.4560385     652.5585     1486.761     1544.462     81.11689     162.6896     325.8665      2.166     5.53     947.7542     57.49646     100.9489         8     1.864     0.464   5.00   0
       360    144.8530    505.9191 307.8637058  +6.4601749      16830.2     37458.38     41124.46     81.76636     163.1441     326.2234      2.261     7.25     946.0394     57.49646     2246.664        62     2.211     1.188  34.65   0
       361    510.9254    507.4364 307.7116557  +6.4718459     1402.638     2224.035     2819.869     81.63687     163.2089     326.2234      1.994     4.75     936.9219     57.49646     197.1078        14     1.354     0.766  36.19   2
       362    508.0000    505.9494 307.7129207  +6.4723616     1242.687      1992.18      2531.85     80.98637     162.6245     325.7041      1.840     3.42     936.8888     57.49646      175.197        10     1.057     0.769 -75.63   3
       363    874.0380    507.0233 307.5608923  +6.4841697     1013.231     1745.953     2351.614      81.3773     162.8845     325.9963      2.438     5.90      929.822     57.49646     167.2311         9     1.272     0.983  27.42   2
       364    870.6901    505.2917 307.5623409  +6.4847727      822.564     1123.852     1687.238     81.76636      163.662     326.2882      1.501     3.92     929.8463     57.49646     154.6726         8     0.983     0.799 -66.69   2
       365    111.7151    504.5934 307.8775097  +6.4596068      1532.11     2447.228     2468.641      81.3773     162.8196     325.9963      1.727     4.21     946.8248     57.49646     210.3734        16     1.312     0.889  64.78   3
       366    108.1504    503.3398 307.8790324  +6.4600042     1468.646     1870.697     1769.313     81.76636     163.0793     326.2558      1.363     4.16     946.8723     57.49646      231.692        12     1.086     0.809 -41.97   3
       367    347.2162    502.4522 307.7798002  +6.4684095     837.5756     1637.749     1945.023      81.2472     163.2089     325.8989      2.121     5.32     940.2546     57.49646     157.6976        11     1.588     0.503  31.39   0
       368    971.9499    501.4746 307.5204217  +6.4897297     3506.316     4523.925     4705.224     81.76635     163.2089     326.2234      1.401     4.04     926.4977     57.49646     490.2336        18     1.159     0.851  32.73   3
       369    968.5141    499.5041 307.5219147  +6.4904285     3087.698     3872.177     4091.732     81.76636     163.5327     326.2558      1.249     2.89     926.5527     57.49646     486.6554        15     0.986     0.858  38.35   3
       370    543.5731    492.9655 307.6985890  +6.4789140     690.3297       1769.1     1956.483      81.2472     162.8845     325.9638      2.632     8.48     935.9104     57.49646     120.4965        18     2.406     0.834  34.36   0
       371     10.3519    490.6833 307.9200683  +6.4619345     15892.87     24725.63     25861.08     81.76636     163.1441     326.1909      1.689     3.87     949.0164     57.49646     2018.803        29     1.390     1.068  63.00   3
       372      7.6648    489.2994 307.9212311  +6.4624152     15084.22     20795.91     22363.84     81.76636     163.2737     322.9643      1.489     2.99     949.0346     57.49646     2111.415        33     1.277     1.078  85.84  19
       373    441.8628    487.1053 307.7410206  +6.4779221     27546.79     61101.68     67544.06     81.63687     163.2737     326.2558      2.269     7.56     937.8408     57.49646     3473.712        72     2.239     1.200  33.08   0
       374    419.7494    489.5055 307.7501214  +6.4761891     407.1525     719.1463     791.6298     81.63687     163.0144     326.4179      2.071     4.31     939.0334     57.49646      83.7572         5     1.175     0.451  58.71   0
       375    651.3279    487.6390 307.6540253  +6.4847229     7540.214     10494.53     11320.54     81.63688     163.1441     326.2558      1.547     4.06     934.0598     57.49646     955.4513        24     1.263     0.958  67.29   3
       376    648.3040    485.6611 307.6553478  +6.4854381     7074.038     9934.615     10605.28     81.50719     163.2089     326.2558      1.506     3.12      934.066     57.49646     980.3988        22     1.188     0.943  86.41   3
       377    289.8210    487.4720 307.8041395  +6.4726650     759.6443     1718.824       1816.9      81.3773     163.0144     326.1585      2.337     6.65     940.6705     57.49646     98.87305        12     1.679     0.739  27.27   0
       378    207.0400    484.6536 307.8386071  +6.4710454     13163.76     28435.74     31895.88     81.63687     163.1441     326.1585      2.256     7.03     943.5546     57.49646      1592.76        58     2.253     1.161  34.66   0
       379    172.1871    485.5150 307.8530493  +6.4695173     1056.625     2158.284     2264.692      81.3773     163.0144     326.0287      2.047     7.59     944.6727     57.49646     147.4461        20     2.054     0.785  20.61   0
       380    985.1789    485.8501 307.5154545  +6.4966212      714.167     1129.757     1058.883      81.2472     163.2089     326.0612      1.586     4.14     925.7159     57.49646     117.8082         7     1.337     0.365  45.88   2
       381    981.8159    484.0605 307.5169113  +6.4972478     695.0663     1019.173     1136.931      81.2472     163.0793     325.9314      1.134     3.39     925.7458     57.49646     144.5253         7     0.953     0.596 -78.58   2
       382    822.4891    483.9763 307.5830751  +6.4919612     634.7892     1036.888     750.1285     81.76635     162.9495     326.0612      1.890     3.58     930.2873     57.49646     103.3302         5     1.221     0.303  54.01   2
       383    573.2221    484.2224 307.6865734  +6.4835169     1527.082     2327.411     2780.518     81.50719     163.0144     326.1585      1.619     4.86     935.1125     57.49646     190.3676        12     1.252     0.663  60.44   3
       384    569.9791    482.7078 307.6879712  +6.4840335     1534.698      2143.78      2441.17     81.63687     162.9495     326.0287      1.419     5.54     935.1085     57.49646     206.4204        12     1.368     0.634  56.36   3
       385    946.9651    481.4993 307.5314696  +6.4971418     3255.425      4395.16     5644.124     81.76635     163.0144     326.3531      1.531     4.17     926.6824     57.49646     470.6492        17     1.207     0.829  42.17   3
       386    943.5438    479.5478 307.5329560  +6.4978332     2566.437     3327.534      4079.57     81.76636     163.1441     326.1585      1.277     2.68     926.7344     57.49646     472.5068        12     0.888     0.801   8.74   3
       387    618.7010    479.1489 307.6678602  +6.4871350     4264.946     9370.258     10134.49     81.76636     163.1441     326.4179      2.226     7.61      934.351     57.49646     555.6174        40     2.105     1.053  34.22   0
       388    108.1003    480.6880 307.8798226  +6.4693530     628.6584     1272.603     1429.757     81.76636     163.5974     326.1585      2.746     5.06     946.3078     57.49646     118.5555         7     1.110     0.652  26.47   2
       389    969.2415    473.7633 307.5224797  +6.5010789     2371.561     3610.513     3475.495     81.50719     163.1441     326.0612      1.565     5.63     925.7773     57.49646     381.6996        15     1.340     0.740  43.27   3
       390    966.0000    471.9708 307.5238861  +6.5017107     1680.937     1953.669     1920.641     80.98637     162.8845     325.9638      1.219     2.51     925.7919     57.49646     395.4764        10     1.093     0.565  69.85   3
       391    530.7938    470.3713 307.7046597  +6.4878126     4809.349     10666.81     12226.95      81.2472     162.9495     325.9963      2.269     8.20     934.8714     57.49646     605.2137        42     2.096     1.119  32.10   0
       392    377.0434    470.5321 307.7684968  +6.4825877     1730.616     3740.531     3624.567     81.76635     163.0793     326.2234      2.233     8.05     938.7903     57.49646     198.7186        26     2.020     0.898  30.86   0
       393    888.5214    467.0388 307.5562261  +6.5011596     2007.302     3169.153     3743.585     81.63687     163.2089     326.1909      1.763     3.91     927.7526     57.49646     288.4276        20     1.448     0.869  46.06   3
       394    885.4866    465.4161 307.5575410  +6.5017281     1843.467     2706.338     3474.001      81.3773     162.8845     326.0936      1.399     2.44     927.7725     57.49646     363.0195        11     0.928     0.797  49.98   3
       395    896.0717    461.5385 307.5532761  +6.5036824      1367.17     1778.852     2397.593     81.89563     163.1441     326.2558      1.672     3.99     927.3754     57.49646     192.5181        12     1.148     0.753  30.97   2
       396    892.5297    459.5275 307.5548148  +6.5043942     1216.507     1565.934     2166.615     81.89563     163.2737     326.1585      1.242     3.07     927.3699     57.49646     212.8477         8     0.886     0.677 -15.10   3
       397    934.2552    460.0382 307.5374705  +6.5055769     839.0441     1653.781      2074.62     81.76636     163.2089     326.2234      2.033     6.79     926.3327     57.49646      131.612        15     1.840     0.703  33.90   0
       398    719.9485    457.0156 307.6265652  +6.4996614     1940.004     2974.557     3522.411     81.11689     163.2089     325.8989      1.671     4.51     932.2242     57.49646      272.973        17     1.415     0.863  45.67   3
       399    716.7303    455.3724 307.6279570  +6.5002320     1288.448     1680.435     2020.961     81.50719     163.0144     326.0936      1.232     2.69     932.1549     57.49646     237.3014         8     0.964     0.515 -89.14   3
       400    391.3013    455.3126 307.7630921  +6.4893490     1952.317     2677.268     3184.191     81.76636     163.5974     326.2234      1.507     3.32     937.4716     57.49646     300.2966        14     1.090     0.905  86.90   3
       401    388.2957    453.6620 307.7643960  +6.4899295     2146.171      3322.56     3759.825     81.50719     163.2089     326.2558      1.703     4.46     937.4693     57.49646     294.2061        17     1.249     0.940  53.68   3
       402     80.4436    455.2638 307.8921698  +6.4789165     1238.168     2641.272     2672.017     81.76636     163.0793     326.1909      2.167     8.05     946.3751     57.49646     169.7852        26     2.154     0.988  35.88   0
       403    429.9637    454.8871 307.7470524  +6.4908224     721.0949     1507.246     1381.895     81.76636     163.0144     326.1909      1.825     5.68     936.4641     57.49646     149.9988         9     1.857     0.489  28.20   0
       404    617.3693    451.3918 307.6693515  +6.4985486     6729.029     14522.48     16104.15      81.2472     162.9495     325.9638      2.170     7.86     933.0452     57.49646     861.1232        43     2.095     1.051  32.05   0
       405    301.3189    448.6705 307.8006809  +6.4890685     1578.768     2495.291      2884.76      82.0247      163.468     326.2234      1.772     5.90     938.4282     57.49646     197.7414        16     1.521     0.898  60.28   3
       406    298.6085    447.2796 307.8018536  +6.4895516     1550.517     2617.031     2977.042      81.3773     162.7546     326.0287      1.943     3.82     938.3272     57.49646     237.8573        15     1.209     0.935  34.76   3
       407    780.0591    447.9020 307.6019115  +6.5054343     10746.52     23264.14     25343.23     81.50719     163.0793     326.3206      2.182     8.86     930.4401     57.49646      1672.72        49     2.147     1.022  32.47   0
       408    809.3169    445.3390 307.5898484  +6.5074706     874.8483     1760.266     1592.464     81.89563     163.1441     326.2234      2.132     6.53      929.453     57.49646     138.4167        13     1.830     0.654  30.00   0
       409    382.7122    445.0537 307.7670061  +6.4932954     1007.715     2247.387     2772.051     81.76635     163.0144     326.3206      2.383     7.52     936.9887     57.49646     120.1649        19     1.851     0.855  18.98   0
       410    965.2726    442.8716 307.5251684  +6.5136989     1406.194     2903.745     3168.361      82.0247     163.2737     326.1909      2.101     7.00     924.7408     57.49646     297.4076        17     1.923     0.715  27.06   0
       411    784.1008    443.2312 307.6003907  +6.5074976     1068.131     2202.598     2389.758     81.76635     162.8845     326.3206      2.222     6.76     930.1627     57.49646     144.9349        17     1.900     0.674  32.33   0
       412    117.5540    439.6929 307.8772899  +6.4865935     2941.571     6486.003     7700.146     81.63688     163.0793     326.3206      2.371     6.95     944.9045     57.49646     359.9269        37     2.124     1.052  31.61   0
       413    755.7081    438.8437 307.6123292  +6.5083592     1519.003      3558.05     3845.545     81.76636     163.0793     326.3206      2.242     8.17     930.7722     57.49646     209.6654        28     2.013     1.002  29.08   0
       414   1019.2470    437.6164 307.5029314  +6.5176694     3204.088      6254.82     6516.737      81.2472     163.0793     306.8049      2.044     7.42      922.787     57.49646     471.5522        31     2.190     0.791  30.77  16
       415    274.6360    436.3052 307.8121799  +6.4932760     1057.202     2051.888     2351.219     81.89563     163.0144     326.2882      2.205     7.14     938.5342     57.49646     138.3208        17     1.737     0.822  13.47   2
       416    355.2405    435.2207 307.7787466  +6.4964320     1761.716     2659.902     2415.492      81.3773     162.9495     325.9963      1.624     4.10      937.168     57.49646     236.2996        15     1.216     0.918  86.86   3
       417    351.9763    433.7102 307.7801533  +6.4969458     1874.553     2838.867     2593.251     81.76635     162.9495     326.0612      1.554     4.05     937.1812     57.49646     259.6923        17     1.148     0.973  48.91   3
       418    710.9630    433.0000 307.6311075  +6.5092745     912.7371     1600.701     1575.585      80.7247     162.8845     325.9638      1.899     3.54     931.2222     57.49646     179.0761        11     1.134     0.946   6.73   2
       419    707.4837    431.5409 307.6326016  +6.5097604     818.3774     1107.146     1306.181     81.89563     163.2089     326.2558      1.380     3.39     931.2133     57.49646     144.4957         5     0.748     0.470  14.85   3
       420    473.0743    423.2154 307.7302232  +6.5053429     847.8176     1875.453     2065.191      81.2472     162.8845     326.0612      2.253     6.70     933.9077     57.49646     134.4441        12     1.671     0.753  31.36   0
       421    835.5742    422.3590 307.5797198  +6.5178347      1064.33     2209.483     2189.135      81.3773     163.0144     325.9963      2.068     7.46     927.6166     57.49646     149.0048        20     2.215     0.704  27.11   0
       422    549.2202    423.9370 307.6985789  +6.5075985      661.301     1299.099     1977.516      81.3773     163.1441     326.0612      2.646     4.36       932.64     57.49646     111.8579         6     0.834     0.649 -71.80   0
       423    822.6885    422.3781 307.5850702  +6.5173961     1185.722     2061.589     2712.913     81.76636     162.9495     326.0936      2.355     7.61     928.1771     57.49646       211.45        16     1.888     0.857  34.41   2
       424    718.4846    419.5422 307.6284385  +6.5150816     9924.181     21195.53     23098.16     81.76636     163.1441     326.2558      2.206     8.27     930.5777     57.49646     1237.669        51     2.246     1.048  33.79   0
       425    620.5032    421.4060 307.6690637  +6.5110319     451.4247     465.1781     293.2265     81.50719     162.8196     325.9963      1.287     5.55     931.5711     57.49646     84.33002         5     1.285     0.676  41.20   0
       426    641.3153    416.3216 307.6605930  +6.5138278     1484.683     2119.547     2464.402     81.76636      163.468     326.3206      1.494     4.66     931.1403     57.49646      214.552        12     1.274     0.723  48.32   3
       427    638.3348    414.6499 307.6618872  +6.5144180      1661.52     2570.095     2623.324     81.63688     163.0144     326.1909      1.710     5.34      931.111     57.49646      213.155        13     1.208     0.850 -16.39   3
       428    612.0370    410.7971 307.6729380  +6.5151277     11153.31     23382.79      30742.7     80.85564     162.9495     325.9963      2.555     8.95     931.0624     57.49646     1445.806        70     2.979     1.094  33.33   0
       429    943.8534    409.5102 307.5351873  +6.5267559     2630.516      5315.23     5430.026     81.76636     162.9495     326.3206      2.062     7.25      924.196     57.49646     418.5803        24     1.987     0.741  29.20   0
       430    382.9586    405.4939 307.7682441  +6.5096339     18511.97      41125.4     45400.76     81.89563     163.0793     326.2882      2.262     7.43     934.3423     57.49646     2108.437        66     2.209     1.232  32.95   0
       431    899.1285    404.6973 307.5539228  +6.5272491     1133.238      2739.78     3248.396     81.63687     163.2737     326.1909      2.514     8.35      925.069     57.49646     171.2449        22     2.089     0.933  30.90   0
       432    129.0995    405.0699 307.8736719  +6.5012741      1569.11     3353.163     3741.784     81.76636     163.2737     326.1909      2.204     6.78      943.684     57.49646     216.7035        26     2.066     0.887  25.95   0
       433     62.5814    400.5696 307.9014453  +6.5008919      1138.69     2472.352     3382.277      81.3773     162.9495     326.0612      2.371     8.18     945.4926     57.49646     159.7083        22     1.925     0.972  33.74   0
       434    913.9924    400.5052 307.5478914  +6.5294761     3168.377     3236.603     3642.516     81.50719     162.8196     325.9963      1.510     4.44     924.6367     57.49646     424.0917        17     1.200     0.871  30.70   3
       435    910.6897    398.7380 307.5493225  +6.5300953     2769.753     2503.948     2395.401     81.76636     163.2737     326.2558      1.133     2.44     924.6116     57.49646     555.1685        11     0.858     0.734 -85.22   3
       436    240.4282    395.9974 307.8277517  +6.5087647     8888.484     19692.04     21967.62      81.2472     162.8845     325.9963      2.273     7.28     938.6792     57.49646     1182.053        53     2.188     1.166  33.16   0
       437    968.3952    397.7177 307.5253928  +6.5324432      472.188     1021.521     895.8708      81.2472     162.7546     325.9314      1.673     4.69     922.7908     57.49646     95.76306         6     1.664     0.375  25.33   0
       438    702.4542    388.4999 307.6361439  +6.5273596     574.3412     1062.241     1022.958     81.50719     163.1441     326.4827      2.149     4.89     929.5477     57.49646     88.22162         8     1.368     0.495  49.26   2
       439   1012.2955    388.5823 307.5074692  +6.5376794     515.3324     991.3662     845.5679     81.63688     162.9495     326.0287      2.010     5.32     920.6837     57.49646     95.66309         6     1.482     0.539  43.37   0
       440    965.0422    389.0000 307.5270789  +6.5359300     689.6986     1041.056     819.1843     80.98637     162.7546     325.7691      1.399     4.10     922.4905     57.49646     111.8793         7     0.892     0.537  39.08   1
       441     75.0906    389.1215 307.8966401  +6.5060388     644.0058     1090.403     1249.364     81.50719     163.4033     326.2558      1.867     4.64     944.8847     57.49646     88.34265         7     1.183     0.516  39.45   0
       442    961.6064    387.2745 307.5285639  +6.5365277     535.0947      627.931     435.1572      81.3773     162.6896     326.0287      1.211     3.48     922.5152     57.49646     112.0056         5     0.925     0.486 -86.41   0
       443    354.2612    386.2158 307.7808141  +6.5166281     997.4417     2100.047      2660.64      81.2472     163.0793     325.9963      2.464     5.63     933.7861     57.49646     117.8331        13     1.184     0.902  14.54   2
       444    142.2592    385.4590 307.8688735  +6.5098122     2992.392     4429.783     4883.956     81.76636     163.1441     326.2234      1.643     4.44      942.837     57.49646     365.0396        20     1.223     1.098  -3.49   3
       445    139.4603    383.5080 307.8701020  +6.5105234     2903.645     4134.972     4618.674     81.63688     163.0793     326.2882      1.594     3.42     942.9082     57.49646     413.3044        18     1.175     0.908  -4.32   3
       446    247.0148    384.0445 307.8254222  +6.5139203     822.3793     1282.968     1462.648     81.11689     162.9495     325.9638      1.909     4.63     937.8426     57.49646     128.2245         8     1.154     0.658  72.04   2
       447    243.5996    382.2441 307.8269015  +6.5145486     790.5602     1180.471     1122.827     80.98637     162.8196     325.8015      1.446     4.04     937.8507     57.49646     104.0647         9     0.892     0.753 -10.09   2
       448    162.8088    380.4502 307.8605106  +6.5125714     1394.497     3718.908     4157.688      81.2472     163.0144     325.8665      2.531    10.06     942.0046     57.49646     187.9491        35     2.184     1.329  34.83   0
       449    828.5103    381.8759 307.5840189  +6.5343103     513.8217     1152.498     1457.067     81.76635     163.4033     326.2234      2.293     4.37     926.2813     57.49646     101.8513         5     1.015     0.536  51.17   2
       450    558.2183    379.6025 307.6963420  +6.5262014     641.7569     1417.614     1404.672      81.3773     162.6896     325.9314      2.255     5.51     929.2553     57.49646     135.2935         7     1.570     0.545  24.91   0
       451    976.4980    375.2062 307.5227862  +6.5420066     611.3615     1012.075     1748.476     81.50719     162.7546     325.9638      2.297     5.76     921.4052     57.49646     97.89374         8     1.278     0.731  54.82   2
       452    973.0540    373.2701 307.5242816  +6.5426909     591.5747     1062.995     1953.664     81.63687     163.0793     326.1261      1.691     3.53     921.4327     57.49646     103.3649         5     0.761     0.472  14.09   3
       453    385.9761    374.9802 307.7680250  +6.5223311     1334.263     2801.794     2736.691     81.50719     162.9495     326.1261      2.227     7.67     932.2677     57.49646     165.4974        22     1.955     0.841  31.54   0
       454    274.3142    375.6986 307.8143692  +6.5182832     711.6099     1182.883     652.7797     81.76636     163.5974     326.2558      1.976     5.51     936.7812     57.49646       113.75         8     1.500     0.571  12.71   0
       455     37.7540    370.5901 307.9127736  +6.5124305     2027.271     3351.477     3848.926      81.2472     163.0144     325.8665      1.921     8.38     945.3068     57.49646     240.8552        23     2.027     0.968  26.84   3
       456     34.6967    368.9850 307.9140977  +6.5129900     1355.972     2230.518     2604.749     81.50719     162.8845     325.9638      1.685     4.01     945.3165     57.49646     239.5966        11     1.321     0.724 -66.01   3
       457    440.1410    368.8407 307.7457402  +6.5266837     4752.068     10491.25     11475.41     81.76635     163.1441     326.2558      2.219     6.97     930.8841     57.49646     577.4446        43     2.103     1.106  31.51   0
       458    780.7161    366.2347 307.6043949  +6.5391691      8860.05     18787.62     20198.06     81.76636     163.0793     326.1585      2.182     8.03     927.3256     57.49646     1271.833        49     2.152     1.031  31.53   0
       459    772.6619    367.6952 307.6076905  +6.5382969      1454.68     3053.236     3365.301     81.50719     163.2089     326.2234      2.200     7.89     927.6482     57.49646      189.135        24     2.201     0.791  35.64   0
       460    345.7686    365.4968 307.7850431  +6.5248955     679.8107      1081.97     1390.668     81.89563     162.9495     326.2882      1.852     5.63     932.6071     57.49646     141.3562         8     1.456     0.615  50.44   2
       461   1022.9396    360.4189 307.5039971  +6.5496606     2275.884     2714.746     2604.011     79.00273     140.4986     257.3376      1.200     2.77     918.6949     57.49646     403.9976        12     0.959     0.724  67.30  24
       462    460.4100    352.9875 307.7378599  +6.5339081     1499.416     3162.508     3152.368     81.50719     162.9495     326.1261      2.118     7.51     929.4326     57.49646     202.7124        28     1.964     1.041  32.99   0
       463    488.2407    352.4645 307.7263202  +6.5350576     2071.484     4341.111      4825.35     81.76636     163.0793     326.2882      2.187     7.04     928.6652     57.49646     264.1622        28     1.914     0.970  33.25   0
       464    231.5407    354.0795 307.8328647  +6.5257692     10136.31     10224.27     10242.32     81.89563     163.1441     326.1261      0.728     1.14      936.626     57.49646     3896.624         8     0.554     0.488  29.09   0
       465    918.8250    353.6119 307.5474651  +6.5489955     483.8524     811.0302     1093.182      81.3773     162.9495     326.1261      1.321     3.41     922.6534     57.49646     74.03394         5     0.765     0.440  19.51   0
       466    846.0788    349.1483 307.5778269  +6.5484078     21673.27     49285.53     53930.86     81.76636     163.2089     326.1909      2.275     8.57     924.2814     57.49646      3085.34        68     2.175     1.201  34.16   0
       467    619.2629    342.2598 307.6722543  +6.5436621     1695.672      2546.04     2718.867     81.76636     163.0793     326.2234      1.602     4.18     926.7316     57.49646     199.9434        16     1.141     0.957   6.12   3
       468    615.7089    340.6158 307.6737858  +6.5442217     1536.004     2263.147     2749.295     81.50719     162.9495     326.0612      1.461     4.28     926.6309     57.49646     240.5203        11     1.005     0.818 -21.75   3
       469     27.2155    342.6240 307.9181005  +6.5236193     618.2668     1217.829     1363.786     81.50719     162.9495     326.1261      2.180     5.34     944.9176     57.49646     93.19421         7     1.214     0.663  -4.66   0
       470     24.2174    340.4870 307.9194181  +6.5244004     628.1484     944.4272     1207.884     81.50719     162.8845     326.0612      1.627     3.46     944.9511     57.49646      97.4812         5     0.790     0.438  21.43   1
       471    702.5231    335.1261 307.6379181  +6.5493948     53441.06     114842.3     124804.3      82.0247     163.4033     326.2234      2.230     8.17     927.2292     57.49646     7008.041        80     2.198     1.163  32.57   0
       472    862.2451    337.5424 307.5715045  +6.5537390     918.9464      1502.78     1842.388     81.76636     163.1441     326.2558      2.267     4.58     923.3052     57.49646     130.8433        11     1.101     0.732  25.50   2
       473     82.3593    334.9155 307.8954641  +6.5286591     923.9004     2135.092      2187.44     81.76635     163.0793     326.1585      2.274     6.89     943.7371     57.49646     161.0665        16     2.053     0.649  36.17   0
       474    564.8544    331.7738 307.6952040  +6.5461676     1752.118     3612.758     3254.635      81.3773     163.2737     326.0287      2.106     7.26     926.0684     57.49646     234.7911        29     2.043     0.967  28.78   0
       475    102.3761    330.6628 307.8872965  +6.5310886     4095.354     9133.329     9466.554      81.3773     163.1441     326.0936      2.204     6.86     943.1972     57.49646     466.9202        39     2.041     1.118  32.32   0
       476    944.0956    331.8837 307.5377025  +6.5588090     562.2915     1064.409     646.8569     81.63687     163.5327     326.2882      1.959     5.70     920.9573     57.49646     107.5299         7     1.926     0.475  21.58   0
       477    548.2529    328.0388 307.7022248  +6.5471529     4718.915     10373.64     11155.38     81.63687     163.2089     326.1909      2.208     8.40     925.8701     57.49646     591.2216        41     2.177     1.026  34.80   0
       478    411.1907    323.2081 307.7593081  +6.5445490     16634.01     37584.89     41203.83      81.2472     162.9495     326.0612      2.259     6.99     929.8369     57.49646     2134.562        65     2.219     1.233  32.84   0
       479    278.7245    326.5060 307.8142064  +6.5387378     1602.959     2283.331     2358.623     81.63688     163.3385     326.1909      1.540     4.99     934.5617     57.49646     180.5259        17     1.325     0.909  38.26   3
       480    275.5134    324.5209 307.8156072  +6.5394493     1365.543     2035.766     2117.632     81.50719      163.468     326.3206      1.621     3.37     934.5404     57.49646     178.3777        12     0.954     0.867  67.35   3
       481    518.3865    321.5403 307.7148478  +6.5488341     870.4389     1948.183     2431.244     81.11689     163.0793     325.8989      2.334     6.98     926.0722     57.49646     107.1279        16     1.744     0.783  30.62   0
       482    390.3675    320.8419 307.7680358  +6.5448266     889.2518     2036.504     3812.257     81.50719     163.1441     326.0287      3.901     7.22     930.1278     57.49646     97.28113        15     1.540     0.949  28.73   0
       483    501.3490    314.3086 307.7221680  +6.5512480     5495.314     8330.783     8754.729     81.63688     162.9495     326.3855      1.644     4.04     925.8769     57.49646     633.7161        23     1.245     1.096  20.19   3
       484    498.6976    312.3464 307.7233356  +6.5519690     4783.755     6487.866     6856.918     81.63688     163.1441     326.4179      1.481     3.16       925.78     57.49646     648.4093        21     1.134     1.009 -36.42   3
       485    490.6759    318.0795 307.7264728  +6.5493334     698.6088     1505.608     2105.222      82.0247     163.4033     326.3206      2.422     6.50     926.3041     57.49646     126.5956        10     2.030     0.584  25.75   0
       486    770.7778    313.2066 307.6103122  +6.5607271     2182.963     3526.589     3945.674      81.2472     162.9495     326.0287      1.797     4.00      925.212     57.49646     296.7948        19     1.282     0.975  38.86   3
       487    767.4909    311.4796 307.6117356  +6.5613300     1699.186     1863.507     2615.558     81.50719     163.3385     326.2558      1.243     3.02     925.2008     57.49646     238.9636        10     0.889     0.752  37.81   3
       488    926.1298    312.6603 307.5458117  +6.5661446      701.575     1097.724     1421.069     81.89563     163.1441     326.2234      1.672     3.45      920.748     57.49646     153.6641         5     0.985     0.349  48.05   2
       489    715.6349    311.3943 307.6332745  +6.5596303     528.6622     797.4891     736.2908     80.98637     162.8845     325.9638      1.900     3.44      925.838     57.49646     74.74213         5     1.074     0.318  21.19   0
       490    325.8321    309.5175 307.7952199  +6.5473336     635.4437     1111.024     1402.267     81.76636     162.9495     326.0612      1.963     4.88     931.5291     57.49646     83.87976         6     0.958     0.703 -81.25   0
       491    163.6495    304.3150 307.8627469  +6.5440274     641.8051     1211.108     1455.391     81.76636     163.1441     326.2882      2.176     4.12     939.8666     57.49646     94.97693         6     1.052     0.462  55.85   2
       492    160.7584    303.2094 307.8639850  +6.5443865     723.0633     1163.836     1664.102     81.11689     162.9495     325.9314      1.545     4.18     940.0092     57.49646     103.3367         6     1.006     0.496 -49.38   2
       493    390.0836    297.7882 307.7689349  +6.5543336     4717.894     10621.34     11817.68      81.3773     162.9495     326.0287      2.292     7.37     929.6655     57.49646     579.8943        45     2.177     1.162  32.77   0
       494    247.3301    298.9999 307.8281769  +6.5490365     1402.859     2239.168     2271.528     81.24719     162.6245     325.9638      1.666     4.45       934.85     57.49646     173.8263        12     1.062     0.853  54.18   3
       495    244.5173    297.4986 307.8293959  +6.5495617     1337.326     2135.146     2511.736     81.76636     163.5327     326.2882      1.813     3.99     934.9301     57.49646     172.6506        12     1.104     0.824 -22.88   3
       496    744.1962    297.7455 307.6218738  +6.5662203     730.2604     1576.176     1361.746     81.11689     162.9495      325.834      2.030     7.22     924.9622     57.49646     116.4412        11     1.752     0.845  31.38   0
       497    758.0399    293.6747 307.6162618  +6.5683638     35949.35     76973.63     83539.29     81.63687     163.1441     326.2234      2.188     7.86     924.5103     57.49646     4792.564        71     2.176     1.121  31.74   0
       498    429.6192    293.1057 307.7526747  +6.5575938      1556.35     3373.204      3397.28     81.63687     162.9495     325.9963      2.154     8.07     928.1531     57.49646      199.551        26     1.975     0.945  38.89   0
       499    992.6056    290.9134 307.5189360  +6.5773411     1265.403     2640.052      2493.24     81.24719     162.8196     325.8989      2.052     7.45     918.3578     57.49646     192.9153        19     1.802     0.863  30.39   0
       500    933.7225    289.7786 307.5434296  +6.5758439     1410.732     3051.993     3396.113      81.3773     162.8845     326.1585      2.079     7.53     919.5634     57.49646     233.9274        22     2.107     0.752  28.69   0
       501    576.0786    290.4664 307.6919399  +6.5635955     774.3455     1698.437      1600.67     81.89563     163.2737     326.1585      2.339     6.28     923.9855     57.49646     137.7288        11     1.628     0.681  30.68   0
       502    465.7637    288.9626 307.7378045  +6.5605170     751.7694     1650.368     2490.109     81.50719     163.0144     325.9638      2.525     5.66     925.4939     57.49646     101.7954         9     1.099     0.821  50.47   2
       503    417.8156    289.5982 307.7576955  +6.5586454     1235.715     2015.044     1942.992      81.3773     162.7546     325.9638      1.731     4.07     928.8868     57.49646     138.3851        13     1.010     0.892  31.89   3
       504    414.6917    287.7353 307.7590560  +6.5593096     1067.096     1322.921     1649.444     81.76636     163.3385     326.2234      1.393     3.34     928.9048     57.49646     192.2624        10     0.966     0.746  27.08   3
       505    297.2575    289.2632 307.8077733  +6.5547342      576.958     971.4967     966.7347     81.89563     163.0793     326.2234      1.948     5.37     931.0815     57.49646     77.05029         7     1.126     0.724  56.95   0
       506    839.3815    284.0149 307.5828055  +6.5750714     748.7361     1620.077     1865.489     81.50719     162.8196     326.0936      2.437     6.30      922.191     57.49646      117.027        10     1.381     0.806  77.49   2
       507    194.4394    280.5030 307.8507692  +6.5548928     1446.418     2312.792     2979.048     81.76636     163.0144     326.3855      1.750     5.00     937.8386     57.49646      200.863        16     1.350     0.958  82.14   2
       508    191.3002    278.6916 307.8521343  +6.5555349     1164.844     1499.066     2156.639     81.76636     163.5327     326.1585      1.380     3.32     937.9716     57.49646     199.6896        10     1.059     0.659 -83.31   3
       509    446.9889    280.5199 307.7458875  +6.5633721     869.1669     1659.262     1726.132      81.3773     162.8845     326.0287      1.783     6.59     926.2994     57.49646     101.1219        13     1.657     0.734  31.34   0
       510    757.8275    278.8492 307.6168506  +6.5744768      3828.27      5777.59     6359.077      81.3773     163.2089     326.1261      1.603     4.42     923.7912     57.49646     532.3846        21     1.392     0.906  50.09   3
       511    754.6548    277.3011 307.6182205  +6.5750097     3231.763     3922.196     4790.711     81.63688     163.1441     326.4503      1.240     2.93     923.7416     57.49646     502.9675        13     0.997     0.738  64.12   3
       512    772.8595    276.1938 307.6106972  +6.5760758     1763.725     3828.868      4120.57     81.11689     163.0144     325.9638      2.179     7.64     923.4421     57.49646     278.5524        24     1.989     0.820  28.37   0
       513     87.7854    276.1376 307.8952084  +6.5531044     682.6031     1244.858     1471.379      81.2472     163.0144     325.9963      1.970     4.25     942.8022     57.49646     105.9124         6     0.939     0.569  26.19   0
       514    362.5311    270.7445 307.7812937  +6.5645717     1310.375     2957.332     3207.017     81.76636     163.0144     326.1585      2.491     8.09      929.586     57.49646     189.5522        27     2.084     0.958  19.83   0
       515     74.9927    270.9569 307.9006970  +6.5548120     795.5834     1784.739     1603.301      81.2472     162.8845     325.8989      2.348     4.57     943.0123     57.49646     110.2555         8     0.939     0.800  34.14   2
       516   1011.1494    267.1628 307.5120343  +6.5877644         4079     8602.404     9034.841     81.50719     163.0793     326.0936      2.091     7.86     917.0866     57.49646     712.8324        32     2.120     0.815  32.63  16
       517    489.1914    266.9462 307.7288203  +6.5703912     1383.528     3132.547     3316.351      81.2472     163.0793     325.8989      2.257     7.55      923.087     57.49646     182.6026        22     1.944     0.820  25.52   0
       518    253.2337    262.9878 307.8269472  +6.5641005       3466.3     5877.066     7189.861      81.2472     162.8845     326.0612      1.880     4.08     934.0688     57.49646     443.9608        25     1.477     0.963  66.18   3
       519    250.3220    261.6329 307.8282024  +6.5645618     3486.509     5485.253     6142.694     81.63688     163.1441     326.1909      1.722     3.61     934.3077     57.49646     454.2474        17     1.199     0.921  69.99   3
       520    387.3358    253.9997 307.7715599  +6.5723170     957.4413     1506.506     1256.228     80.98637     162.8196     325.9314      1.756     6.03     927.9673     57.49646     107.5677        12     1.072     0.954  11.35   3
       521    384.3266    252.3330 307.7728661  +6.5729039     994.2151     1574.111     1312.096     81.89563     163.2737     326.1585      1.683     4.73     928.0312     57.49646     128.6312         9     0.899     0.881  75.88   3
       522    973.9108    252.7224 307.5279871  +6.5924827     816.5115     1240.471      1417.43     81.50719     163.4033     326.2882      1.489     3.92     917.3674     57.49646     118.8428         6     0.909     0.483  32.89   0
       523    309.3759    250.3560 307.8040602  +6.5712021     778.8214     1753.177     1952.495      81.2472     163.0793     326.0612      2.435     5.77      930.698     57.49646     116.4684         9     1.253     0.748  31.42   2
       524    157.0088    249.6405 307.8673615  +6.5663728     1141.309     2431.191         3171     81.11689     162.9495     325.8989      2.550     5.17     939.1775     57.49646     172.2347        12     1.285     0.661  32.76   2
       525    565.3663    244.8850 307.6979307  +6.5820524     1607.879     3305.468     3371.437     81.76635     163.0144     326.1585      2.086     7.51     922.1511     57.49646     203.3027        22     1.703     0.927  30.88   0
       526    908.6364    243.8932 307.5553954  +6.5939480     1365.319     2552.966     2896.519     81.89563     163.0144     326.2882      2.242     7.08      918.662     57.49646     220.4337        20     2.097     0.669  33.72   0
       527    728.7881    242.3100 307.6301452  +6.5885887      3304.37     7128.219     7602.599     81.50719     162.8196     325.9963      2.203     7.80     922.4592     57.49646     425.6965        36     2.124     0.951  32.78   0
       528    669.8013    242.4408 307.6546394  +6.5865602     1455.033      3088.03     2801.036     81.11689     162.8845     325.8989      2.091     7.70      923.213     57.49646     232.1381        23     1.982     0.836  28.32   0
       529    966.6679    242.0589 307.5313547  +6.5966430     587.9219     1094.036     960.7981     81.89563     163.0793     326.1909      1.903     5.39       917.12     57.49646     109.1873         9     1.815     0.452  30.05   0
       530    926.2617    235.3922 307.5483616  +6.5980459     720.7042     1326.807     2038.779     81.11689     162.9495     325.9638      2.789     4.11     917.8428     57.49646     132.6588         6     1.159     0.417  28.81   2
       531    871.4177    226.8760 307.5714275  +6.5997293     1250.139     2656.603      3005.51      81.2472     162.8845     326.1261      2.136     7.52     919.2051     57.49646      182.915        20     2.134     0.742  38.17   0
       532    228.3790    227.3849 307.8384776  +6.5779611     1443.746     3195.375     3552.238     81.50719     162.8845     326.0936      2.292     7.91     936.0599     57.49646     214.3041        24     2.009     0.870  31.91   0
       533    761.4316    226.1422 307.6171334  +6.5963550     1077.894     2345.627     2489.116     81.63687     163.1441     326.1261      2.211     7.15      921.321     57.49646     139.7435        18     1.957     0.731  30.07   0
       534    462.3051    217.5549 307.7416590  +6.5898778     15067.76     33204.33     36939.05     81.76636     163.0793     326.3206      2.264     7.10     921.6061     57.49646      1738.89        62     2.198     1.208  32.94   0
       535    789.6765    217.3706 307.6056985  +6.6009207     8532.648     12938.05     14756.24     81.63688     163.2089     326.2234      1.691     4.63     920.6509     57.49646     1191.475        28     1.327     1.118  62.05   3
       536    786.3302    215.7051 307.6071445  +6.6014963     7646.689     10789.89     12668.53     81.63687     163.2089     326.2234      1.529     5.00     920.6625     57.49646     1217.312        21     1.325     0.866  62.47   3
       537    150.7871    210.9067 307.8712611  +6.5821521     1532.765     3401.122     3478.855     81.50719     162.8845     325.9963      2.215     8.14     938.6423     57.49646     189.0786        26     2.027     0.915  35.55   0
       538    124.2924    209.6007 307.8823087  +6.5817992     713.6291     1363.737     1699.668      81.2472     162.6896     325.8989      2.217     6.43     939.4774     57.49646     87.55701         8     1.247     0.932  26.16   0
       539    467.8004    212.1060 307.7395612  +6.5923114     962.6672     2318.349     3598.684      81.2472     162.7546     325.8015      3.098     8.47     921.1958     57.49646      150.744        22     1.943     1.062  24.02   0
       540    924.8091    207.0193 307.5499214  +6.6097099     951.9281     2027.972     1824.232     81.50719     162.8845     326.0287      1.993     6.39     916.6454     57.49646     164.0918        15     2.080     0.551  29.06   0
       541    587.7767    203.8358 307.6900117  +6.5997486      2976.68     4476.818      4600.38      81.2472     162.8845     325.9638      1.607     3.96     920.8125     57.49646     344.3239        20     1.239     1.021  64.18   3
       542    584.5438    202.4964 307.6913998  +6.6001931     2795.119     3496.876     3541.288     81.63688     163.0793     326.4179      1.395     3.24     920.7574     57.49646     365.8242        16     1.082     0.900 -86.98   3
       543    550.4823    203.9884 307.7054961  +6.5984355     1191.952     1949.688     2155.459      81.3773     162.8845     326.0287      1.970     3.91     920.7827     57.49646     169.6719        12     1.122     0.789  59.62   3
       544    547.5083    202.4597 307.7067830  +6.5989668     1353.281     1952.149     2084.796     81.63688     163.0793     326.3206      1.573     4.38     920.7298     57.49646      162.913        13     1.092     0.901 -88.36   3
       545    306.8954    203.7982 307.8066695  +6.5903373     780.7606      1807.88     1701.855      81.2472     162.8196     325.8015      2.223     6.76     931.4197     57.49646     125.1768        13     1.742     0.736  45.00   0
       546    948.6425    201.3068 307.5402148  +6.6128639     1803.662     2891.783     3398.928     81.76636     163.1441     326.3206      1.872     5.16     915.8333     57.49646      257.566        15     1.473     0.809  59.36   3
       547    945.3392    199.6177 307.5416437  +6.6134509     1595.712     2270.168     2538.452      81.3773     163.0793     325.9963      1.417     3.70     915.8691     57.49646     300.9324        11     1.119     0.795  62.04   3
       548    393.0101    203.2863 307.7709219  +6.5934416     814.1581     1115.992     1102.523      81.3773     162.8196     326.0287      1.628     4.75     925.8535     57.49646     118.8489         8     1.080     0.591  16.06   3
       549    389.1820    201.2056 307.7725823  +6.5941720     939.7189      1413.91     1343.303      81.3773     162.7546     326.0287      1.735     4.34     926.1558     57.49646     137.4742         9     1.074     0.669  28.70   3
       550    894.5309    200.5108 307.5627168  +6.6113853      7876.28     11300.09     12162.16     81.89563     163.4033     326.1909      1.582     3.83     917.1646     57.49646     1109.186        24     1.233     0.946  45.05   3
       551    891.3712    198.7410 307.5640889  +6.6120103     6310.341      7700.13     8161.516      81.3773     163.2089     326.0936      1.201     2.86     917.1674     57.49646     1108.656        15     0.964     0.815  76.45   3
       552    321.3217    200.4655 307.8007910  +6.5921979      694.458     1576.872     1707.881     81.89563     163.2089     326.1585      2.066     6.71     930.8405     57.49646     95.61444        10     1.801     0.702  25.63   0
       553    980.1434    197.7606 307.5272504  +6.6153794      6809.58     14247.41     14827.57     81.76635     163.2089     326.1585      2.132     8.31     915.0743     57.49646     1123.094        40     2.104     0.917  33.38   0
       554    567.7687    199.2015 307.6984785  +6.6009910     604.9867     1155.081      1392.58     81.11689     162.9495     325.9638      2.262     5.10     920.6667     57.49646     98.11035         9     1.726     0.427  33.13   0
       555    691.5906    197.5311 307.6471073  +6.6058285     1917.528     4346.058     4581.332      81.2472     162.9495     326.0612      2.219     8.26     921.4177     57.49646       271.62        27     2.078     0.917  33.46   0
       556     19.6019    196.4305 307.9262341  +6.5837086     16674.04      37386.5     41533.57     81.11689     162.9495     325.9963      2.264     7.78     943.9357     57.49646     2166.504        61     2.228     1.185  33.62   0
       557    265.7370    197.2875 307.8239840  +6.5916412     792.6083     1650.758     797.4946     81.63688     163.3385     326.1909      2.026     6.64     933.9724     57.49646     128.1279        12     1.684     0.735  29.92   0
       558    501.4125    193.2786 307.7262387  +6.6012109      1194.08     1987.478      1928.33      81.3773     162.8196     326.0287      1.781     4.31     920.4011     57.49646     184.7797        13     1.211     0.891  62.75   3
       559    498.4783    191.5163 307.7275170  +6.6018400     1179.603     1809.355     1601.709     81.89563      163.468     326.3206      1.617     3.10      920.384     57.49646      173.959         9     0.818     0.793 -36.16   3
       560    884.2355    188.3738 307.5674023  +6.6160515     1365.441     3128.043     3018.105      81.2472     162.9495     325.9638      2.077     7.48     916.7662     57.49646     229.6492        22     1.969     0.795  26.06   0
       561    831.7909    189.2241 307.5891565  +6.6139478     1383.785     3282.438     3709.171      81.3773     162.9495     326.0612      2.319     7.82     918.3918     57.49646      238.297        23     2.140     0.798  26.65   0
       562    512.2091    188.4979 307.7219164  +6.6035465     1573.686     3778.407     3547.872     81.50719     162.7546     325.9638      2.238     8.18     920.3498     57.49646     235.8619        28     2.006     0.932  30.59   0
       563    744.9753    186.4986 307.6253071  +6.6121694     25922.95     39229.45     40361.99     81.89563     162.8845     326.0612      1.631     5.45     920.2308     57.49646     3323.133        38     1.462     1.041  36.30   3
       564    741.6907    184.7114 307.6267317  +6.6127973      19447.5     24644.07     25725.89     81.76636      163.662     326.2882      1.280     2.67     920.2503     57.49646      3678.73        31     1.246     0.926 -65.05   3
       565    348.1357    185.2613 307.7901702  +6.5993749     3444.933     7108.596     8135.914     81.76636     163.1441     326.2234      2.154     6.77     929.4949     57.49646     368.3639        29     2.001     1.034 -89.34   3
       566    345.2962    183.8274 307.7913981  +6.5998714     3384.904     6820.825     7332.708     81.89563     162.8845     326.1261      2.069     6.73     929.6945     57.49646     372.5647        31     1.918     0.985 -79.29   3
       567    978.6731    185.3900 307.5282779  +6.6204370     1922.655     2630.475     3181.799      81.2472     162.7546     326.0612      1.508     3.67     914.5587     57.49646     312.2142        12     1.138     0.684  48.62   3
       568    975.4839    183.5327 307.5296651  +6.6210973     1767.859     2269.531     2626.111      82.0247     163.4033     326.2234      1.156     2.77     914.5897     57.49646     322.6152         8     0.806     0.673  24.46   3
       569   1016.8871    183.9714 307.5124532  +6.6222979     1060.635     1936.121     1465.827     81.89563     162.8845     324.9888      1.948     5.29     913.8321     57.49646     195.1145        10     1.346     0.586  56.91  18
       570    911.5594    182.9484 307.5562362  +6.6192040     5260.412     11016.79      11836.2     81.76635     163.1441     326.1585      2.134     8.39     915.7968     57.49646     786.5651        38     2.142     0.919  31.88   0
       571    112.3259    173.2772 307.8885127  +6.5963900     3172.337     7133.209     7741.699      82.0247     163.4033     326.2234      2.222     7.64     938.6973     57.49646     456.6075        39     2.035     1.150  34.70   0
       572    282.6969    170.0026 307.8178660  +6.6034743     22236.34     49520.54     54699.46      81.3773     162.8196     325.8665      2.290     7.08     934.2847     57.49646     2557.923        72     2.241     1.231  32.82   0
       573    257.9908    171.0803 307.8280905  +6.6021988     4268.923     9498.323     10210.42      81.3773     162.7546     326.0287      2.216     7.13     935.1299     57.49646     487.7283        38     2.036     1.091  34.71   0
       574    455.0398    182.0483 307.7458790  +6.6042909     3354.431     7465.158     7891.038     81.63687     163.2089     326.0612      2.233     7.49     921.5225     57.49646     437.4242        39     2.215     1.025  32.70   0
       575    709.7571    168.2608 307.6405510  +6.6185194     453.2027     645.9273     1508.562     81.76636     163.1441     326.3206      3.800     4.31     920.1066     57.49646     89.01227         5     0.805     0.657  84.26   2
       576    406.8022    165.5007 307.7664742  +6.6095024     32569.55     73267.69     81231.61      81.2472     162.8845     325.8665      2.281     7.51     923.8691     57.49646     3965.354        77     2.234     1.248  32.87   0
       577    162.8647    166.7202 307.8677461  +6.6007982     2668.398     5977.687     6374.224      82.0247     163.2089     326.1585      2.313     7.95     937.3149     57.49646     316.2939        33     2.041     1.057  30.59   0
       578    425.9807    167.0000 307.7584579  +6.6095273     854.0208     1708.809     1663.618      81.2472     162.6245     325.8665      2.560     6.87     922.5349     57.49646     118.0345        13     1.670     0.793  43.73   2
       579    318.1252    162.8480 307.8033944  +6.6076185     1400.019     3503.643     4988.778     81.63687     163.2089     326.2234      2.946    10.57     932.0541     57.49646     183.4457        29     2.905     1.072  23.08   3
       580    312.3108    163.6671 307.8057815  +6.6070850     10992.12     16325.73     17562.35     81.89563     163.3385     326.1261      1.648     3.82     932.5145     57.49646     1374.225        24     1.351     0.982  70.20   3
       581    309.6613    162.3117 307.8069279  +6.6075555      10989.4     17336.79     18345.17     81.76636     163.2737     326.2234      1.716     3.73     932.7477     57.49646     1335.247        29     1.316     1.206  66.93   3
       582    746.0627    161.7441 307.6256915  +6.6224245     22024.45     47963.73     51538.58     81.89563     163.1441     326.1909      2.227     8.80     919.4588     57.49646     3078.233        62     2.187     1.089  32.81   0
       583    695.9366    164.5183 307.6464178  +6.6196016     584.3719     1078.812     1244.127     81.89563     163.2089     326.1909      2.277     3.73     920.1437     57.49646     101.5853         6     0.801     0.500  -0.73   0
       584    794.7604    162.1810 307.6054499  +6.6238731     892.0904     1864.568     1901.838      81.3773     162.9495     325.9314      2.279     6.51     918.4636     57.49646     131.0481        14     1.694     0.702  27.75   0
       585     62.8584    158.8991 307.9095459  +6.6006586     6007.155     13280.38     14491.57     81.50719     163.1441     326.3206      2.223     7.30     940.6879     57.49646     705.5416        42     2.116     1.086  33.12   0
       586     96.9587    157.0906 307.8954451  +6.6025539     1089.109     2419.123     2481.529     81.76636     163.1441     326.2234      2.244     7.38     938.6409     57.49646     153.4929        18     1.729     0.881  30.06   0
       587   1006.0768    156.6624 307.5178633  +6.6332105     874.3465     1633.045     2031.659      82.0247     163.1441     326.1909      2.096     4.21     913.0134     57.49646     116.4724         9     0.939     0.670  68.26   0
       588   1006.8608    143.2437 307.5179898  +6.6387760     1574.859      2402.89      3255.36     81.76636     163.1441     326.3206      1.728     4.43     912.4378     57.49646     263.4523        15     1.342     0.853  64.66   3
       589   1003.5229    141.4465 307.5194368  +6.6394065     1228.706     1574.997     2507.707     81.63688     163.2089     326.1909      1.998     6.92     912.4108     57.49646     213.8702         9     1.712     0.785  79.52   2
       590    579.8289    145.6930 307.6952797  +6.6234834     666.2461     1060.208      1006.07     81.89563     162.8845     326.0936      1.918     5.77     919.5738     57.49646     96.22247         8     1.472     0.638  40.24   0
       591    589.2078    140.5027 307.6915597  +6.6259403     751.3892     1153.312     1419.318     81.50719     162.7546     325.9638      1.910     6.35     919.5453     57.49646     91.92188        10     1.675     0.677  23.80   0
       592    598.4097    138.7317 307.6877976  +6.6269797     1087.934     1961.071     2452.766      81.2472     162.9495     326.0612      1.875     4.25      919.539     57.49646     178.8911         9     1.250     0.536  54.73   3
       593    595.2766    137.0548 307.6891556  +6.6275670     1162.782     1656.508     2579.427     81.76636     163.1441     326.1909      1.561     4.45     919.5239     57.49646     193.9608        13     1.252     0.780  43.92   2
       594    281.6404    136.2754 307.8194491  +6.6173610     20074.37     44545.86     49385.11     81.63688     163.1441     326.2234      2.253     7.12     935.1721     57.49646     2348.645        64     2.195     1.226  32.25   0
       595     26.9083    134.6880 307.9252998  +6.6094409     2904.011     6528.282     7158.383     81.76636     163.5974     326.2882      2.220     7.90     942.1633     57.49646     359.5789        33     2.103     1.004  33.00   0
       596    713.2567    132.9470 307.6402905  +6.6332140     5334.674     11488.13     12638.63     81.89563     163.1441     326.1909      2.239     8.25      918.772     57.49646     711.7445        42     2.163     1.000  33.41   0
       597    192.2992    134.6519 307.8566105  +6.6150261     619.4977     1064.276     981.0609     81.76636     163.1441     326.4179      1.804     5.16     936.4783     57.49646     104.5322         6     1.141     0.659  46.75   0
       598    268.8844    132.7217 307.8248677  +6.6183990     505.7921     782.2087     998.6292     81.89563      163.468     326.3206      1.482     4.54     935.4718     57.49646     92.51917         5     0.838     0.700 -35.73   0
       599    125.5031    130.5116 307.8844933  +6.6144866     2962.952     4632.097     4620.598     81.76636     163.5974     326.2234      1.718     3.97     937.6282     57.49646     356.4116        20     1.281     1.010  55.99   3
       600    122.5034    129.4450 307.8857754  +6.6148259     2812.023     3745.221      4260.74     81.76636     163.0144     326.3531      1.483     3.67     937.6974     57.49646     360.1987        18     1.264     0.911 -72.78   3
       601    340.9665    138.8615 307.7947211  +6.6182874     604.0601     1085.241     898.8012     81.50719     163.2089     326.1261      2.126     4.89     930.3715     57.49646     120.3182         7     1.764     0.383  43.79   0
       602    464.5618    128.3379 307.7437433  +6.6267817     745.3342     1273.439     956.0124     81.76636     163.2089     326.1909      1.654     4.18     920.4872     57.49646     132.3748         6     1.118     0.492 -89.51   2
       603    394.6275    126.1466 307.7728645  +6.6253385     2720.853     6113.452     7356.343     81.50719     163.2737     326.0936      2.341     7.25     925.0358     57.49646     297.8936        37     2.178     1.071  36.80   0
       604    115.0460    125.6488 307.8890017  +6.6161417     987.7761     1560.414     1979.115     81.76635     163.0144     326.2234      2.117     4.54     937.9203     57.49646     135.4575        11     1.123     0.845  45.80   2
       605    112.0277    123.7471 307.8903199  +6.6168251     1045.094     1481.689     2087.727     81.50719     163.2737     326.0936      1.366     2.89     937.9998     57.49646      177.769         9     0.924     0.623  20.63   3
       606    360.4949    125.5088 307.7870630  +6.6244554     2074.565     3191.212     3490.783     81.76636      163.662     326.1909      1.710     4.46     928.6642     57.49646     242.2749        16     1.164     0.927  31.97   3
       607    357.6893    123.9718 307.7882804  +6.6249956     1788.312     2479.767     3230.479     81.89563     162.8845     326.0936      1.595     3.96      928.883     57.49646     236.4849        12     1.023     0.954 -70.35   3
       608   1005.8851    118.9383 307.5192139  +6.6487769      1108.54     2140.012      1779.31     81.89563     163.2737     326.1909      2.003     6.60     911.4981     57.49646     242.7551        18     2.055     0.595  30.30   0
       609    209.3556    112.7037 307.8502717  +6.6246599     3076.934     4054.182     3844.376     81.76636     163.0793     326.3531      1.435     3.27     936.2693     57.49646     403.3263        18     1.071     0.995 -64.37   3
       610    672.8898    112.6918 307.6577420  +6.6402239     4205.907     9073.144     9864.322     81.76636      163.662     326.2882      2.169     7.87     918.1857     57.49646     573.1427        35     2.058     0.984  31.75   0
       611     95.2444    114.2626 307.8976129  +6.6201747     1389.065     2348.593     2837.069     81.76636     163.0793     326.2558      1.774     3.90      938.536     57.49646     188.9035        15     1.245     0.803  56.81   3
       612     92.2980    113.0126 307.8988791  +6.6205915     1277.059     1803.657     2288.053     81.50719     162.8845     325.9638      1.746     5.14     938.6635     57.49646     171.3139        10     1.100     0.736  39.52   3
       613    822.2573    112.7249 307.5956981  +6.6452082     705.3547     1094.287     1529.756     81.89563     163.0793     326.1585      1.814     6.16     915.6213     57.49646     119.0476         7     1.845     0.578  51.19   2
       614    818.6705    111.3810 307.5972333  +6.6456430     529.0613     813.4258     1311.792      81.3773     163.0144     326.1261      1.655     3.43     915.6199     57.49646      92.1767         5     1.164     0.292  53.97   2
       615    624.9754    109.9244 307.6777376  +6.6397614     6204.089     13971.81     15717.68      81.3773     162.9495     326.1585      2.264     7.31     919.0464     57.49646     839.8463        50     2.190     1.140  32.79   2
       616    628.5319    101.4536 307.6765468  +6.6433773     36453.78     78095.48     85231.65     81.76636     163.0793     326.0936      2.207     7.88     918.8087     57.49646     4548.997        77     2.211     1.173  32.20   2
       617     25.3596    109.9692 307.9267838  +6.6195921     591.1574     1237.503     1472.668     81.24719     162.9495     326.0612      2.378     4.73     941.5386     57.49646     87.07983         6     1.142     0.557  20.41   2
       618    353.3223    106.6653 307.7906810  +6.6319928     2115.329     3684.956     4569.726     81.89563     163.1441     326.1585      2.002     5.45     929.5076     57.49646     254.8077        18     1.484     1.198 -75.06   3
       619    350.5412    105.0085 307.7918923  +6.6325833     2124.807     3617.365     4342.333     81.11689     163.0793     325.8989      1.873     6.01     929.7111     57.49646     299.3623        22     1.628     1.034  73.39   3
       620    533.8707    104.8138 307.7157520  +6.6388173     1191.683     2564.822     2524.653      81.2472     162.9495     326.0612      2.170     7.79     919.2545     57.49646     146.1951        21     2.069     0.820  31.47   0
       621    212.7491    114.5678 307.8487990  +6.6240046     3433.182     5060.057     5308.367     81.63688     163.2089     326.1261      1.627     3.82     936.2878     57.49646     415.0875        22     1.246     1.191  72.14   3
       622    307.6166     95.1261 307.8100562  +6.6352201     2350.824     5516.318     6870.831      81.2472     162.8845     326.0612      2.457     6.96     933.9445     57.49646     302.3833        37     2.129     1.149  31.31   0
       623    797.9815   1020.4772 307.5751581  +6.2696687     4588.758     6467.896     6402.947      81.2472     162.8845     292.7964      1.492     3.82     949.1395     57.49646     635.0767        20     1.230     0.891  50.37  19
       624    708.9781     89.9567 307.6435203  +6.6508172     655.6078      1307.24      1383.85      81.2472     163.0144     325.9963      2.353     5.41     917.1563     57.49646     111.4244         9     1.344     0.615  30.65   2
       625    678.5685     88.3734 307.6562053  +6.6504527     878.5826     1772.928     2228.549      81.2472     162.8845     326.0287      2.068     6.97     917.2762     57.49646     136.6718        14     1.872     0.728  23.95   0
       626    692.9385     85.3257 307.6503393  +6.6521919     2198.461      4582.28     4485.014      82.0247     163.1441     326.1909      2.124     7.24     917.0958     57.49646     298.9357        29     2.072     0.884  28.92   0
       627    434.6732     76.2794 307.7579213  +6.6472678     2684.836     5650.777     6472.293      82.0247     163.4033     326.2234      2.241     7.91     921.6691     57.49646     312.2626        31     2.058     0.948  31.30   0
       628    907.2268     71.8152 307.5617835  +6.6649355     2821.315     5977.648     6214.004      81.3773     162.9495     326.0936      2.141     7.99     911.5983     57.49646     451.5333        28     2.023     0.881  31.85   0
       629    890.9308     73.9250 307.5684816  +6.6635201      1358.13     1832.378     1411.579     81.89563     163.2737     326.1909      1.402     5.03     912.1107     57.49646     205.4296        10     1.165     0.615  44.02   3
       630    887.5052     71.7530 307.5699778  +6.6643022      1223.25     1488.492     1810.572     81.63687     163.0793     326.3206      1.275     2.72     912.0689     57.49646     214.8705         8     0.836     0.630  41.49   3
       631    600.5350     71.4600 307.6891904  +6.6548204      1103.31     1442.215     2074.126     81.89563     163.0793     326.2234      1.611     5.27     918.5025     57.49646      152.201        12     1.129     0.809   7.88   3
       632    597.7258     69.2659 307.6904315  +6.6556320     1020.164     1334.646     1444.911     81.89563     163.1441     326.1585      1.372     4.70     918.4432     57.49646     137.5035         9     1.010     0.745 -26.42   3
       633    399.3435     68.6599 307.7728542  +6.6492269     1215.001      1817.76     1956.517     81.89563     163.1441     326.2234      1.628     3.93      924.676     57.49646      166.762        13     1.246     0.668  50.45   3
       634    396.6235     67.3227 307.7740293  +6.6496875     1233.577     1737.689     1949.002      81.3773     163.0144     326.1585      1.523     2.82     924.8891     57.49646     211.2698        10     0.904     0.759 -84.96   3
       635    243.6857     68.7491 307.8375052  +6.6439585     635.4482     1223.734     1724.152     81.76636     163.0793     326.2558      2.243     5.96     935.9966     57.49646     98.64209         9     1.123     0.891  66.91   0
       636    147.2549     65.9481 307.8776529  +6.6418696     1874.913     2564.501     2929.503     81.76636     163.1441     326.1585      1.503     4.22     935.9871     57.49646     233.4996        14     1.124     0.944 -47.19   3
       637    144.5151     64.4190 307.8788429  +6.6424085       1926.4     2965.213     2506.986      81.3773     162.8845     326.1585      1.683     4.01     936.0023     57.49646     273.1267        15     1.231     0.829  44.23   3
       638     29.3246     63.6370 307.9267132  +6.6388506     7845.169     11792.36     13157.96     81.63688     163.2089     326.2234      1.641     3.69     940.2704     57.49646     1011.257        29     1.397     1.033  67.17   3
       639     26.3338     61.7064 307.9280210  +6.6395466     7101.904     10114.64     11681.65     81.63687     163.3385     326.1909      1.548     3.17     940.3747     57.49646     1086.828        25     1.355     0.958 -79.98   3
       640    295.9199     64.3036 307.8159602  +6.6475500      794.115     1751.125     3071.901     81.50719     163.4033     326.2882      3.180     5.57     935.1112     57.49646     154.9086         9     1.331     0.658  42.14   2
       641    568.0477     62.8557 307.7029760  +6.6572833     535.8636     930.9844     513.3958     81.76636     163.1441     326.2882      1.750     4.87     918.2866     57.49646     83.68231         7     1.471     0.457  29.57   0
       642    774.6610     57.9953 307.6173165  +6.6662088     2360.375     4923.878     4872.222     81.11689     163.0144     325.9638      2.026     7.85     914.6525     57.49646     354.8226        31     2.058     0.905  34.18   0
       643    421.8020     59.1897 307.7638466  +6.6538902     553.3184      1212.56     1996.773      81.3773     162.8196     325.9963      1.695     4.15     922.4337     57.49646     100.5812         6     1.307     0.377 -84.09   0
       644    827.5670     56.5013 307.5953903  +6.6685948     3413.199     4527.602     5197.352     81.76636     163.0144     326.3206      1.273     3.30     913.0974     57.49646     586.5751        14     1.109     0.879 -31.27   3
       645    831.0095     58.5108 307.5938924  +6.6678804     4212.422      5797.21     6585.453     81.50719     162.8196     325.9963      1.483     3.67     913.0804     57.49646     576.9812        17     1.144     0.838  27.26   3
       646    538.3787     56.6729 307.7155090  +6.6588408     665.9494     1228.429     1787.388      81.3773     162.9495     326.1261      1.406     3.42     918.1909     57.49646     110.5898         5     1.014     0.333  67.33   3
       647    535.6796     55.0244 307.7166860  +6.6594307     661.4578     893.0172     1473.218     81.50719     162.9495     326.1909      1.712     4.47     918.1532     57.49646     128.3877         6     1.123     0.507  53.44   2
       648    658.4234     55.7830 307.6656749  +6.6632312     565.2423     856.7006     1335.163     81.50719     163.0144     326.0936      1.716     3.30     916.9541     57.49646      117.649         5     1.111     0.284  35.01   0
       649     69.7535     55.5415 307.9101967  +6.6435548      2034.17     2931.136     3694.449     81.76636     163.1441     326.3206      1.691     5.07     937.9819     57.49646     270.4872        17     1.388     0.876   6.04   3
       650     66.7292     53.4031 307.9115255  +6.6443355     1722.474     2410.509     3165.706      81.2472     162.7546     326.0287      1.503     3.13     938.0341     57.49646     292.7887        13     1.008     0.808  62.54   3
       651     51.2427     54.7911 307.9179105  +6.6432407      548.268     1026.129     1200.768      81.2472     162.9495     325.9314      2.000     4.14     938.9307     57.49646     80.74243         5     0.748     0.694  28.50   0
       652    427.6958     53.5390 307.7615900  +6.6564206     656.6414     1213.645     1868.397     81.50719     163.1441     326.2882      1.544     3.42     922.0221     57.49646     93.59155         5     1.074     0.315 -22.10   0
       653    592.1719     51.4265 307.6933420  +6.6628098     802.2362     1785.645     1235.157      81.2472     162.9495     326.0287      1.998     6.90     917.9195     57.49646     109.2347        14     1.793     0.745  23.26   0
       654     10.7857     50.3372 307.9348656  +6.6437154     1666.445     3925.688     4483.464      81.2472     163.0144     325.9963      2.343     8.39     940.9187     57.49646     227.8707        28     2.097     0.939  30.53  16
       655    770.6734     46.3296 307.6193669  +6.6708909     1437.005     2063.136     2088.698     81.89563     163.2737     326.1909      1.554     3.73     914.2446     57.49646     188.6505        11     1.060     0.708  47.29   3
       656    767.4607     44.4900 307.6207635  +6.6715429     1164.961     1429.573     1951.177     81.63688     163.2737     326.2558      1.228     3.46     914.2341     57.49646     188.1107         8     0.896     0.659  35.86   3
       657    408.1996     44.4840 307.7699951  +6.6595038     724.7373     1354.738     1736.216     80.98637     162.6245      325.834      2.905     4.58     923.7232     57.49646     115.7776         8     1.063     0.659   3.26   2
       658    426.3214     39.6969 307.7626300  +6.6620883     1540.144     2223.815     2856.664     81.50719     163.4033     326.2558      1.567     3.78     922.1206     57.49646     203.0692        15     1.085     0.965  16.34   3
       659    423.2764     37.9798 307.7639530  +6.6626949     1599.402     2283.131     2524.921      81.3773     162.8196     326.1261      1.495     3.15     922.3329     57.49646     227.9707        13     0.960     0.895  88.39   3
       660     95.9987     39.0747 307.8998556  +6.6512361      6184.81     13966.07     14671.12     80.98637     162.5595     326.0612      2.236     7.70     935.9115     57.49646     725.7209        45     2.116     1.119  34.38   0
       661    794.6551   1018.3018 307.5766121  +6.2704556     4022.944         5059     5161.636     81.63688     163.1441     316.1448      1.270     3.09     949.0453     57.49646     615.9272        17     1.064     0.834  80.24  19
       662    638.7065     31.1463 307.6746981  +6.6727407     12500.98     26899.52     29126.85     81.63687     163.0793     326.4179      2.200     8.20     916.7155     57.49646     1820.054        55     2.191     1.086  33.35   0
       663    538.4418     27.1723 307.7164814  +6.6710205     3424.668     7414.093     7990.447      81.3773     163.0793     326.0287      2.219     8.04     917.4548     57.49646     433.8167        38     2.181     0.990  28.75   0
       664    896.1630   1017.2078 307.5345158  +6.2742983     981.7191     1577.425     1613.787     80.98637     162.8845     323.4225      2.217     5.69      946.679     57.49646     181.1975        11     1.207     0.755  28.94  18
       665    754.6890   1015.1699 307.5933065  +6.2704124     548.5674      865.308     694.9438     81.89563     162.9495     326.1261      2.222     4.74     948.8505     57.49646     99.14441         6     1.424     0.447  65.24  17
       666      5.4507     25.1453 307.9379386  +6.6539340     849.1699     1840.454     1320.956     81.76636     163.1441       303.86      2.227     6.83     940.8684     57.49646     111.9895        16     1.972     0.664  34.21  16
       667    923.3544     23.6753 307.5567076  +6.6853464         1331     1636.259     2200.539     81.63688     163.2089     326.2234      1.668     3.73     908.4456     57.49646     190.7045        14     1.175     0.832  62.02   2
       668    920.4023     21.9584 307.5579919  +6.6859565     1181.751     1702.844     2069.963     81.11689     162.8845     325.8989      1.542     4.42     908.4021     57.49646     246.1646         7     1.148     0.485  58.70   3
       669    216.9019   1014.7013 307.8165340  +6.2525767     1524.799     3102.108     3490.203     81.76636     163.5327     326.0287      2.048     7.38     953.9543     57.49646     235.2607        22     1.981     0.770  34.30  16
       670     29.8817     22.6504 307.9278761  +6.6557876     1526.511     2854.591     2288.679     81.76635     163.2089     326.2234      2.019     7.09     939.2959     57.49646     207.6288        21     1.846     0.828  36.67   0
       671    324.4246     23.3332 307.8055102  +6.6654202     550.8024     1129.325     619.0273      81.3773     163.0793     326.0936      2.066     4.27      932.389     57.49646     94.00897         6     1.130     0.460  -5.60   0
       672    555.2280     21.7910 307.7096908  +6.6738047      440.011     653.8338     984.2881      81.3773     162.9495     326.0612      1.297     3.84     917.2308     57.49646     66.96619         5     0.954     0.443 -44.57   0
       673    713.0665   1011.4017 307.6107098  +6.2705759     894.0966     1814.215     2678.194     81.11689     162.7546     325.9638      2.834     7.64       949.46     57.49646     116.1771        15     2.407     0.678  22.00  19
       674    305.7617     17.5731 307.8134577  +6.6671705     582.8231     1265.167     1105.947      81.3773     162.9495     326.0287      2.123     5.68      934.139     57.49646     84.18188         7     1.577     0.577  28.35   0
       675    721.7469   1012.6100 307.6070661  +6.2703674     5057.833     7720.015     8279.014     81.11689     163.0793     325.8989      1.653     3.63     949.2339     57.49646     715.2822        22     1.258     0.971  44.44   3
       676    718.3396   1010.7354 307.6085436  +6.2710274     4390.413     5378.017     6664.981     81.76636     163.0793     326.2234      1.254     3.04      949.309     57.49646     788.3887        14     0.927     0.854  87.19   3
       677    435.0578   1011.8822 307.7260845  +6.2610654     2821.486     6068.489     6320.877     81.89563     163.1441     326.2558      2.208     8.50     955.1799     57.49646     500.6223        34     2.217     0.910  36.92  16
       678    752.4575   1007.0084 307.5945080  +6.2737069     836.3128     1966.825     2383.556     81.11689     163.0793     325.9314      2.153     7.38      948.634     57.49646     151.7651        16     1.996     0.764  36.01   0
       679    959.9078   1001.5199 307.5085848  +6.2829023     4562.141     10033.29     10245.41     81.50719     163.4033     326.2558      2.167     8.11     943.3193     57.49646     629.7693        36     2.120     0.938  33.30   0
       680    714.6201   1002.4397 307.6103674  +6.2743275     811.9708     1473.457     2894.195      81.3773     162.9495     325.9314      2.155     6.30     949.1858     57.49646     96.20007        15     1.738     0.641  30.06   0
       681    245.9145   1002.2742 307.8049137  +6.2586816     966.7449     1537.182     1933.224     81.89563      163.468     326.2234      2.148     5.54     954.1666     57.49646     160.7779        11     1.380     0.668  42.80   2
       682    242.6743   1000.6537 307.8063135  +6.2592416     780.3116     1029.961     1231.633     81.63688     163.1441     326.1585      1.205     2.96     954.1329     57.49646     140.3207         5     0.755     0.493  70.51   3
       683    721.0529   1000.2419 307.6077714  +6.2754499     2036.653      3130.94     3652.721     81.76635     163.2089     326.2234      1.579     4.53     948.9652     57.49646     282.0653        18     1.360     0.861  32.24   3
       684    717.6990    998.6832 307.6092161  +6.2759812      1487.88     1938.296     2999.835     81.76636      163.662     326.2882      1.312     2.84     949.0284     57.49646     273.3916         9     0.921     0.652 -79.22   3
