#   1 NUMBER                 Running object number                                     
#   2 X_IMAGE                Object position along x                                    [pixel]
#   3 Y_IMAGE                Object position along y                                    [pixel]
#   4 ALPHA_J2000            Right ascension of barycenter (J2000)                      [deg]
#   5 DELTA_J2000            Declination of barycenter (J2000)                          [deg]
#   6 FLUX_APER              Flux vector within fixed circular aperture(s)              [count]
#   9 FLUXERR_APER           RMS error vector for aperture flux(es)                     [count]
#  12 FLUX_RADIUS            Fraction-of-light radii                                    [pixel]
#  13 FWHM_IMAGE             FWHM assuming a gaussian core                              [pixel]
#  14 BACKGROUND             Background at centroid position                            [count]
#  15 THRESHOLD              Detection threshold above background                       [count]
#  16 FLUX_MAX               Peak flux above background                                 [count]
#  17 ISOAREA_IMAGE          Isophotal area above Analysis threshold                    [pixel**2]
#  18 A_IMAGE                Profile RMS along major axis                               [pixel]
#  19 B_IMAGE                Profile RMS along minor axis                               [pixel]
#  20 THETA_IMAGE            Position angle (CCW/x)                                     [deg]
#  21 FLAGS                  Extraction flags                                          
         1    530.6186     42.2862 307.7221814  +6.6801947     1413.481     3553.514     4312.102     87.09396      174.327     348.9666      2.516     8.37      1051.23     61.53552      151.707        33     2.102     1.292  32.40   0
         2    333.2373     25.0048 307.8048098  +6.6807240     6665.266     16944.47      21339.8     86.53566      174.327     348.8625      2.632     6.49     1065.992     61.53552     630.3334        69     2.364     1.563  34.20   0
         3    660.0288     18.3246 307.6692063  +6.6944093     5720.962     14043.24     17532.71     87.37177     174.6742     349.1402      2.604     7.17     1048.669     61.53552     544.4794        62     2.415     1.445  35.10   3
         4    651.8271     13.8958 307.6727659  +6.6959638     4938.776     11676.25     14900.66      87.6487      174.327     349.0013      2.562     6.61     1048.579     61.53552     539.5854        59     2.370     1.375  37.99  19
         5    824.6249     17.7757 307.6008080  +6.7001257     1026.873     2323.108       3055.1     86.95473     174.3965     349.0013      2.453     6.95     1043.186     61.53552     113.5802        17     1.797     0.753  41.46   0
         6    260.5031     15.3227 307.8353710  +6.6822836     3127.846     8486.884     10870.32     87.09396     174.8129     349.1749      2.785     7.00     1071.428     61.53552     319.3217        64     2.321     1.705  24.38   0
         7    895.3544     15.6494 307.5714800  +6.7033597     878.5971     1891.964     2294.474     87.51035      174.466     349.1402      2.340     6.50     1041.326     61.53552     133.9321        12     1.836     0.645  31.89   0
         8    421.8062     13.9578 307.7683731  +6.6882497     4083.506     10273.27     12541.69     86.95473     174.2575      348.793      2.585     6.97     1059.197     61.53552      418.282        60     2.394     1.502  34.27  16
         9    683.8093     11.4651 307.6595547  +6.6980347      6937.23     21892.23     31558.65     86.95473     174.3965     348.9666      3.160     7.93     1047.726     61.53552      702.052        98     2.607     2.136  -9.75  16
        10    736.9799     12.2992 307.6374252  +6.6994645     1169.124     2557.025     2679.197     87.51035      174.466     348.8625      2.250     7.65     1044.947     61.53552     137.2272        18     1.690     0.970  28.38   0
        11    660.8905      9.7307 307.6691401  +6.6979858      1828.87     4450.603     6248.571     87.51035     174.7435     349.1055      2.932     6.97     1048.367     61.53552     183.7914        37     1.910     1.370  34.04  17
        12    200.0386     10.1807 307.8606777  +6.6823788     666.8459     1950.516     2452.221     87.09396     174.3965      348.793      3.034     5.35     1071.764     61.53552     92.08398         7     1.266     0.639   2.88   0
        13     68.1451      7.1301 307.9156007  +6.6792110     1686.191     4060.445     4498.464     87.51035      174.466     341.7034      2.428     8.81      1074.34     61.53552     196.8367        32     2.065     1.198  36.51  16
        14    158.7020      4.2455 307.8780612  +6.6834420     2610.667     6625.471     8268.077     87.51035     173.7003     309.9436      2.730     7.32     1072.502     61.53552     280.1238        49     2.255     1.507  32.18  24
        15    785.7686      2.3319 307.6174835  +6.7052061     742.0959      1757.11      2129.74     86.67558     154.1879     280.2131      2.470     7.22     1043.151     61.53552     103.3209        11     1.851     0.788  14.29  24
        16    893.6828      1.9353 307.5726397  +6.7089655     936.5172     1728.518     1739.964     83.83298     148.6666     273.4283      1.988     6.82     1040.741     61.53552     133.2069        14     1.558     0.837   5.28  24
        17    461.7137    991.9147 307.7185177  +6.2858625     4073.244     4382.309     4558.646     87.23298     174.8129     349.1749      0.977     3.33     1097.882     61.53552     1196.648         7     0.960     0.376  43.77   0
        18    756.3910   1023.4974 307.5950577  +6.2826587     3014.547     3985.856     4336.166     77.99249     141.1405     265.5142      1.207     3.44     1095.165     61.53552     655.7552        14     1.190     0.711   8.90  24
        19    551.9457   1023.8143 307.6799584  +6.2757079     1043.103     1384.457     2051.413      73.5137     136.0701     259.7003      1.265     3.67     1098.766     61.53552     249.2913         8     1.122     0.434  -0.91  27
        20    550.3342   1018.0791 307.6808224  +6.2780217     5364.419     11965.86     14130.17      87.6487     174.7435     340.0326      2.385     6.88     1098.599     61.53552     632.2338        50     2.165     1.281  39.03  18
        21    302.6599   1023.0685 307.7835155  +6.2676815     6976.895     10236.75     11992.24     83.68831     148.4218     273.4726      1.629     4.50     1099.472     61.53552     1031.795        38     2.036     0.984  -4.08  24
        22    958.8028    989.0712 307.5121535  +6.3036097     4669.087     10105.85     11236.05     86.95473     174.1879     348.9319      2.220     8.12     1088.057     61.53552     574.9304        39     2.130     1.013  32.81   0
        23    933.6796    981.3875 307.5228484  +6.3059462     1348.381     1870.402     2044.426     87.09396     174.2575     348.9319      1.558     3.31     1088.986     61.53552     210.8464        11     1.029     0.692  67.84   3
        24    931.2173    979.7108 307.5239278  +6.3065565     1507.116     2038.575     2372.112     87.23298      174.327     349.0013      1.512     4.35     1089.097     61.53552     214.7375        13     1.143     0.848 -84.76   3
        25    653.4003    976.8564 307.6394151  +6.2984796     2815.795     6375.983     6647.001     86.67558     174.1879     348.7582      2.235     6.67     1095.417     61.53552     302.8123        38     2.115     1.115  31.66   0
        26    265.4178    977.2194 307.8005437  +6.2853620      2635.73      5843.96     6603.635     87.23298     174.3965     349.0361      2.312     6.51     1099.091     61.53552       363.05        38     2.093     1.134  30.38   0
        27    791.8546    977.0041 307.5819038  +6.3030343     944.5057     2042.621     2166.749     86.81526     174.3965     348.7582      2.250     6.48     1092.309     61.53552     192.2366        12     1.748     0.776  39.56   0
        28    476.6415    975.4853 307.7128761  +6.2931439     640.2924      1446.86     1819.549     87.51035      174.466     349.1055      2.517     5.37     1097.515     61.53552     95.06067         6     1.909     0.426  71.72   2
        29     34.2639    974.4990 307.8966372  +6.2787357     1416.515     3146.666     3220.107     87.51035     174.6742     349.1402      2.378     7.65     1098.858     61.53552     194.2319        26     1.996     0.970  40.33   0
        30    886.4891    973.6516 307.5427109  +6.3075695     686.4221     1010.217     1109.553     87.51035     174.3965     349.2443      1.693     5.08     1089.413     61.53552     93.68188         6     1.009     0.722  68.29   0
        31    578.2803    969.2806 307.6708726  +6.2991002     918.9509     2183.039     2265.494     87.78685     174.8822      349.279      2.440     7.60     1096.968     61.53552     129.3071        16     2.163     0.748  36.48   0
        32    617.2579    965.5184 307.6548113  +6.3019544     750.5616     1378.216     815.5721     87.64871     174.6048     349.1402      2.095     6.34      1096.34     61.53552     119.4457        12     1.916     0.589  38.08   0
        33    296.6577    963.0404 307.7880519  +6.2922614     967.4866     1935.283     2429.145     87.51035     174.6048     349.1402      2.432     7.05     1098.879     61.53552     130.5629        14     1.412     0.988  56.40   0
        34     65.1714    964.4179 307.8841451  +6.2839345     579.1005      1148.37     1420.642     87.09396     174.3965     349.0361      2.214     3.54     1098.401     61.53552     96.56226         5     0.800     0.450  17.67   0
        35    901.5035    955.9842 307.5370726  +6.3153630     4886.847     10433.07     10830.62     87.37177      174.327     348.8972      2.165     7.73     1088.318     61.53552     595.7305        40     2.014     1.116  35.87   0
        36    437.3827    953.1619 307.7299405  +6.3010473     1374.672     3132.385     3224.065     87.09396      174.466     348.8277      2.367     8.04     1097.499     61.53552     164.9486        23     1.947     0.934  34.60   0
        37    339.0960    951.8145 307.7708082  +6.2983161     5629.765        12822        14644     87.23298      174.327     348.8625      2.372     6.71     1098.306     61.53552      614.329        54     2.241     1.274  37.60   0
        38    260.6722    951.6489 307.8033856  +6.2957591     3706.344     6534.693     7191.507     87.51035     174.6742     349.1402      1.874     4.15     1098.551     61.53552     425.2646        24     1.396     1.154 -19.50   3
        39    258.3138    949.6486 307.8044332  +6.2965059         4140     6717.854     7574.046     87.51035     174.5354     349.1402      1.784     3.62     1098.479     61.53552     499.4935        28     1.466     1.193  -6.95   3
        40    588.5820    945.2028 307.6674114  +6.3093841     506.9863     956.8802     951.4293     87.09396     174.1183     348.8625      2.017     4.33     1096.143     61.53552     72.19592         5     0.935     0.571  41.47   0
        41    916.8076    940.9053 307.5312262  +6.3220974     865.7121     1554.847     1559.639     87.23298     174.2575     348.8972      1.975     5.46     1087.302     61.53552     138.5521        11     1.320     0.636  34.26   0
        42    752.3197    933.2889 307.5998063  +6.3197641     1041.224     1811.997     2488.156     87.23298     174.8822     349.2096      1.980     4.34     1090.969     61.53552     148.2628        10     1.020     0.782  70.11   2
        43    983.5228    929.4948 307.5039008  +6.3290272     767.3409     1730.883      2947.26     87.23298     174.7435     349.1749      2.622     4.14     1083.187     61.53552      117.498         7     1.002     0.488  -6.79   2
        44    538.1990    929.1736 307.6888823  +6.3143191     748.5219     1412.672     1787.257     87.09396     174.2575     348.8625      2.111     5.35      1096.09     61.53552     124.2474         7     1.023     0.788  74.00   0
        45    672.0400    927.6256 307.6333433  +6.3194254     1451.354     3378.717     3752.779     87.09396     174.3965     348.8625      2.284     8.06     1092.413     61.53552     169.6768        25     2.022     0.897  31.31   0
        46     68.7020    923.8520 307.8840631  +6.3007991     1929.596     4533.702     5710.017     87.37177     174.6048     349.3137      2.466     7.21     1096.948     61.53552     219.7683        31     1.990     1.133  38.92   0
        47    961.7343    924.9304 307.5131055  +6.3301870     478.1089     780.9485      1085.73     87.51035     174.6742     349.1055      1.669     4.98     1084.298     61.53552     82.66687         6     1.511     0.465  28.25   0
        48    951.8501    923.8214 307.5172487  +6.3303161     462.3571     725.1191     981.0419     86.95473     174.6742     348.9666      1.602     5.62     1084.823     61.53552     78.62646         6     1.354     0.657 -82.42   0
        49     87.3713    923.6664 307.8763157  +6.3015021     1062.663     2074.104     2675.725     87.23298     174.5354     349.0361      2.229     5.32     1096.988     61.53552     149.7566        12     1.369     0.678  61.43   2
        50     84.4981    922.0058 307.8775656  +6.3020912     937.1879     1388.468     2301.381     87.23298     174.1879     348.8277      1.820     5.54     1096.973     61.53552     116.1777        10     1.243     0.697 -70.90   2
        51    832.7506    923.7278 307.5667222  +6.3263908     631.5399     1096.292      1248.92     87.51035     174.6742     349.1402      1.860     6.84     1088.479     61.53552     97.74939         8     1.619     0.811  19.53   0
        52    211.2952    921.7789 307.8249109  +6.3064360     1375.709     2893.725     3683.381     87.37178     174.3965     348.8972      2.420     4.46     1097.486     61.53552     195.1587        17     1.342     0.880  67.35   2
        53    666.7825    916.7231 307.6358969  +6.3237510     4321.351     9757.414     10553.17     86.95473      174.327     349.0361      2.286     6.85     1092.332     61.53552     440.0204        44     2.183     1.164  33.99   0
        54     26.4679    914.7559 307.9019143  +6.3031367     798.0569     1626.365     1920.301     87.51035     174.5354     349.1402      2.148     5.65     1096.694     61.53552     155.2986         9     1.899     0.474  61.07   0
        55    904.5226    912.8383 307.5372789  +6.3332757      1840.02     3853.864     4010.254     87.37178     174.6742     349.1055      2.099     7.87     1086.068     61.53552     215.3562        24     1.945     0.891  33.01   0
        56     40.4358    913.8928 307.8961426  +6.3039618     705.3788     1441.459     2060.786      87.6487      174.466     349.2096      2.457     5.08      1096.74     61.53552     114.6805         6     0.990     0.736  31.11   0
        57    349.8347    909.9886 307.7677715  +6.3159421     9619.233     22466.06     26273.11     86.95473     174.3965     348.8972      2.392     6.53     1098.024     61.53552     1008.246        60     2.250     1.329  35.01   0
        58    220.9362    909.9630 307.8213093  +6.3116369      708.332     1749.672     1677.852     87.37177     174.6048     349.1749      2.057     6.84     1097.509     61.53552     109.1552         9     2.086     0.628  30.16   0
        59     84.3292    911.0635 307.8780091  +6.3066027     934.5998     1698.747     1904.582     87.51035     174.6048     349.1749      2.234     5.73     1096.928     61.53552     119.8495        11     1.329     0.697  21.39   0
        60    112.7145    900.2238 307.8665897  +6.3120296     1026.365     1997.703     2462.768     87.51035      174.327     348.9319      2.223     6.11     1097.069     61.53552     123.5382        13     1.461     0.718  53.13   0
        61     96.8102    894.2949 307.8733975  +6.3139437     1442.419     3304.106     4394.555     87.09396     174.1879     348.8625      2.514     7.60     1096.979     61.53552     183.6725        27     1.848     1.110  43.47   0
        62    865.5540    894.2335 307.5540954  +6.3396594      1432.54     2816.906      3286.49     87.09396     174.6048     349.0361      2.070     7.27     1086.194     61.53552     181.7693        20     1.805     0.819  31.39   0
        63    894.6370    894.3949 307.5420095  +6.3405608     1296.499     2851.161     3191.598     86.53567      174.327     348.8972      2.192     7.78     1085.353     61.53552     154.9398        19     1.852     0.914  34.35   0
        64    828.9149    893.6443 307.5693345  +6.3386826     1928.601     4356.899     4692.158     87.51035      174.466     349.0708      2.248     7.35     1087.394     61.53552     223.2086        30     2.017     1.063  33.77   0
        65    564.8833    885.1185 307.6792951  +6.3333975     200881.6     463082.2     533068.4     87.23298     174.8822     349.1749      2.389     6.47     1094.239     61.53552     21650.93       172     2.384     1.516  35.66   0
        66    409.1193    887.6654 307.7439070  +6.3271409     4577.018     10566.11     11275.02     87.78684     174.7435     349.0708      2.352     6.80     1096.533     61.53552     502.8824        47     2.133     1.257  36.94   0
        67    651.6432    887.2100 307.6431867  +6.3354298     764.0798     1691.908     1577.909     86.95473     174.3965     348.8277      2.461     6.69     1091.867     61.53552     107.1542         8     1.861     0.674  69.99   2
        68    352.3718    886.1790 307.7675280  +6.3258562     7411.223     17084.75     19402.98     86.81526      174.327     349.0361      2.353     6.58      1097.81     61.53552     762.4056        58     2.244     1.315  35.96   0
        69    670.7665    882.4719 307.6354042  +6.3380238     2205.969     4949.578     5272.538     87.37178     174.6048     349.0708      2.288     7.61     1091.224     61.53552     229.7958        33     1.969     1.114  35.67   0
        70    903.1260    881.1228 307.5389326  +6.3463226     3530.286     7584.658     9165.902     87.78684     174.8822     349.1402      2.330     6.82     1084.441     61.53552     378.9335        38     2.064     1.133  33.51   0
        71    741.8376    878.6633 307.6060121  +6.3419660     510.1342     938.4566     857.4808     87.51035     174.6048     349.1055      1.964     5.10     1088.468     61.53552     80.16016         6     1.100     0.669  22.12   0
        72    645.5773    876.3113 307.6460761  +6.3397268     2166.275     4545.265     5915.016     87.51035     174.3965     348.9666      2.454     6.87     1091.594     61.53552     261.7128        33     2.113     1.067  36.71   3
        73    638.3939    870.7025 307.6492503  +6.3418026     1405.295     3100.082     5013.538     87.23298     174.1879     348.8625      3.204    10.78     1091.546     61.53552     171.3147        28     1.944     1.665   3.59   2
        74    833.7536    874.9464 307.5679579  +6.3465629     922.9622     2045.504     1772.655     87.51035     174.6048     349.1402      2.270     7.83     1086.461     61.53552     135.5446        18     1.728     0.992  31.21   0
        75    960.2874    873.8271 307.5154354  +6.3512363     679.6708     1248.341     1917.711      87.6487      174.327     348.9666      2.088     5.84     1081.987     61.53552     88.80298         7     1.040     0.924 -38.77   0
        76    332.5945    870.0240 307.7762925  +6.3318635      550.535     1094.708     1529.798     86.95473      174.327     348.9319      2.279     4.85     1097.924     61.53552     78.04468         5     1.415     0.471  84.09   0
        77    921.8334    868.8073 307.5315786  +6.3520294     2119.463     4776.666     5039.371     86.95473      174.466     348.8972      2.241     6.98      1083.14     61.53552      267.377        29     2.014     1.031  34.46   0
        78    380.4203    865.1663 307.7565929  +6.3354691     1396.394     3327.244       4001.9     86.95473     174.3965     348.9319      2.696     9.16     1096.784     61.53552     171.5759        33     2.338     1.109  35.94   0
        79    516.4448    854.6654 307.7004496  +6.3443516     1915.579     3956.589      4973.67     87.51035     174.5354     349.1055      2.320     8.18     1094.469     61.53552      207.811        29     2.050     1.049  42.77   0
        80    860.9146    853.5879 307.5573990  +6.3562849     798.5822     1721.638     1860.435     87.09396      174.327     348.9319      2.025     7.46     1084.607     61.53552     109.3137        15     1.567     0.995  57.15   0
        81    563.3907    850.8920 307.6810775  +6.3474773     3646.632     8568.772     11525.42     87.09396     174.1879     348.8625      2.721     6.77     1092.802     61.53552      396.577        45     2.190     1.281  34.73   2
        82    480.7320    849.5535 307.7154575  +6.3452686     997.4778     2019.711     1781.594     87.51035     174.5354     349.1055      2.079     7.26     1095.056     61.53552     122.1105        14     1.594     0.926  42.57   0
        83    899.8022    849.6360 307.5413791  +6.3592109     863.5927     1537.599     2187.906     86.53567     174.3965     348.8972      1.891     4.85     1083.104     61.53552     117.3192         8     1.072     0.623  61.55   0
        84    122.8144    848.8365 307.8641477  +6.3335817     899.0442     1904.425     2356.571     87.09396     174.3965     348.8625      2.429     7.07     1096.882     61.53552     147.6943        12     1.856     0.755  29.47   0
        85    533.9769    844.8488 307.6935007  +6.3489898     11372.95     26621.59     30840.02     87.09396     174.6048     349.0013      2.411     6.65     1093.605     61.53552     1160.937        65     2.287     1.361  34.30   0
        86    947.6274    842.9576 307.5217387  +6.3635593     2424.024     5187.477     5488.898     87.09396     174.6048     348.9666      2.201     6.73     1081.142     61.53552     280.3933        31     2.046     0.981  31.30   0
        87     44.8440    835.5876 307.8969848  +6.3364351     880.8694     2178.584     2114.763     86.95473      174.466     348.8277      2.373     7.70     1095.932     61.53552     156.8682        17     1.624     1.021  47.56   0
        88    326.6252    833.3161 307.7800216  +6.3468175     2049.875     4501.617     4989.489     87.51035      174.327     349.0708      2.331     6.66     1097.074     61.53552     213.5122        34     1.923     1.196  32.56   0
        89    792.1278    829.3057 307.5867953  +6.3640185     34572.07     77317.55     87528.88     87.37177     174.6742     349.1402      2.313     6.67     1085.419     61.53552     3695.777        89     2.267     1.367  35.12   0
        90     26.5875    831.4766 307.9047079  +6.3375193     1295.694     2962.687     3317.824     87.09396     174.1879     348.8972      2.346     8.14     1095.742     61.53552     197.6293        26     1.882     1.149  37.84   0
        91    249.3085    826.9842 307.8123521  +6.3468426     3060.661     7480.395     10838.16     87.23298     174.3965     348.9666      3.166     7.23     1097.585     61.53552     316.2238        53     2.355     1.480  42.44   0
        92    917.3538    824.4962 307.5349392  +6.3701736     5574.065     12358.03     14258.54     87.51035     174.5354      349.279      2.290     7.22     1081.554     61.53552     627.4314        45     2.120     1.174  36.19   0
        93    715.3293    821.1284 307.6189743  +6.3648346     48262.74     115514.9     164761.5      87.6487     174.7435     349.0361      3.056    10.79     1086.102     61.53552     5510.377       153     3.702     1.443  30.69   0
        94    358.9990    821.4052 307.7669798  +6.3528181     11764.33     27695.42     32735.58     86.81526     174.2575     348.8625      2.470     6.38     1095.961     61.53552      1268.55        71     2.308     1.441  35.26   0
        95    420.9160    819.1896 307.7413362  +6.3558039     12566.86     29576.08     34311.79     87.09396      174.327     348.9319      2.426     6.53     1094.961     61.53552     1321.874        73     2.334     1.433  37.34   0
        96    408.4532    821.3636 307.7464390  +6.3544896     787.9235     1756.532     2628.305     87.37178     174.6048     349.1402      2.401     5.70       1095.2     61.53552     125.4786         9     1.379     0.663  39.09   0
        97    957.6179    817.9995 307.5184331  +6.3741953     1361.944     3001.639     2813.996     87.09396     174.1183     348.7582      2.182     7.57     1079.761     61.53552     212.7905        24     1.932     1.031  38.64   0
        98    248.9652    805.8840 307.8132137  +6.3555416     779141.8      2323728      2919377     87.51035     174.5354     349.0708      2.827    10.13     1097.419     61.53552     63796.64       537     2.809     2.012  37.38   4
        99    654.8757    815.0591 307.6442924  +6.3653239     3881.624     8805.998     9891.721      87.6487     174.6742     349.0708      2.388     6.84     1087.088     61.53552     440.2661        48     2.216     1.274  37.62   0
       100    914.2442    815.8644 307.5365231  +6.3736337     4350.318     9515.766     10311.39     87.51035     174.5354     349.1055      2.229     6.78     1081.337     61.53552      523.838        39     2.031     1.118  34.31   0
       101    445.4363    814.9153 307.7312963  +6.3583883     712.1086     1084.278     1069.652     87.51035     174.6048     349.0708      1.499     3.51     1094.422     61.53552     108.4492         5     0.777     0.458  69.59   3
       102    442.2816    811.1716 307.7327340  +6.3598283     793.5648     1467.441     1553.399     87.37177     174.3965     349.0361      2.204     8.21      1094.39     61.53552     105.5933        14     2.403     0.783  31.76   2
       103    690.1204    805.2264 307.6299855  +6.3705588     1437.262     3334.566     4048.526     87.37177      174.466     349.1055      2.349     8.75     1085.609     61.53552     160.4465        29     2.033     1.051  29.13   0
       104    423.8043    801.9263 307.7407236  +6.3630272     30211.51     72221.52     85884.63     87.09396     174.1183     348.9666      2.469     6.51     1094.636     61.53552     3087.445        99     2.381     1.531  34.10   0
       105    133.4056    804.7755 307.8612515  +6.3521260     715.7917     1282.181     693.1519     86.95473      174.327     348.9319      1.823     5.83     1096.537     61.53552     106.7708         9     1.148     0.832  21.95   0
       106    541.3834    800.8859 307.6919178  +6.3673863     3961.682     9329.816     11103.75     87.09396      174.327     349.0361      2.427     6.81     1091.356     61.53552     402.3199        48     2.223     1.282  39.03   0
       107    458.2791    799.2819 307.7264932  +6.3652715      2480.11     5993.161     8057.762     87.64871     174.8822     349.3137      2.712     8.95     1093.624     61.53552     267.1824        48     2.568     1.301  46.78   2
       108    455.1333    792.3163 307.7280367  +6.3680419     1335.832     2823.875     2891.014     87.78684     174.8822     349.1749      2.256     7.73     1093.261     61.53552     168.5184        22     2.010     0.832  34.16   3
       109    786.6544    797.4295 307.5901493  +6.3769957     6877.077     15795.43      17966.6     87.23298     174.6742     349.0013      2.370     6.72     1083.878     61.53552     704.7747        55     2.188     1.295  35.98   0
       110    809.6731    793.1450 307.5807323  +6.3795314     876.2193      1685.91     1993.119     87.37177      174.466     349.0361      2.443     6.86      1083.33     61.53552     117.2292        11     1.453     0.909  70.86   2
       111    279.0290    793.1486 307.8011597  +6.3618060     652.8847     1715.026     3244.392     87.09396     174.7435     349.0013      3.098     4.10     1096.865     61.53552     123.4008         5     0.868     0.626  32.78   0
       112    136.8127    780.0513 307.8606796  +6.3624468     1185.308     2616.877     2800.143     86.81526     174.5354      348.793      2.274     7.86     1096.208     61.53552     172.9521        23     1.911     1.031  27.67   3
       113    143.5229    789.2603 307.8575782  +6.3588702     6617.881      15540.6     22476.88     87.64871     174.6742     349.0708      3.183    11.42      1096.48     61.53552       749.46       100     4.005     1.442  22.63   2
       114    152.4506    789.5455 307.8538602  +6.3590518     1802.756     3713.654     4348.779     87.51035     174.6048     349.1402      2.308     7.43     1096.632     61.53552     237.6774        29     2.071     1.047  42.35   3
       115    977.1270    791.7626 307.5112165  +6.3856757     513.5748     1134.127     1324.254     87.37177     174.6048     349.1749      2.887     5.39     1077.987     61.53552      98.4104         5     1.189     0.691 -16.86   0
       116    932.2943    785.9774 307.5300365  +6.3865728     4130.881     8904.255     9996.485     87.51035     174.3965     348.9319      2.225     6.83     1079.591     61.53552     456.3947        39     2.008     1.085  35.63   0
       117    981.3381    785.8008 307.5096688  +6.3882771     851.8959     1963.324     2273.745     86.67558     174.3965     348.7582      2.269     7.22     1077.668     61.53552     125.3033        15     2.013     0.725  26.51   0
       118    687.5231    783.4098 307.6318046  +6.3794788     997.6321     2328.472     3138.106     87.09396     174.1879     348.8972      2.731     7.55     1084.664     61.53552     140.3062        16     1.570     1.015  30.85   0
       119    574.7458    782.7242 307.6786761  +6.3759982     1207.208     2864.719     3113.217     87.37178     174.6048     349.1402      2.306     8.48     1088.222     61.53552      148.464        23     1.988     1.012  27.78   0
       120    956.0233    777.5331 307.5204648  +6.3908483     2027.688     4281.028     4955.832     87.09396     174.6048     349.0361      2.189     7.91     1078.368     61.53552     243.3136        28     2.025     0.954  36.28   0
       121    926.7787    778.0673 307.5325955  +6.3896548     1863.825     4109.326     5344.983     87.09396     174.6048     349.0013      2.452     8.31      1079.39     61.53552     289.6908        30     2.113     0.943  35.03   1
       122    680.3204    778.5738 307.6349607  +6.3812350     714.7279     1357.528     2462.772     87.37178      174.466     349.1055      2.151     2.98     1084.655     61.53552     133.1295         5     0.738     0.627 -65.23   2
       123    677.7947    776.0284 307.6360962  +6.3822016     828.1447      1582.55     2308.594     86.95473     174.3965     348.8972      3.005     5.29     1084.577     61.53552     114.6245         9     1.091     0.726  73.96   2
       124    988.2852    778.0281 307.5070458  +6.3917169     1025.494     1484.254     2039.929      87.6487     174.2575     348.9666      1.734     6.55     1077.211     61.53552      165.364        11     1.725     0.697  -0.36   2
       125    985.3240    775.7265 307.5083538  +6.3925687     1088.747     1738.574     1858.832     87.78685     174.8822     349.1402      1.761     3.14     1077.272     61.53552      186.521        10     0.996     0.825  61.40   3
       126    825.6005    776.4252 307.5746824  +6.3869645     618.7688     1309.643     1172.649     87.09396     174.2575     348.8972      2.086     5.27     1082.117     61.53552     83.40002         7     1.587     0.494  -0.61   0
       127    251.7091    772.1064 307.8132248  +6.3695776     1254.392      3200.01     4935.917     87.51035     175.1591     349.1055      3.234     9.29     1095.587     61.53552     139.1395        26     1.937     1.243  46.18   0
       128    272.4604    768.6301 307.8047234  +6.3717077     557.5197      1315.55     2212.416     87.23298     174.6048     349.0708      3.596     6.28     1095.341     61.53552     85.99829         9     1.356     0.817  28.28   0
       129    970.4239    765.3939 307.5148932  +6.3963388     1464.738     3271.971     3989.871     86.95473      174.327     348.9666      2.387     8.08     1077.476     61.53552     239.0769        27     1.999     1.017  36.05   0
       130    917.6993    766.0690 307.5367734  +6.3943061     751.5135     1500.898     1957.994     87.51035     174.7435     349.1055      2.114     5.51     1079.031     61.53552     111.7332         7     1.256     0.682  48.67   0
       131   1012.4656    758.9854 307.4976447  +6.4003825     1205.447     2746.618     3219.617     86.95473      174.466     349.0361      2.286     6.67     1076.086     61.53552     177.9167        21     1.943     1.115  34.73  16
       132    900.2941    754.4335 307.5443979  +6.3985304     962.0993     2326.221     3072.648     87.64871      174.466     349.2096      2.651     8.01     1078.826     61.53552     110.1741        18     1.847     0.970  47.94   0
       133    812.5687    755.9164 307.5807910  +6.3949971      715.499     947.2723     1013.419     87.51035     174.3965     348.9666      1.851     5.97     1081.848     61.53552     102.7885         6     1.256     0.798 -11.99   0
       134    268.9490    749.2921 307.8068408  +6.3795732     1869.187     2873.983     3174.958     87.37177      174.466     349.3137      0.757     1.81     1094.081     61.53552     997.4939         7     0.753     0.424  60.37   2
       135    873.5223    748.7372 307.5557125  +6.3999908     639.6761     1266.017     1913.393     87.78685     174.6742     349.0708      2.579     4.47     1079.081     61.53552     89.84814         5     1.200     0.474  32.45   0
       136    857.3295    745.9436 307.5625341  +6.4006050      734.892     1720.721     1536.421      87.6487     174.5354     349.0708      2.289     7.51     1079.461     61.53552     115.5662        10     1.757     0.897  47.90   0
       137     58.0034    745.9993 307.8945772  +6.3738599     1227.314     2214.449     3647.314     86.81526     174.1183     348.8277      2.588     5.71     1095.214     61.53552     150.6447        17     1.314     1.077 -46.02   2
       138     55.2629    743.9838 307.8957843  +6.3745999     1432.249     2341.448     3924.623     86.95473     174.5354     348.9319      1.895     2.70     1095.194     61.53552     236.5266        10     0.881     0.743 -77.37   3
       139    668.7593    733.3686 307.6412973  +6.3995115     3617.107     8652.133     9524.166     87.09396      174.466     348.9666      2.418     6.59     1083.133     61.53552     387.2485        45     2.124     1.301  30.15   0
       140    615.3381    732.3921 307.6635228  +6.3981320     806.4449      1651.28     2036.678     86.81526     174.3965     348.8972      2.217     5.89     1084.009     61.53552     97.96362         9     1.340     0.728  20.63   0
       141    132.1485    729.4434 307.8643434  +6.3831821     2114.146     4829.937     5516.355     87.51035     174.5354     349.1402      2.385     8.08     1095.042     61.53552     234.7051        34     1.988     1.219  38.66   0
       142   1005.6498    728.4291 307.5015097  +6.4127707     1592.683     3499.307     3638.431     87.09396     174.7435     349.0013      2.178     7.82     1075.536     61.53552     200.0101        27     1.964     1.054  38.83   0
       143    642.5421    728.9584 307.6523382  +6.4004574     1276.534      2759.83     3186.243     87.51035     174.6048     349.1749      2.363     8.51     1083.434     61.53552     137.6339        23     2.113     0.956  30.48   0
       144    785.7330    725.4507 307.5929718  +6.4066804     11788.04     27193.74      31162.9     87.37178      174.466     349.0708      2.386     6.55     1081.013     61.53552     1167.601        66     2.277     1.347  34.60   0
       145    915.8599    725.2736 307.5389186  +6.4110867     2157.697     5077.751     6401.791      87.6487     174.6048     349.1055      2.594     8.89     1077.193     61.53552     267.4287        35     2.117     1.127  33.53   0
       146    252.1289    728.6078 307.8145326  +6.3875487     624.1197     1228.642     1894.536     86.95473     174.1183     348.9666      1.919     3.50     1093.164     61.53552     93.10815         5     0.787     0.450 -17.03   0
       147    484.7039    725.6475 307.7180198  +6.3965531     824.3305      1831.93      2422.66     87.37178      174.466      349.279      2.279     7.03      1088.16     61.53552     107.6417        13     1.463     0.947  18.16   0
       148    259.3339    719.3008 307.8118567  +6.3916322     3343.691       8103.7     9628.573     87.51035     174.7435     349.0708      2.584     7.13     1092.811     61.53552     367.0162        48     2.223     1.374  40.66   0
       149    666.2256    718.1535 307.6428662  +6.4057082     3966.613     9300.948     10292.76     87.09396     174.6742     348.9666      2.428     6.81     1082.742     61.53552     445.5239        49     2.235     1.324  31.35   0
       150    926.8853    711.1171 307.5348175  +6.4172980     741.1155     1497.132     1498.054     87.23298     174.8129     349.2096      1.971     5.84     1076.308     61.53552     124.9667         7     1.186     0.811   2.68   0
       151    737.8991    706.7406 307.6134780  +6.4128102      2216.32     5422.539     6637.703     87.23298     174.5354     349.2443      2.530     7.04     1080.718     61.53552      252.735        38     2.063     1.253  37.70   0
       152   1004.2695    703.2756 307.5029339  +6.4231092     5848.559     12613.71     13954.02     87.64871     174.7435     349.1402      2.216     6.85     1074.533     61.53552     636.8293        44     2.129     1.108  34.54   0
       153    942.6050    703.8287 307.5285335  +6.4208299     1533.117     3367.625     4058.146     86.95473     174.3965     348.8972      2.326     8.21     1075.676     61.53552       173.48        25     1.858     1.013  30.78   0
       154     23.4209    703.2224 307.9104029  +6.3903578     1067.793     2637.426     3698.661     87.23298     174.3965     349.0361      2.703     8.94     1094.355     61.53552     134.7821        21     1.790     1.246   6.96   0
       155     81.7374    698.2653 307.8863478  +6.3943616     14457.59     34095.54     40548.33     87.51035     174.6048     349.1055      2.480     6.39     1093.985     61.53552     1593.058        79     2.375     1.476  36.00   0
       156    542.9057    698.8106 307.6947537  +6.4095768     1024.057     2554.784     2379.092     87.09396     174.1879     348.8625      2.403     7.98     1085.093     61.53552     123.6826        21     1.892     0.940  37.23   0
       157    511.4838    695.6866 307.7079134  +6.4098167     772.8685     1560.813     1582.273     87.23298     174.8129     349.1402      2.129     4.86      1085.72     61.53552      106.101         7     1.066     0.628  17.66   0
       158    932.5880    695.0366 307.5329927  +6.4241264      672.589     1008.959     521.1382     86.95473     174.3965      348.793      1.659     4.68     1075.436     61.53552     91.91626         7     1.024     0.607  30.96   0
       159    727.7349    690.5020 307.6182513  +6.4191752     1947.787     4666.258     5087.443     87.51035     174.6742     349.1402      2.413     8.10     1080.325     61.53552     191.9401        33     1.940     1.190  35.36   0
       160    749.5037    688.4260 307.6092781  +6.4207580     2416.252     5418.857     6161.736     87.64871      174.327     348.9666      2.359     6.99     1079.598     61.53552     242.8409        35     1.974     1.168  33.29   0
       161    580.1890    685.6394 307.6797125  +6.4162594     1619.456     3816.441     5151.203     86.81526     174.3965     348.8277      2.642     9.26     1083.133     61.53552     183.5298        23     1.940     1.232  47.08   2
       162    417.5161    686.4440 307.7472643  +6.4104909     858.3951     1899.207     1823.865     87.51035     174.6048     349.1055      2.262     6.64     1088.551     61.53552     124.5249        10     1.614     0.767  38.28   0
       163    242.6337    685.8830 307.8199329  +6.4048682     1041.907      2183.53     2539.451     87.51035     174.6048     349.0708      2.204     7.14     1091.786     61.53552     139.5641        15     1.823     0.783  45.75   0
       164   1021.9608    684.4582 307.4962206  +6.4314659     3225.503     5915.133     6083.791     87.51035     163.4947     291.9457      1.914     6.12     1073.442     61.53552     370.2434        29     1.711     1.046  43.02  24
       165    987.9437    683.6147 307.5103816  +6.4306831     5257.816     11815.11     13045.83     86.81526      174.466      348.793      2.278     7.01     1074.007     61.53552     585.2284        47     2.119     1.173  34.36   0
       166    324.9437    684.9205 307.7857728  +6.4080222     869.1616     1786.925     1874.944      87.6487     174.6048     349.1055      2.181     6.36     1090.896     61.53552     112.2976        10     1.147     0.990  19.19   0
       167    433.5982    678.2026 307.7408637  +6.4144310     1609.648     4101.215     5257.856     86.81526     174.1183     348.8277      2.671     7.56      1087.45     61.53552     191.5813        31     2.053     1.219  41.86   0
       168    146.4728    677.1829 307.8601758  +6.4052364     13279.53     32056.23     38626.39     86.95473     174.5354     349.0014      2.510     6.52     1092.314     61.53552     1508.526        75     2.344     1.497  35.75   0
       169    982.8264    666.5733 307.5130842  +6.4375482     4398.641     10006.17     11311.82     86.95473     174.3965     348.9666      2.376     6.50     1073.366     61.53552     511.9944        50     2.297     1.220  34.18   0
       170    576.4315    661.9312 307.6820789  +6.4259214     26123.32     63590.21     75306.93     87.37177     174.6048     349.1055      2.510     6.55     1082.095     61.53552     2665.803        94     2.375     1.562  34.48   0
       171     26.9692    665.1708 307.9102285  +6.4061850     626.6473     1173.768     1311.697     86.95473      174.327     348.8277      1.927     4.36     1093.222     61.53552      91.6947         6     1.245     0.434  54.43   0
       172    183.9260    658.3608 307.8452593  +6.4142623     1515.925     3700.226     3502.583     87.37177     174.6048     349.1749      2.374     7.91     1091.286     61.53552     170.2006        33     1.921     1.423  31.98   0
       173     76.9777    653.0977 307.8898668  +6.4128477     762.7868     1916.676     2081.249     87.51035      174.327     348.8972      2.447     5.53      1092.34     61.53552     120.0288         8     1.308     0.658  85.21   0
       174    473.6783    645.7610 307.7253165  +6.4291638     33005.15     81423.16     98357.87     87.37178     174.6742     349.1055      2.568     6.58     1084.701     61.53552     3356.874       100     2.443     1.590  34.04   0
       175     19.3274    648.2789 307.9139799  +6.4129016     670.8697     1106.495     2366.865     87.78685     174.8822     349.0708      1.709     3.41     1092.355     61.53552     109.7819         5     0.790     0.564 -47.71   2
       176     16.0007    646.7598 307.9154137  +6.4134170     849.1689     2018.338      3377.28     86.53566      174.327     348.8277      3.327     7.69     1092.314     61.53552     109.9498        11     1.468     1.127 -72.71   2
       177    148.6456    640.5636 307.8605225  +6.4204263     962.7134      1910.46     1720.096     87.23298     174.6048     349.0361      2.161     7.29     1091.145     61.53552      127.205        14     1.691     0.881  38.60   0
       178    944.3322    639.3787 307.5299975  +6.4474947      507.766     592.4452     154.3194     87.09396     174.5354     349.0361      1.437     5.67     1072.896     61.53552     79.15723         6     1.020     0.888 -48.38   0
       179    618.6555    636.7487 307.6653923  +6.4377272     646.0965     925.9051     720.8296     87.51035     174.6048     349.0708      1.543     5.28     1079.711     61.53552       88.755         5     1.057     0.744   8.24   0
       180    319.0094    634.7158 307.7899478  +6.4285491     1166.309     3002.272     3825.578     87.09396     174.2575     348.9319      2.840     8.86     1088.141     61.53552     144.6558        23     1.770     1.332  50.12   0
       181    745.7151    629.1202 307.6128634  +6.4451150     2852.612     6783.409     7998.527     87.37177     174.9514     349.2096      2.447     6.89     1077.322     61.53552     312.3447        40     2.214     1.125  33.90   0
       182    799.2547    624.4138 307.5907792  +6.4488424     8030.482     18672.22     21919.81     86.81526     174.5354     348.8277      2.401     6.47     1075.594     61.53552     824.7972        65     2.237     1.467  35.28   0
       183    623.0706    622.3811 307.6640460  +6.4438059      1365.64     3499.391     3362.551     87.09396      174.466     349.0361      2.480     8.25     1078.904     61.53552     187.1067        29     1.924     1.151  28.62   0
       184    541.0109    623.1788 307.6981110  +6.4407364     667.6528     1316.836     2349.383     87.09396      174.327     348.9319      2.623     3.05     1081.056     61.53552     132.1049         5     0.910     0.600  33.59   0
       185    938.9109    617.7901 307.5329807  +6.4562270     687.5286     1292.912     2044.556     87.23298     174.2575     348.8972      1.796     4.73     1072.164     61.53552     96.27393         6     1.574     0.403 -30.69   0
       186    235.2674    616.2935 307.8253649  +6.4333492     833.3466      1732.61      2568.28     87.37178     174.8129     349.1402      2.455     5.96     1089.699     61.53552     101.9121         9     1.320     0.756  80.98   0
       187    875.0293    607.3463 307.5598755  +6.4584123     1560.279     3648.469     4169.901     87.23298     174.6742     349.0361      2.430     8.51     1073.164     61.53552     186.3556        26     1.914     1.058  30.94   0
       188    833.8903    605.0801 307.5770445  +6.4579779     1374.959     3569.987     3868.016     87.23298     174.8129     349.2096      2.396     9.22     1074.075     61.53552     162.0405        30     1.974     1.203  24.97   0
       189    804.8644    600.8074 307.5892488  +6.4587749     1425.387     3413.261     4448.889     86.95473      174.327     348.9319      2.719     9.24     1074.693     61.53552     149.9683        30     2.071     1.151  38.15   0
       190    262.0689    600.2648 307.8147768  +6.4408642     4150.417     9661.139     11636.04     87.51035     174.6742     349.1402      2.501     6.45      1087.62     61.53552     486.6119        54     2.199     1.472  38.74   0
       191    814.6121    596.3331 307.5853505  +6.4609468     89308.71       211363     246791.9     86.95473     174.3965     349.0013      2.446     6.43     1074.247     61.53552     8521.731       136     2.393     1.549  34.65   0
       192    196.3109    594.7946 307.8422819  +6.4409187     30734.76     75878.84     93163.66     86.95473     174.2575     348.8277      2.591     6.50      1089.25     61.53552     3323.758       102     2.470     1.627  34.38   0
       193    120.2846    590.9783 307.8739963  +6.4399445     3303.899     8044.871     9371.039     87.23298     174.2575     349.0361      2.581     7.26     1089.572     61.53552     371.8362        52     2.239     1.464  36.55   0
       194    986.7792    588.4147 307.5140866  +6.4699466     726.5408      1678.79      1416.71     87.23298      174.327     349.0013      2.119     5.65     1069.223     61.53552     97.82788         8     1.308     0.689 -57.63   2
       195    851.1157    583.4750 307.5706198  +6.4674709     2639.307     5797.026     7140.518      87.6487     174.9514     349.1749      2.421     6.82     1072.528     61.53552     315.7009        36     2.149     1.123  33.40   0
       196    369.6813    581.8704 307.7706958  +6.4520610     8872.186     21938.58     27292.47     87.78684     174.9514     349.1402      2.603     6.65     1083.867     61.53552     956.7877        75     2.430     1.558  33.92   0
       197    171.0275    580.3424 307.8532786  +6.4460371     1105.815     2476.132     4037.754     87.09396     174.6742     349.0013      3.359     7.98      1088.75     61.53552     148.7395        19     1.873     1.087  35.49   0
       198    805.1551    576.9401 307.5899371  +6.4686378     3269.399     7942.941     8870.548     87.37177     174.5354     349.2096      2.404     6.74     1073.966     61.53552     340.8585        49     2.119     1.407  36.40   0
       199    536.0458    576.8519 307.7017483  +6.4596956     3327.306     8188.777     9848.133      87.6487     174.5354     349.1749      2.535     6.50     1079.073     61.53552     361.8035        52     2.252     1.399  33.62   0
       200    394.4817    573.3682 307.7606817  +6.4564007     869.1077     2182.637     2910.197     87.37178      174.466     349.0708      2.832     6.79     1082.479     61.53552     106.8685        11     1.571     0.824  38.56   0
       201    183.1259    569.8445 307.8486104  +6.4507765     3400.394     8708.629     11128.91     87.37177     174.6742     349.1402      2.804     7.20      1087.97     61.53552     337.5479        52     2.209     1.454  40.10   0
       202    581.1505    569.7792 307.6832490  +6.4641219     1354.025     3640.784     3866.543     86.95473     174.6742     348.9666      2.620    10.17     1077.547     61.53552     176.9801        31     1.979     1.458  26.44   0
       203    278.2905    566.4385 307.8091902  +6.4553717      45017.2     111026.9     136768.8     87.51035     174.5354     349.1402      2.621     6.54     1085.702     61.53552     4672.966       117     2.478     1.702  36.29   0
       204    821.4741    569.2938 307.5834160  +6.4723381     873.5602     1984.271     2394.014     87.37178     174.7435     349.1055      2.317     7.11     1073.062     61.53552     130.1611        13     1.663     0.852  36.42   0
       205    801.2535    558.6924 307.5921767  +6.4760411     8990.236     21066.78     24914.63     87.37178     174.5354      349.279      2.459     6.50     1073.605     61.53552     918.2483        66     2.337     1.398  34.58   0
       206    977.6241    559.9294 307.5188544  +6.4814018     913.0659     1991.417      2454.16     87.09396      174.466     349.0361      2.364     7.39     1067.356     61.53552        129.6        15     1.606     0.953  50.84   0
       207    505.0258    557.1594 307.7153057  +6.4667886     21702.38     54457.01     69088.73     87.09396     174.3965     348.8972      2.663     6.57     1079.467     61.53552     2157.082       105     2.565     1.672  31.10   0
       208     54.7976    568.6114 307.9019656  +6.4469801     2719.083     6753.828     8129.349     87.09396     174.2575     348.8972      2.561     6.51     1089.668     61.53552     319.9927        44     2.111     1.358  33.57   0
       209    728.7045    552.3105 307.6225363  +6.4762574     695.0057     1511.468     1664.436     87.51035     175.0207     349.1402      2.479     6.86      1073.81     61.53552     115.2665         8     1.380     0.955  83.89   0
       210    664.9136    552.1777 307.6490450  +6.4741844     1740.484     4147.249     5375.034     87.51035     174.3965     348.9666      2.601     7.84     1074.146     61.53552     182.2953        33     2.058     1.177  36.66   0
       211    218.6503    554.4760 307.8343758  +6.4583117     832.9325     1919.332     3287.774     87.37178     174.6742     349.1055      2.757     5.37     1085.961     61.53552     114.9387         8     1.654     0.492   1.93   2
       212    217.2724    551.7653 307.8350407  +6.4593845     735.2549     1726.187     2799.289     87.37178     174.5354     349.1055      2.834     5.12     1085.876     61.53552     92.29749         8     1.117     0.664 -24.48   2
       213    403.3250    548.0170 307.7578704  +6.4671621      884.929     1818.216     2195.415     86.95472      174.327     348.9666      2.324     6.82     1080.595     61.53552     110.2766        14     1.238     1.054  73.22   0
       214    334.2168    546.0947 307.7866481  +6.4656429     1924.307     4897.087      5986.62     87.37177     174.3965     348.9319      2.649     7.26     1082.948     61.53552     228.1276        37     2.052     1.312  44.12   0
       215    149.3763    544.8292 307.8634850  +6.4599714     13166.92     32762.36     39880.23     86.95473      174.466     348.9319      2.574     6.57     1087.473     61.53552     1368.413        82     2.396     1.602  36.23   0
       216    512.9785    544.5805 307.7124292  +6.4722472     1062.686     2361.547     3308.904     87.23298     174.5354     349.0361      2.667     8.32     1078.483     61.53552     129.2604        21     1.475     1.310  11.04   2
       217    877.2065    544.5372 307.5610986  +6.4844147     993.8246     2057.803     2718.418     86.81526     174.3965     348.8625      2.449     6.95     1069.594     61.53552     139.7085        12     1.465     0.925  19.75   0
       218    114.4472    542.8087 307.8780654  +6.4596337     1333.141     3198.975     3048.613     86.95473      174.466     348.7235      2.520     8.29     1087.817     61.53552     153.8063        24     1.761     1.226  35.08   0
       219    974.9500    539.3407 307.5206623  +6.4898127     3243.443     7277.194       7422.9     87.51035     174.6048     349.1402      2.278     7.21     1066.065     61.53552     329.1747        41     2.210     1.144  39.54   0
       220     13.7320    529.2164 307.9203716  +6.4618638     13490.69     32690.04     40236.02     86.95473     174.5354     349.0014      2.565     6.35      1089.53     61.53552     1477.438        85     2.408     1.573  36.49  16
       221    549.8376    532.5129 307.6975252  +6.4784606     622.5464     1321.749     1447.915     87.51035     174.5354     349.1055      2.322     3.13     1076.418     61.53552     121.3008         5     0.813     0.667 -50.66   2
       222    446.3358    525.8903 307.7407534  +6.4777352     21364.47      53831.5     65816.88     87.37177     174.8129     349.1402      2.606     6.62     1078.661     61.53552     2152.638        98     2.458     1.652  33.29   0
       223    654.3673    525.4976 307.6543327  +6.4848469     6406.806     15399.98     19176.61     87.51035      174.466     349.2443      2.620     6.57     1073.373     61.53552     634.6245        67     2.379     1.488  36.51   0
       224    211.5869    523.5842 307.8383637  +6.4708276     9985.419     24822.12     30296.83     87.23298     174.2575     349.0361      2.643     6.76     1084.266     61.53552     1060.334        80     2.495     1.580  35.89   0
       225      1.3695    524.5287 307.9256678  +6.4633837     5691.523     8098.096     9539.878     76.42306      139.239     263.2685      1.416     3.58     1089.604     61.53552     1513.576        24     1.748     0.640 -88.50  24
       226    987.0206    523.6276 307.5161787  +6.4967011     748.8583      1599.01     2020.633     86.95472      174.327     349.0708      2.740     5.38      1064.79     61.53552     91.54761         8     0.993     0.824  12.66   2
       227    576.2686    522.5054 307.6868835  +6.4834748     1466.126     3404.604     4737.286     87.37178     174.7435     349.1402      2.610     7.70     1075.368     61.53552     152.3257        32     1.948     1.218  34.97   0
       228    176.8286    524.2654 307.8527813  +6.4693810     919.8018     2039.124     1676.143     87.23298     174.6048     349.0361      2.192     6.65     1085.739     61.53552     169.7664        15     1.441     1.250 -18.85   0
       229    949.8570    519.2725 307.5317678  +6.4972628     2804.651     6122.231     7023.697     87.51035     174.6048     349.0708      2.275     6.44     1066.259     61.53552     308.5571        35     1.985     1.139  34.18   0
       230    623.0082    517.7927 307.6676238  +6.4869810     3267.653     8060.561     10588.58     86.81526     174.3965     348.9666      2.691     7.04      1074.08     61.53552     371.9034        53     2.382     1.397  37.44   0
       231    110.5521    517.4050 307.8805507  +6.4699900     685.7422     1402.622     1972.334     86.81526     174.3965     348.7582      2.631     5.14     1086.754     61.53552      99.9801         6     1.059     0.780  44.97   0
       232    972.5657    511.6799 307.5225892  +6.5011528     2077.309     4764.049     5530.353     87.37178     174.6742     349.1402      2.396     7.44     1064.855     61.53552     235.5098        31     2.035     1.056  37.31   0
       233    535.4237    509.2473 307.7043047  +6.4875838     3667.752     9399.611     11500.55     87.09396     174.6048     348.9666      2.569     6.68     1075.328     61.53552     372.6284        53     2.202     1.488  35.06   0
       234    381.4630    509.0294 307.7682806  +6.4825256     1205.112     3047.053     3718.824     87.23298     174.6048     349.0361      2.826    10.23     1078.875     61.53552     123.0958        29     2.049     1.424  25.54   0
       235    892.0037    504.9197 307.5562924  +6.5012628     1793.503     4493.584     5528.097     86.95473     174.1183      348.793      2.561     9.00     1067.469     61.53552     195.3031        33     2.210     1.087  25.66   0
       236    899.1228    498.9829 307.5535355  +6.5039507     1341.789     2921.057     3542.768     86.95473      174.327     348.9666      2.251     7.58     1067.042     61.53552      166.778        24     1.912     0.960  32.09   0
       237    938.7570    498.2025 307.5370934  +6.5055920     842.6678     1838.772     1450.079     86.81526     174.1183     348.7582      1.995     6.61     1065.827     61.53552     103.9711        11     1.788     0.686   7.60   0
       238    722.9903    495.0839 307.6268522  +6.4996918     1563.852     3728.207      4298.71     87.09396     174.2575     348.9319      2.534     6.85     1071.586     61.53552     186.4861        35     2.011     1.366  39.34   0
       239    393.3760    492.5549 307.7638918  +6.4897253     1729.952     4257.792      5894.73     86.95473     174.6048     348.9666      3.100    10.13     1077.803     61.53552     206.9651        35     2.131     1.533  30.03   2
       240     85.2852    494.3651 307.8918347  +6.4786532     1090.625     2519.072     3242.642     87.51035      174.466     349.0708      2.566     8.39     1086.178     61.53552      124.525        19     2.054     0.957  32.54   0
       241    621.9083    490.0855 307.6690218  +6.4983826     5085.842     12590.12      15726.7     87.23298     175.0899     349.2096      2.575     6.76      1072.76     61.53552      511.431        58     2.301     1.480  33.15   0
       242    784.6424    486.4501 307.6015281  +6.5053115      8760.12      20870.5     26174.93     87.64871     174.6048     349.1055      2.605     6.50     1069.835     61.53552     812.8899        78     2.234     1.882  36.20   0
       243    304.3636    486.9206 307.8010671  +6.4890715     1380.379     3388.202     3912.073     87.37177     174.6742     349.1055      2.508     8.39     1078.142     61.53552     177.8628        31     2.071     1.174  32.68   0
       244    387.6432    483.1325 307.7665945  +6.4934232     962.3671     2123.433      2383.02     87.51035     174.5354     349.1402      2.368     7.23     1077.246     61.53552     104.2673        14     1.352     1.083   8.16   0
       245    969.6104    481.3332 307.5248443  +6.5135827     1269.535     2868.932     2606.481     86.95473     174.3965     348.9319      2.338     7.76     1063.513     61.53552     157.5223        22     1.825     1.064  31.24   0
       246    759.9698    477.5121 307.6120830  +6.5081790     1256.101     2845.563      3275.72      87.6487     174.3965     349.0361      2.631     7.80     1070.089     61.53552      145.651        25     1.972     1.069  19.48   0
       247   1022.5900    475.6274 307.5030232  +6.5177002     2709.316     4201.205     4306.793     87.09396     155.2062     281.4643      1.705     4.96     1060.688     61.53552     322.7104        21     1.459     0.958  50.57  24
       248    279.9985    475.6486 307.8115745  +6.4929087     710.2131     2048.406     2972.003     86.81526     174.1879      348.654      3.328     8.17     1077.778     61.53552     111.1892        13     1.716     1.088   5.28   0
       249    357.9187    473.3434 307.7792781  +6.4964695     1517.856     3677.872     4416.737      87.6487     174.6048     349.1055      2.612     8.59     1076.562     61.53552     158.6105        33     2.053     1.329  16.88   0
       250    122.1882    478.6223 307.8770400  +6.4863904     2388.424     5542.321     6781.186     87.09396     174.3965     349.0013      2.525     6.68     1084.964     61.53552     245.2288        46     2.131     1.453  34.84   0
       251    713.4387    470.8308 307.6316440  +6.5093857     949.3303     1860.003     1824.695     87.09396      174.327     348.9319      2.059     5.31     1070.299     61.53552      104.824        12     1.019     0.931 -22.51   0
       252    840.2118    461.3901 307.5792877  +6.5175086     812.3738     1809.867     1916.294     87.23298     174.3965     349.0708      2.176     7.39     1066.444     61.53552     117.4854        13     1.761     0.868  26.21   0
       253    825.7563    460.1429 307.5853366  +6.5175419     1197.468     2586.939     2683.765     87.37177     174.5354     349.1402      2.256     8.41     1066.858     61.53552     130.1809        24     1.819     1.088  37.03   0
       254    722.9158    458.3120 307.6281309  +6.5148699      7963.38      19215.2     23338.62     87.23298     174.8129     349.1749      2.545     6.42     1069.186     61.53552     790.8566        67     2.348     1.463  37.10   0
       255    644.2481    454.1371 307.6609604  +6.5139688     1288.796     3185.625     4215.725     87.37177      174.466     349.1749      2.746     9.39     1070.104     61.53552     175.6289        26     2.097     1.174  39.56   0
       256    616.4566    449.5048 307.6726655  +6.5149535     8078.502     21055.53     29546.44     87.37178     174.6048     349.3137      2.971     8.41     1070.623     61.53552     757.2656        91     3.064     1.531  35.22   0
       257    948.2817    448.2086 307.5348284  +6.5265482     2232.279      5286.57     5898.747     87.09396     174.1879     348.9666      2.418     7.91     1062.312     61.53552     231.1836        36     2.143     1.122  38.39   0
       258    387.4736    444.3085 307.7679867  +6.5094449     14333.38     36565.49     45087.66     87.51035     174.7435     349.1402      2.669     6.65      1073.68     61.53552     1394.632        87     2.449     1.671  33.45   0
       259    903.1562    443.1306 307.5537514  +6.5271427     1118.106     2615.504     3378.408     87.51035     174.5354     349.1749      2.778     9.65     1063.277     61.53552     135.1296        25     2.311     1.124  49.82   0
       260    133.4416    443.4979 307.8735633  +6.5012677     1204.368     2777.081     2685.613     87.51035      174.466     349.3484      2.425     8.14     1082.658     61.53552     125.4266        20     1.736     1.068  39.32   0
       261     67.2337    440.1617 307.9011855  +6.5004230     820.9644     2142.059     2999.453     87.23298     174.3965     348.8625      3.034     8.25     1084.217     61.53552     112.7408        12     1.944     0.979  50.54   0
       262    917.1563    438.6104 307.5480870  +6.5294748     2948.344     6806.187     7702.826     86.95473     174.3965      348.793      2.352     6.13      1062.59     61.53552     345.3788        42     2.138     1.212  30.85   0
       263    244.9621    434.8763 307.8275216  +6.5085662     6988.303     17511.43     21645.95     87.37177     174.6742     349.1055      2.627     6.60     1077.053     61.53552      715.701        70     2.374     1.582  33.99   0
       264    145.0711    423.4004 307.8694173  +6.5099544     2573.901     6403.503     7515.893     86.81526     174.0487     348.8972      2.647     6.77     1081.169     61.53552      293.327        48     2.145     1.469  35.07   0
       265    967.1525    426.5657 307.5277196  +6.5361109     747.4999     1280.619     1432.502     87.23298     174.6048     349.0361      1.885     4.54     1060.377     61.53552     106.0494         5     1.204     0.486   4.96   0
       266    167.8271    421.4662 307.8600283  +6.5115161     839.6054     1650.334     2247.058     87.09396      174.466     349.0014      2.420     6.32     1080.272     61.53552     123.9397        10     1.187     0.945  22.00   3
       267    166.5337    418.3596 307.8606717  +6.5127552     1262.816     2663.182     3552.105     87.51035     174.5354     349.2096      2.464     7.71     1080.131     61.53552     139.9626        19     1.939     0.858  18.59   2
       268    390.0882    413.5209 307.7679485  +6.5222421     915.1708     2412.358     3284.734     87.23298     174.8822     349.2443      2.948     8.75     1070.839     61.53552     118.1904        18     1.799     1.189  78.02   2
       269     40.9772    408.8772 307.9131633  +6.5124558     1451.209     4189.222     5012.133     87.09396     174.3965     349.0361      2.855     9.32         1084     61.53552     165.9994        40     2.177     1.503  38.77   0
       270    444.5691    407.7152 307.7455085  +6.5264615     3648.487     9424.477     11845.09     87.51035     174.3965     348.9666      2.701     7.31     1069.117     61.53552     381.5231        60     2.344     1.612  37.73   0
       271    785.0276    404.9291 307.6041327  +6.5389788     6994.134     16549.14     20260.11     87.23298     174.5354     349.0361      2.520     6.29     1064.706     61.53552       700.65        66     2.337     1.451  32.57   2
       272    777.1558    406.0438 307.6073660  +6.5382562     1056.458     2552.111     3293.934     87.51035     174.6048     348.9666      2.697     8.33     1064.854     61.53552     145.0516        19     1.778     1.091  39.41   3
       273    959.2536    395.8504 307.5320419  +6.5485285     571.6601     984.5405     767.4061      87.6487     174.5354     349.1402      1.756     4.44     1058.919     61.53552     84.17285         5     0.806     0.696  55.02   0
       274    492.6296    391.0741 307.7261043  +6.5349384     1458.597     3733.681     4593.507     87.37177     174.6048     349.1055      2.689     9.53     1067.372     61.53552      169.625        30     2.084     1.216  39.97   0
       275    464.8494    391.6423 307.7376284  +6.5337749     941.6443     2625.825     3174.363     87.51035     174.5354     349.0708      2.706     8.12     1067.773     61.53552     118.6572        16     1.492     1.236  63.66   0
       276    850.5212    387.8427 307.5774967  +6.5482147     17876.27     43737.29     52280.82     87.37178     174.6048     349.1402      2.541     6.44     1061.825     61.53552     1732.856        85     2.353     1.572  38.05   0
       277    621.8917    379.9482 307.6727699  +6.5438497      1440.46     3579.658     4038.822     87.37177     174.3965     349.3484      2.488     8.16     1066.071     61.53552     160.7714        32     1.991     1.204  38.55   0
       278    706.9781    373.8485 307.6376201  +6.5492073     40744.74     100914.5       121562     87.09396     174.6048     349.0013      2.541     6.54     1065.144     61.53552     4019.651       104     2.424     1.605  33.76   0
       279    864.5645    375.1670 307.5720906  +6.5539154     814.7221     1594.723     2083.173     87.09396      174.327     348.8277      2.240     6.53     1060.771     61.53552     102.5421         9     1.281     0.933  83.63   0
       280     87.7616    373.9313 307.8949181  +6.5284526     660.4213     1449.277     1435.231     87.37177     174.6048     349.2443      1.511     3.45     1081.142     61.53552     99.61365         5     1.567     0.220  63.30   0
       281    569.1802    370.7035 307.6949877  +6.5459059     1413.906     3508.828     3970.019     87.37177     174.3965     348.8625      2.508     9.94     1065.545     61.53552     151.5459        32     1.995     1.381  39.40   0
       282    106.9769    369.6085 307.8870816  +6.5308820     3187.189     7663.779     9977.345     87.09396      174.327     348.8972      2.651     7.18     1080.363     61.53552     349.3446        55     2.407     1.441  33.85   0
       283    552.9113    366.6826 307.7018847  +6.5470223     3585.543     9048.711     11398.46     87.23298     174.8129     349.1402      2.646     6.71     1065.242     61.53552     374.4916        60     2.336     1.543  29.47   0
       284    415.6864    362.0471 307.7590643  +6.5443481     12772.04     32772.15        40915     87.51035      174.466     349.1055      2.671     6.57     1067.062     61.53552     1298.575        85     2.445     1.666  34.68   0
       285    282.2210    364.2856 307.8144465  +6.5389556     1244.929     3415.851     4420.598     87.23298      174.327     349.0013      2.739     8.90     1072.226     61.53552     153.8309        23     2.143     1.033  42.96   2
       286    394.5263    358.8503 307.7679658  +6.5449597     720.9442     1791.221     3068.648     87.51035     174.6742     349.1402      4.071     7.98     1067.424     61.53552     81.00452        11     1.420     1.253  -9.18   0
       287    504.7981    352.4929 307.7223602  +6.5512723     4273.974     10726.02     12980.27     86.95473     174.2575      348.793      2.598     6.60     1064.111     61.53552     497.6675        55     2.292     1.452  37.90   0
       288    773.8399    351.0621 307.6106089  +6.5608438     1725.689     4003.523     4536.458     87.51035     174.6048     349.1749      2.421     8.71     1063.108     61.53552     183.8497        29     2.049     1.034  27.92   0
       289    394.6173    336.8129 307.7686783  +6.5540603     3471.365     9259.646     11581.64     87.09396     174.1879     349.0013      2.753     6.97     1066.335     61.53552      385.333        62     2.321     1.637  34.08   0
       290    250.5376    337.0782 307.8285394  +6.5491256     1110.578     2628.327     3183.343     87.78684     174.6742     349.1055      2.731     9.28     1072.162     61.53552     116.3081        22     1.834     1.310  21.90   0
       291    762.4484    332.3741 307.6159767  +6.5681790     28851.28     69577.84     82697.42     87.09396     174.6742     349.0013      2.509     6.37     1062.033     61.53552     2705.642        99     2.402     1.561  33.89   0
       292    434.6591    332.0150 307.7522026  +6.5573806      1141.17     2906.215     3158.689     86.81526     174.6048     348.8277      2.581     8.47     1064.669     61.53552     125.1456        22     1.840     1.088  47.53   0
       293    997.0396    329.2031 307.5185958  +6.5772997     988.0269     1997.217     2311.879     86.53566     174.2575      348.793      2.073     6.41     1052.798     61.53552     129.0164        16     1.525     0.916  25.51   0
       294    938.4510    328.5468 307.5429657  +6.5756215     1205.022     3109.831     3657.363     87.64871      174.466     349.1402      2.544     8.35     1056.731     61.53552     137.5525        24     1.958     0.995  37.82   0
       295    470.2989    328.2509 307.7375208  +6.5601265     706.2247     1513.268     1990.709     87.51035     174.6048     349.3137      3.186     4.91       1063.1     61.53552     85.59961         7     1.023     0.667 -83.83   0
       296    420.5627    326.8789 307.7582351  +6.5590294     860.6284     2069.729     2430.799     87.37177     174.6742     349.1055      2.371     7.29     1064.904     61.53552     114.5938        16     1.858     0.801  18.10   0
       297    842.1888    321.4554 307.5832096  +6.5753439      611.846      1504.01     1684.751     86.81526     174.5354     348.7582      2.223     4.48      1059.14     61.53552     114.2607         5     1.535     0.372  12.85   0
       298    196.7729    318.0627 307.8515288  +6.5551731     1137.458     2512.953     3680.908     87.09396     174.6048     349.0361      2.963     7.54     1074.118     61.53552     126.8081        17     1.614     0.987  22.06   2
       299    760.9285    316.9702 307.6171309  +6.5744875     3177.888      7568.96     8957.458     87.37177     174.6048     349.0708      2.480     6.82     1060.852     61.53552     324.7432        45     2.177     1.303  32.45   0
       300    777.2966    314.7997 307.6104025  +6.5759292      1424.45     3183.491      4060.26     86.95473     174.1879      348.654      2.447     8.49     1060.444     61.53552     178.5225        28     2.068     1.056  34.94   0
       301    367.2772    309.7328 307.7809615  +6.5643243     1052.932     2599.816     3960.344     87.64871     174.6742     349.0708      2.967     8.91     1066.398     61.53552     124.8925        22     1.782     1.244  29.34   0
       302   1015.4431    305.7693 307.5117409  +6.5875859     3729.709     8198.544     9738.446     87.09396     174.5354     348.9319      2.317     6.44     1050.849     61.53552     391.8818        41     2.052     1.154  34.24  16
       303    493.5897    305.2805 307.7286237  +6.5703879     911.9177     2432.362     2321.331     87.09396     174.2575     348.9319      2.556     8.96     1061.096     61.53552     110.4034        18     1.928     1.162  17.69   0
       304    256.2579    301.4815 307.8273761  +6.5640122     2886.497     7084.898     9340.449     87.64871     174.6048     349.1402      2.713     7.05      1070.38     61.53552     304.1803        53     2.324     1.488  29.35   0
       305    390.0683    291.9944 307.7720948  +6.5724099     904.3635     2288.486     2863.328     86.95473     174.2575     348.8972      2.619     8.78     1064.535     61.53552      109.453        18     1.882     1.142  39.31   0
       306    160.3390    287.9169 307.8676970  +6.5663956     847.0677      2209.11     2985.209      87.6487     174.6048     349.1402      2.930     8.27      1075.49     61.53552     99.15955        17     1.622     1.177  62.07   0
       307    813.4561    287.6658 307.5962959  +6.5883360      1494.29     1580.739      1270.29     87.64871     174.5354     349.1055      0.952     2.07     1058.235     61.53552     481.6813         7     0.888     0.432  14.21   0
       308    913.0775    282.2939 307.5550772  +6.5938716     1105.113     2625.479      3123.78     87.23298     174.8129     349.1749      2.528     9.06     1054.474     61.53552     127.8878        22     2.001     1.145  34.81   0
       309    733.1696    281.0139 307.6298869  +6.5884056     2654.357     6327.625     7298.677     87.09396      174.327     349.0361      2.449     6.89     1058.168     61.53552      296.459        43     2.126     1.309  34.41   0
       310    674.0596    281.0773 307.6544494  +6.5864075     1180.928     2943.548     3687.175      87.6487     174.6742     349.0708      2.876     9.07     1058.218     61.53552     133.4366        28     2.047     1.122  42.60   0
       311    569.7784    283.1768 307.6977143  +6.5820590     1143.057     2654.129     3098.411     87.23298     174.3965     349.0708      2.381     7.94     1058.441     61.53552     126.0441        22     1.619     1.089  37.33   0
       312    232.8070    266.4027 307.8383173  +6.5777071      1276.52      3151.63     3683.096     86.81526     174.2575     348.9666      2.472     7.66      1071.17     61.53552     159.7023        26     1.816     1.363  22.15   0
       313    874.8928    264.8084 307.5715388  +6.5998188     988.3888     2198.325     2289.798     87.09396     174.2575     348.8972      2.206     7.67     1055.017     61.53552     116.9973        17     1.630     1.040  35.30   0
       314    765.6475    264.4777 307.6169508  +6.5963152     851.0979     1961.575     2021.718     87.37178     174.6742     349.0708      2.330     8.88     1057.241     61.53552     108.2719        16     1.852     1.189  50.03   0
       315    466.8603    256.3771 307.7413954  +6.5896825     11027.24     28552.88      36406.4     87.09396     174.5354     349.0013      2.724     6.71     1058.662     61.53552     1080.514        88     2.447     1.730  33.14   0
       316    154.8845    250.0151 307.8712572  +6.5818589     1058.871      2517.08     3023.567     87.09396      174.327     349.0013      2.675     6.55     1075.419     61.53552     132.7635        17     1.394     1.139 -70.69   0
       317    792.7556    255.3426 307.6059950  +6.6009901     7251.509     17742.11     21985.92     87.37178     174.6048     349.1749      2.621     6.62     1056.753     61.53552     724.0364        73     2.354     1.556  29.96   0
       318    128.5087    248.5890 307.8822664  +6.5815625     548.7556     1297.161     1427.972     87.23298     174.2575     348.8972      2.769     5.28     1077.214     61.53552     84.16516         5     1.094     0.719  71.01   0
       319    928.1663    245.1377 307.5500652  +6.6097131     777.8112         1388     1840.285     87.37177     174.6742     349.0361      1.972     4.95     1052.046     61.53552     97.93738         7     0.880     0.787  39.81   0
       320    590.7283    241.9714 307.6904087  +6.5997693     2458.173      6045.04     7017.804     87.37177     174.6048     349.0708      2.483     7.73     1056.254     61.53552     267.8639        39     2.141     1.272  39.58   0
       321    553.1155    242.3526 307.7060269  +6.5983554     1049.555     2798.303     3502.941     87.51035     174.6048     349.1402      2.632     8.52     1056.343     61.53552     129.1567        23     1.650     1.564  21.68   0
       322    897.8247    238.5627 307.5628979  +6.6114174     6289.065      14710.9     17126.27     87.09396     174.3965     348.8277      2.429     6.78     1052.681     61.53552     642.1085        55     2.229     1.311  34.52   0
       323    951.4846    239.0220 307.5405813  +6.6130139     1771.757     3470.083     3081.035     87.37177     174.2575     349.0361      2.159     6.90     1051.006     61.53552     207.4204        27     1.869     0.970  38.67   0
       324    393.8232    240.0228 307.7723042  +6.5939904     681.2397     1613.971     1830.179     86.95473      174.466     349.0708      2.187     5.65     1061.918     61.53552     85.95203         8     1.489     0.605 -68.92   0
       325    984.4232    236.3963 307.5269808  +6.6151937     5903.455     13143.09     14563.48     87.09396     174.2575     348.9319      2.318     6.67     1049.824     61.53552     648.2694        50     2.145     1.260  37.55   0
       326    695.9661    236.4483 307.6468609  +6.6055625     1481.282     3397.895     4302.426     87.23298     174.6048     349.0361      2.727     7.53      1055.95     61.53552     175.2579        30     2.097     1.095  42.38   0
       327     24.1204    235.4274 307.9260944  +6.5834907     13099.72     32909.45     40525.04     87.37177     174.5354     349.1055      2.645     6.58     1081.127     61.53552      1314.29        84     2.441     1.640  35.54   0
       328    504.6973    231.4474 307.7265194  +6.6012391     1050.133     2351.687     2716.062     87.51035      174.466      349.279      2.458     8.19     1055.888     61.53552     139.6327        17     1.695     1.106  15.19   0
       329    887.4052    226.4537 307.5676386  +6.6160694     1189.367     2427.783      3364.42     86.81526      174.327     348.7582      2.577     5.14      1052.25     61.53552     139.4747        15     1.102     0.959 -46.13   2
       330    837.6877    228.9788 307.5882156  +6.6133710     1009.126     2193.457     2606.123     87.51035      174.327     348.9666      2.626     5.50     1054.016     61.53552     138.1671        11     1.210     0.705  25.14   2
       331    748.0185    224.5471 307.6256323  +6.6122118     21438.92     51706.61     62128.05     86.95473     174.6742     348.8625      2.515     6.41     1055.123     61.53552     2015.523        94     2.371     1.605  34.88   0
       332    516.4351    227.3407 307.7217811  +6.6033268     1287.601     3131.409     4159.008     87.51035     174.6048     349.0708      2.625     8.51     1055.592     61.53552     130.8113        24     1.518     1.333   5.58   0
       333    351.0473    224.0063 307.7906263  +6.5991703     3218.558     9051.419     12171.75     86.95473     174.3965     348.7235      2.999     7.15     1062.947     61.53552     312.7598        72     2.382     1.891  58.35   0
       334    981.7932    223.2875 307.5285178  +6.6205180     1643.559     3654.091     3973.842     86.95473     174.2575     348.8277      2.310     7.81      1049.39     61.53552     186.1501        29     1.998     1.002  31.49   0
       335    915.9539    221.6995 307.5559347  +6.6189826     4120.803      9642.91     11123.52     87.51035      174.466     349.3484      2.390     6.91      1051.19     61.53552     443.7014        48     2.171     1.277  36.43   0
       336   1019.6479    221.7468 307.5128372  +6.6224130     1082.964     2000.994      2248.56     87.51035     174.6048     323.8616      2.147     6.71     1048.277     61.53552      139.671        15     1.710     0.739  30.57  16
       337    116.9060    212.2822 307.8883277  +6.5961609     2395.672     6051.348     7320.538     87.23298     174.8822     349.2096      2.513     7.56     1077.297     61.53552     257.8431        47     2.325     1.338  36.95   0
       338    287.1514    208.8568 307.8176960  +6.6032841     16570.47      42639.4     53610.44     87.51035     174.6048     349.2096      2.696     6.68      1068.14     61.53552     1598.079        95     2.510     1.709  35.15   0
       339    262.3950    209.8671 307.8279497  +6.6020374     3153.106     7962.169     9708.064     86.95473     174.2575     348.8972      2.620     7.17     1069.586     61.53552     320.2701        57     2.318     1.569  31.52   0
       340    459.4247    220.7437 307.7456981  +6.6041440     2481.517     6369.777     8121.698     87.09396     174.6048     348.8972      2.745     7.61     1057.056     61.53552     273.6431        48     2.316     1.406  33.49   0
       341    716.3466    208.0533 307.6393549  +6.6179646     704.6895     1299.149      1228.25     87.78684      174.466     349.1402      2.002     5.97     1054.614     61.53552     92.57654         7     1.338     0.750 -66.30   0
       342    411.2496    204.3097 307.7662783  +6.6093165      24579.5      63257.2      79457.7     87.51035     174.3965      349.279      2.704     6.66     1059.184     61.53552      2394.07       107     2.520     1.742  34.81   0
       343    167.2086    205.4362 307.8676574  +6.6006749     2024.936     5109.154     6538.239     86.95473      174.327     348.8625      2.743     7.93     1073.826     61.53552     205.4563        43     2.179     1.435  35.68   0
       344    315.8557    202.0319 307.8059998  +6.6070631     8547.857     23005.88     31735.63     87.37177     174.6048     349.0361      2.990     7.17     1065.655     61.53552     866.5265       105     3.018     1.807  15.65   0
       345    750.4567    200.4578 307.6254365  +6.6222378     18023.04     43117.59     51674.87     87.64871     174.6742     349.1402      2.545     6.50     1053.939     61.53552     1685.413        82     2.384     1.516  32.85   0
       346     67.4382    197.8631 307.9093771  +6.6004524     4811.627     11806.18     14436.94     87.51035     174.5354     349.1749      2.631     6.51     1079.654     61.53552       504.49        63     2.363     1.536  43.75   0
       347    798.4674    200.2962 307.6054885  +6.6239051     802.4911      1484.47     2006.751     87.51035     174.6742     349.1055      2.163     5.43     1053.819     61.53552     101.2577         9     1.044     0.797  41.32   0
       348    101.3970    196.0506 307.8953270  +6.6023408     843.3526     2285.526     2899.411     86.81526      174.327      348.654      2.743     6.63     1077.766     61.53552      111.228        12     1.510     0.817  65.32   2
       349   1008.6658    194.5567 307.5183219  +6.6332727     804.0659     1710.883     1826.721     87.51035     174.5354     349.1402      1.930     6.52      1047.48     61.53552     96.21448        11     1.527     0.782  20.37   0
       350   1009.6640    180.8747 307.5183702  +6.6389543     1368.758     2866.674     3488.394      87.6487     174.6048     349.0708      2.250     8.16     1046.898     61.53552     163.0431        26     1.775     1.136  41.03   0
       351    286.0896    175.1372 307.8192869  +6.6171683     14992.48     39086.16     50394.44     87.51035     174.7435     349.1749      2.741     6.68      1068.35     61.53552     1519.469        96     2.527     1.755  33.66   0
       352    601.4654    176.9860 307.6881552  +6.6269553     956.4512     2522.005     3683.738     86.95473     174.3965     349.0361      2.676     7.82     1054.339     61.53552      119.918        17     2.007     0.853  57.99   0
       353     31.4104    173.4615 307.9251828  +6.6093153     2209.626     5646.027     7241.252     86.81526     174.3965     348.8625      2.796     7.20      1082.09     61.53552     245.1598        46     2.189     1.425  36.92   0
       354    717.7018    171.7013 307.6400258  +6.6330167     4333.995      10382.7      12733.9     87.51035     175.0207     348.9319      2.581     6.46     1053.182     61.53552     411.4973        56     2.216     1.439  36.11   0
       355    128.4976    168.8025 307.8849953  +6.6144986      2415.28     6120.316     7873.892     87.09396      174.327     348.7582      2.807     7.37     1074.949     61.53552     264.6459        49     2.277     1.477  37.25   0
       356    399.1166    164.7733 307.7726670  +6.6252317     1927.105      5144.55     6509.227     87.37177      174.327     349.0361      2.756     8.42     1057.646     61.53552     227.5211        47     2.340     1.455  35.13   0
       357    363.8029    163.8546 307.7873746  +6.6244289     1527.483     3998.832     4882.263     86.81526     174.3965     348.7235      2.605     8.63     1060.676     61.53552     158.1145        33     2.125     1.438  24.19   0
       358    117.4581    162.6320 307.8897938  +6.6166753     786.6093      1798.92     2497.494     87.37178     174.6742     349.0361      3.061     7.27     1075.437     61.53552     110.6144        10     1.396     1.061  13.46   0
       359   1010.1952    157.8102 307.5189302  +6.6484937     869.3373     2047.292     2021.829     86.95473      174.327     348.9666      2.297     6.87     1045.816     61.53552       127.02        16     1.898     0.698  45.26   0
       360    215.5201    152.6850 307.8493804  +6.6240713     2720.465     7102.334     8352.235     87.37178     174.9515     349.2096      2.686     6.95     1072.131     61.53552     286.4929        50     2.219     1.441  35.09   0
       361    677.1732    151.4036 307.6575594  +6.6400438     3302.416     7949.244      9816.11     86.95473      174.327     348.9319      2.532     6.58     1053.603     61.53552     325.6526        48     2.180     1.344  36.10   0
       362     98.1660    151.8691 307.8981787  +6.6204707     993.4286     2375.425     3210.898     87.37177     174.6048     349.1749      2.588     6.63     1076.376     61.53552      166.062        16     1.535     1.195  35.64   0
       363    629.3967    148.5408 307.6775134  +6.6396309      4983.67      12756.2     16424.78     86.81526     174.3965     348.8277      2.688     6.67     1053.664     61.53552     481.4948        64     2.346     1.545  33.85   3
       364    632.9462    140.1846 307.6763221  +6.6431990     27479.05     68574.23     84697.18     86.81526     174.6048      348.793      2.599     6.48     1053.317     61.53552     2581.477       102     2.465     1.626  34.26   2
       365    825.6777    150.9420 307.5958535  +6.6451866     673.8245     1194.924      1193.64      87.6487     174.6048     349.0361      1.776     3.36      1050.51     61.53552     105.9957         5     0.797     0.409  70.75   0
       366    356.3325    144.4909 307.7911390  +6.6321723     1778.827     4813.378     6226.734     87.64871     174.7435     349.1055      2.859     8.22     1061.798     61.53552     192.0901        41     2.026     1.587  57.84   0
       367    537.3198    142.4514 307.7159889  +6.6390688     903.9692     1998.124     2660.426     87.51035     174.6048     349.1055      2.772     8.69     1052.914     61.53552     98.72339        15     1.584     1.332  43.85   2
       368    312.1468    133.8043 307.8098668  +6.6351040      1642.09       4347.3     5576.141     86.81526      174.327     348.7235      2.752     8.44     1067.016     61.53552     172.1682        40     2.177     1.387  36.87   0
       369      9.6622    117.2019 307.9361440  +6.6318086     746942.8      2114270      2677542     86.81526     174.3965      348.793      2.782     8.16     1082.404     61.53552     62197.25       421     2.716     1.955  38.43  28
       370    697.3828    124.1120 307.6500868  +6.6519848     1844.646     4362.768     5150.316     87.23298      174.327     348.9666      2.500     7.54     1052.118     61.53552     256.1213        37     2.213     1.229  29.54   0
       371    439.0305    115.1724 307.7577676  +6.6470433     2049.769     5312.789     6184.126     86.95473      174.327     348.8625      2.612     7.95     1054.947     61.53552     239.3293        43     2.168     1.391  35.53   0
       372    911.5740    110.6468 307.5615183  +6.6646824     2510.599     5545.553     5893.722     87.09396     174.6742     348.9666      2.349     6.89     1045.333     61.53552     265.5037        37     2.121     1.148  37.58   0
       373    893.0202    111.1890 307.5692116  +6.6638409     1201.364     2870.594     3524.849     87.09396     174.2575     348.9666      2.636     9.14      1045.63     61.53552     145.4155        26     2.160     1.079  40.99   0
       374    603.2476    109.0657 307.6897232  +6.6550537     922.5286     2210.567     2668.895     87.37177     174.5354     349.1402      2.422     8.16     1052.206     61.53552     128.4917        18     1.870     0.995  22.90   0
       375    403.7462    107.2125 307.7727033  +6.6491486     813.5504     1941.463     2180.449     86.81526     174.5354      348.793      2.158     3.77     1057.293     61.53552     125.4862         6     1.009     0.404 -67.97   2
       376    150.3709    104.0328 307.8781166  +6.6419699     1665.938     4123.102     5243.417     86.95472      174.327     348.8277      2.640     7.56     1072.983     61.53552     194.6095        40     2.177     1.324  35.07   0
       377     32.4151    101.9416 307.9272099  +6.6388726     6336.547     16328.51     21241.48     86.81526     174.5354     348.8277      2.822     6.79     1080.141     61.53552     666.6145        71     2.445     1.580  35.48   0
       378    299.1096    102.5346 307.8163511  +6.6475757     799.8565     2005.364     3206.824     87.37177     174.8129     349.1055      3.352     7.55     1069.961     61.53552     94.89404        15     1.491     1.070  30.04   0
       379    833.9026     96.1355 307.5942938  +6.6680862     3491.356     8123.659     9917.424     87.51035     174.6742     349.1402      2.472     6.87     1046.814     61.53552     368.3137        46     2.247     1.311  28.96   0
       380    779.1158     96.5372 307.6170518  +6.6660943     1826.522     4171.021     4555.366      87.6487     174.6742     349.0708      2.475     8.32     1049.492     61.53552     196.2969        35     2.091     1.253  31.59   0
       381     72.5639     93.8587 307.9108005  +6.6435578     1601.727     3814.079     4645.408     87.51035     174.6048     349.1055      2.508     6.97     1076.823     61.53552     200.5393        31     1.763     1.308  33.61   0
       382    595.6183     90.6172 307.6935212  +6.6624148     745.7988     1423.277     1464.532     87.23298     174.2575     349.0361      2.064     4.54     1051.629     61.53552     100.7323         6     1.118     0.686 -18.73   0
       383     14.5749     88.3336 307.9350893  +6.6438905     1414.122     3493.621     5062.395     87.09396     174.5354     349.0013      3.339     7.39      1080.83     61.53552     177.7107        22     1.603     1.159  78.68   2
       384    773.5408     84.1351 307.6197899  +6.6710283     988.2172     2541.436     2816.927      87.6487     174.5354     349.1402      2.500     9.53     1048.779     61.53552     102.1858        27     2.267     1.117  33.47   0
       385    100.4232     78.0696 307.8997616  +6.6510111     4843.722     12476.27     15334.39     87.09396      174.466     349.0708      2.671     6.89     1074.526     61.53552     481.0422        66     2.363     1.598  38.00   0
       386    429.6949     77.8597 307.7629181  +6.6621342     1354.601     3313.345     3682.628     87.37177     174.6048     349.2096      2.502     8.41     1055.868     61.53552     139.6786        29     1.973     1.146  44.70   0
       387    643.0684     69.9543 307.6745015  +6.6725294     9569.861      23610.9     28472.27     87.51035     174.5354     349.0708      2.554     6.62     1050.663     61.53552     873.1349        74     2.374     1.548  34.30   0
       388    261.6750     66.9727 307.8331222  +6.6610014     957.4913     3077.326     6179.536     87.37177     174.5354     349.0708      5.489    11.57     1071.625     61.53552      123.854        32     2.680     1.390  46.91   1
       389    543.0381     65.9745 307.7162134  +6.6708309     2616.322     6553.068     7854.321     87.09396     174.3965     348.9319      2.596     7.78     1051.448     61.53552     279.2979        48     2.419     1.296  32.09   0
       390    448.4366     61.6496 307.7556804  +6.6694529     11495.47     29088.99      35937.7     87.23298     174.6048     349.0014      2.651     6.66     1055.052     61.53552     1133.094        86     2.485     1.633  36.38   0
       391    269.0334     62.1473 307.8302285  +6.6632401     4740.011     12141.97     16210.27     87.37177     174.5354     349.0361      2.879     6.65     1071.578     61.53552     474.2183        67     2.376     1.593  37.43   0
       392    926.0435     61.8889 307.5571563  +6.6852927     1300.068     2841.117     3699.957     87.51035      174.466     349.1402      2.456     8.16     1042.977     61.53552     152.3636        22     1.927     0.966  33.90   0
       393    629.2744     60.1514 307.6805681  +6.6761156     1701.393     4635.681     6385.268     87.51035     174.6742     349.1402      3.012     7.87     1050.376     61.53552     189.8488        44     2.157     1.462  38.93   0
       394     34.8078     61.5227 307.9275971  +6.6556379     1103.464      2890.31     3566.146     87.09396     174.0487     348.8972      2.660     8.77      1078.36     61.53552     140.0131        22     1.822     1.180  52.50   0
       395    256.9808     58.7532 307.8353536  +6.6642371     1673.967     4221.818     6576.654     87.09396     174.5354     348.9319      3.384     8.66     1071.614     61.53552     179.4878        33     2.032     1.252  47.92   1
       396    697.6006     50.6208 307.6524922  +6.6823308     1049.152     2224.728     2812.824     87.09396     174.2575      348.793      2.444     7.58     1048.928     61.53552     161.9331        16     1.727     0.931  35.13   2
       397    186.5174     44.1032 307.8651396  +6.6679219     5394.841     13581.32     16292.64     87.37177     175.0207     349.1749      2.593     6.79     1072.132     61.53552     530.7505        64     2.361     1.528  35.17   0
       398    932.0828     41.6995 307.5553302  +6.6938284     2301.995     5466.174     5957.536     87.51035     175.1591     349.2096      2.366     7.98     1041.671     61.53552     256.3481        38     2.295     1.067  34.66   0
       399    919.1635   1018.7021 307.5276150  +6.2900584     5985.918     12778.03     13745.54     87.51035      174.466     334.3911      2.190     6.70     1091.376     61.53552     693.8396        44     2.092     1.088  35.15  16
       400    469.0265     40.5913 307.7478394  +6.6788349     1007.618      2384.41     2535.233     87.09396     174.3965     348.9666      2.296     7.67     1053.476     61.53552     120.7314        18     1.455     1.132  19.17   0
       401    996.9297     37.7899 307.5285078  +6.6976002     1031.712     2679.755     2672.836     86.95473      174.327     348.9319      2.445     8.50     1036.643     61.53552     162.7488        19     1.998     1.010  29.45   0
       402    716.2598     34.5495 307.6452822  +6.6895879     4119.814     9607.143     11499.89     87.51035     174.5354     349.1055      2.453     6.42     1047.379     61.53552     402.9586        53     2.272     1.344  32.31   0
       403    636.3622     33.8298 307.6785166  +6.6872183     1860.539      4724.93     5402.586     87.09396      174.327     348.9666      2.542     7.63      1049.41     61.53552     203.9485        41     2.188     1.308  36.15   0
       404    436.4893     29.8879 307.7617277  +6.6821649      3261.92     7764.414     9591.284     87.23298     175.1591     349.2096      2.656     7.37      1057.01     61.53552     369.4371        56     2.526     1.435  36.10   0
       405     37.7284     29.7011 307.9274710  +6.6688719     4480.762     11158.63     13330.58     87.23298     174.8129     349.1055      2.558     6.76     1076.919     61.53552     457.1168        58     2.329     1.443  38.37   0
       406    892.6906   1014.8627 307.5387402  +6.2907625     8591.935     18404.76     20687.53     87.51035     174.7435     349.1749      2.236     7.02     1091.306     61.53552     1000.379        51     2.148     1.152  30.73  16
       407    106.6401     25.4657 307.8989748  +6.6729348     1295.492     3424.323     5118.946     87.51035     174.5354     349.2096      3.269    11.32     1073.086     61.53552     140.7413        36     2.095     1.705  -1.16   0
       408    399.8835     23.1605 307.7771717  +6.6837169     1156.001     2699.071     3040.469     87.51035     174.5354     349.0361      2.475     7.59     1060.458     61.53552     142.6088        21     1.582     1.019  53.23   0
       409     97.9182     23.5768 307.9026643  +6.6734216     831.5522     2173.806     2768.896     87.23298     174.2575     349.0014      2.762     7.42     1073.157     61.53552     94.30383        13     1.400     1.100  36.08   0
       410   1014.3798   1014.1836 307.4882205  +6.2950903      3406.53     7083.935     7318.109     87.23298     174.3965     349.0013      2.124     6.92     1086.562     61.53552     433.9006        33     2.113     0.942  32.44  16
       411    605.4772   1015.1379 307.6580201  +6.2810768     795.3634     1910.379     2078.708     87.78685     174.6742     349.1055      2.452     7.00      1098.24     61.53552     112.0734        15     1.997     0.688  27.66  16
       412    537.1387   1014.0969 307.6864381  +6.2792250     2646.162     6196.876     7307.976     87.23298     174.6742     349.1749      2.414     7.94      1098.49     61.53552      313.712        38     2.179     1.097  31.70  16
       413    646.1013   1013.2426 307.6412121  +6.2832148     994.6962     1971.176      2113.59     87.51035      174.466     349.3484      1.988     7.28     1097.155     61.53552     139.3733        16     1.690     0.908  33.80  16
       414    489.8340   1010.3572 307.7062118  +6.2791887     1306.799     2889.951     3188.333     87.23298     174.6048     348.8972      2.218     8.37     1098.296     61.53552     162.5657        25     1.984     0.986  26.24   0
       415    732.9976     40.3282 307.6381288  +6.6877607      1069.59     2381.316     2275.534     86.95473     174.1879     348.9319      2.199     7.61     1046.979     61.53552     123.6412        21     1.423     1.321   8.39   0
       416    924.4554   1002.3821 307.5259692  +6.2969720     30346.97     64293.54     71387.54     86.95473     174.5354     348.8277      2.197     6.87     1090.443     61.53552     3812.912        73     2.197     1.208  35.04   0
       417    231.6125   1000.7649 307.8137815  +6.2745098      1052.43     2456.952     2599.953     86.95473     174.3965     348.8972      2.239     7.59     1099.634     61.53552     129.6588        19     1.825     0.883  26.39   0
       418    822.4420    996.2861 307.5685463  +6.2960929     1556.128     3272.949     3202.409     87.51035      174.466     349.1055      2.126     7.52      1092.31     61.53552     197.7916        27     2.100     1.008  33.98   0
       419    770.5891    993.9097 307.5901635  +6.2953466     4379.467     9615.669     11242.16     87.23298     174.2575     348.8625      2.298     6.96     1093.531     61.53552     527.8931        43     2.212     1.106  41.26   0
       420    558.1899    994.0784 307.6783748  +6.2881922     599.4032     1321.256     1717.707     87.09396     174.2575     348.9319      2.360     4.50     1097.851     61.53552     100.6489         6     1.333     0.431  67.26   0
       421    241.7236    994.7164 307.8097883  +6.2773454     764.1732     1348.381     1939.365     87.64871     174.9514     349.2096      2.351     3.86     1099.462     61.53552     114.4773         5     0.855     0.499  34.83   3
       422    238.6514    992.2376 307.8111487  +6.2782658      828.142     1415.839     1787.708     87.23298     174.6048     349.0708      1.860     4.57     1099.385     61.53552      125.522         9     1.127     0.616  53.32   2
       423     65.1948    991.6357 307.8832066  +6.2726994     1553.066     3610.614     4143.051     86.53566      174.327     348.8625      2.295     8.69     1099.536     61.53552      190.343        28     2.078     1.014  42.76   0
