#   1 NUMBER                 Running object number                                     
#   2 X_IMAGE                Object position along x                                    [pixel]
#   3 Y_IMAGE                Object position along y                                    [pixel]
#   4 ALPHA_J2000            Right ascension of barycenter (J2000)                      [deg]
#   5 DELTA_J2000            Declination of barycenter (J2000)                          [deg]
#   6 FLUX_APER              Flux vector within fixed circular aperture(s)              [count]
#   9 FLUXERR_APER           RMS error vector for aperture flux(es)                     [count]
#  12 FLUX_RADIUS            Fraction-of-light radii                                    [pixel]
#  13 FWHM_IMAGE             FWHM assuming a gaussian core                              [pixel]
#  14 BACKGROUND             Background at centroid position                            [count]
#  15 THRESHOLD              Detection threshold above background                       [count]
#  16 FLUX_MAX               Peak flux above background                                 [count]
#  17 ISOAREA_IMAGE          Isophotal area above Analysis threshold                    [pixel**2]
#  18 A_IMAGE                Profile RMS along major axis                               [pixel]
#  19 B_IMAGE                Profile RMS along minor axis                               [pixel]
#  20 THETA_IMAGE            Position angle (CCW/x)                                     [deg]
#  21 FLAGS                  Extraction flags                                          
         1     33.4476     23.3244 307.9273687  +6.6691291     9438.458     13147.53     13515.28      79.4429     158.8227     317.4246      1.500     2.88      874.604     55.95125     1313.503        35     1.344     1.056 -59.46   0
         2    329.1537     18.6308 307.8046711  +6.6810239     14101.07     20075.71     21673.58      79.0637     158.7596     317.3299      1.519     3.01     872.1252     55.95125     2027.315        40     1.405     1.068 -54.33   0
         3    395.2545     16.8150 307.7772688  +6.6839951     2540.272     3655.071       3222.2     78.93689     158.7596     317.1405      1.492     3.02     868.6606     55.95125     380.6142        19     1.150     0.917 -50.05   0
         4    656.0347     12.2021 307.6690720  +6.6946494      11982.2      17034.1     17891.76     78.68266     158.5702     317.2036      1.465     3.02     857.1608     55.95125     1780.596        36     1.318     1.059 -59.34   0
         5    533.6171     11.8822 307.7199470  +6.6906770     1444.036     1942.873     2148.233      79.1903     158.4438     317.3615      1.579     3.65     859.1191     55.95125     239.7925        13     1.129     0.772 -64.31   0
         6    820.7087     11.5010 307.6006726  +6.7004520     1738.466     2406.085     2614.925      79.5689     159.2007     317.3931      1.625     3.67     855.2128     55.95125     258.9164        14     1.213     0.734 -52.78   0
         7    256.5251      8.8581 307.8351771  +6.6826156     6768.737      10617.2     11733.52      79.6947     158.7596     317.3931      1.739     4.04     872.8403     55.95125     1023.016        43     1.879     1.121 -33.35  16
         8    891.0175      9.6238 307.5715216  +6.7035779     1612.969     2173.044     1963.866      79.3167     158.6334     317.3299      1.432     3.11     854.1723     55.95125     263.3734        13     1.012     0.792 -48.61   0
         9    958.6908      8.9661 307.5434244  +6.7061107     494.9916     603.2985     1065.862      79.6947     158.6334     317.4246      1.365     4.54     850.9521     55.95125     79.20325         6     1.103     0.531 -40.34   0
        10    677.5016      6.9875 307.6603281  +6.6975215     9407.004     12955.43     14384.16      79.3167      158.507     309.5313      1.491     3.38     856.3623     55.95125     1254.816        20     1.197     0.878 -42.47  19
        11    680.8375      4.3014 307.6590324  +6.6987422     15031.38     21452.05     23142.53      79.5689      158.064     282.3848      1.520     3.16     856.1578     55.95125     2082.028        42     1.495     1.164 -46.21  19
        12    647.6531      7.5919 307.6727098  +6.6962719     10146.11     14121.35      15058.5      79.0637     158.6334     313.5508      1.501     2.95     857.1987     55.95125     1402.369        34     1.294     1.051 -57.81  16
        13    417.5110      7.5836 307.7683332  +6.6885539     8883.947     12196.58     12163.36      79.3167      158.507     313.6146      1.479     2.95     867.4192     55.95125     1198.364        29     1.261     1.015 -55.32  16
        14    733.0844      6.3709 307.6372538  +6.6996375     2202.494       2850.6      3014.61      79.5689      158.507     304.4406      1.362     3.05     855.4839     55.95125     312.4456        14     1.051     0.792 -75.77  16
        15    657.1122      3.6328 307.6689129  +6.6982234     3436.067     4776.568     5442.191      79.6947     154.0195     273.7383      1.516     3.07     856.7528     55.95125     518.3519        23     1.239     0.976 -72.18  25
        16    196.2936      4.0929 307.8603630  +6.6825556     1285.862     2220.642     2518.435      79.5689     157.6198     279.6399      2.079     4.00     872.5524     55.95125     238.5335        16     1.322     1.061  -3.52  16
        17     63.8703      1.5572 307.9154667  +6.6791410     2368.571     2712.982     2696.021     72.03602     129.4978     242.5369      1.134     2.75      873.944     55.95125     552.9672        14     1.029     0.740  -3.43  24
        18    485.4413   1004.3466 307.7065114  +6.2793194     2496.868     3275.834     3264.727      79.4429     158.8227     317.4877      1.443     3.55     892.6546     55.95125     322.7078        17     1.199     0.843 -49.38   0
        19    617.6118   1023.5599 307.6509925  +6.2758170     431.8695     436.7736     568.7847      70.4897     127.6277     240.3378      1.019     3.33     892.1733     55.95125      101.008         5     1.079     0.298 -22.51  24
        20    920.0494    996.4380 307.5263390  +6.2971297     45073.09     69099.23     73106.02      79.3167     158.6965     317.2984      1.654     3.21     886.0805     55.95125     5878.053        75     1.540     1.338 -59.27   0
        21    325.1246    997.9496 307.7732838  +6.2765795     515.9214       899.55     788.0348      79.5689     158.8227     317.4246      2.147     5.26     894.8435     55.95125     85.62909         6     1.133     0.690 -26.88   0
        22    227.4417    994.6440 307.8139487  +6.2746614     2084.452      2927.49     2948.651      79.3167     158.7596     317.2668      1.525     2.98     895.3007     55.95125     347.3116        16     1.068     0.926 -61.90   0
        23    115.3638    993.6260 307.8605116  +6.2713113     773.6888     809.7412     498.5872      79.1903     158.5702     317.2036      1.197     3.90     892.9809     55.95125     137.7954         6     0.832     0.570  45.76   0
        24    626.2342    993.0978 307.6484374  +6.2886823     857.9101     1145.115     717.7783      79.5689     158.6334     317.5508      1.365     3.62     891.7543     55.95125     117.8211         9     0.933     0.791 -30.71   0
        25    817.9804    990.2805 307.5689231  +6.2962615     2292.062     3348.036      3535.77      79.1903     158.4438     317.3615      1.542     3.59      888.126     55.95125     325.2627        17     1.263     0.823 -44.95   0
        26    766.2001    988.1014 307.5904945  +6.2954297     7188.358      10571.5     11146.24      79.0637     158.3806     317.0141      1.558     3.24     889.3041     55.95125     1015.849        35     1.525     1.023 -61.67   0
        27    552.9749    987.5320 307.6790398  +6.2885256     1105.946     1516.601     1673.364      79.1903     158.6334     317.3299      1.438     3.00     892.0414     55.95125     208.7129        10     1.019     0.678 -69.67   0
        28    235.7168    986.9197 307.8107740  +6.2781286      1577.53     2119.691     2092.097      79.4429     159.0118     317.4877      1.424     3.19      895.035     55.95125      239.852        13     1.077     0.810 -40.76   0
        29    200.0802    986.8888 307.8255696  +6.2769430     818.1015     1315.338     1406.043      79.3167     159.0118     317.5193      1.492     4.71     894.2104     55.95125     115.3724         9     1.224     0.515 -56.80   0
        30     60.5278    985.1142 307.8835641  +6.2729791     3022.044     4188.703     4090.641      79.6947     159.0118     317.4562      1.451     3.13     893.3837     55.95125     476.5624        18     1.208     0.855 -61.81   0
        31    954.4307    983.1784 307.5125089  +6.3037521     6766.205     10465.14      10996.6      79.0637     158.5702     317.2984      1.634     3.15     884.1234     55.95125     884.5355        35     1.359     1.186 -54.71   0
        32    210.5123    978.8240 307.8215111  +6.2806234     740.4985     1242.931     1530.451      79.5689     158.5702     317.2984      2.029     4.28     894.3381     55.95125     129.6309         6     1.047     0.499  88.42   0
        33    928.1111    974.9863 307.5237112  +6.3062555     2079.177     3378.787      3550.52      79.3167     158.5702     317.2984      1.705     4.02     885.3166     55.95125     253.5944        24     1.397     1.061 -79.46   0
        34    636.4577    977.2048 307.6447273  +6.2955863     740.0658     1054.107     427.9488     78.93689     158.6334     317.1405      1.353     3.38     891.4265     55.95125     118.6008         6     0.894     0.693   5.41   0
        35    787.6505    971.5934 307.5821431  +6.3029626     1544.938     2458.967     2504.565      79.0637      158.507     317.0457      1.681     3.57     888.3447     55.95125     243.4623        17     1.186     0.957 -45.66   0
        36    648.8496    970.8057 307.6397976  +6.2986432     5008.598     7038.645     7274.285      79.0637     158.5702     317.0457      1.455     3.06     891.1627     55.95125     770.5311        26     1.340     0.921 -48.35   0
        37    997.9958    970.7417 307.4948377  +6.3103409     745.3792     1511.626     1913.069     78.93689     158.6334     317.1721      2.424     6.49     881.2885     55.95125     108.2498        11     1.192     0.992 -39.77   0
        38    261.1371    970.9562 307.8007596  +6.2855736      4780.75     6493.559     6693.534      79.5689     158.6965     317.4877      1.451     3.08     894.6381     55.95125      719.438        23     1.361     0.872 -45.22   0
        39    471.4061    968.8512 307.7135340  +6.2935031     1267.043     1818.792     1931.757      79.0637     158.5702     317.0773      1.517     4.10     892.2219     55.95125     187.8359        16     1.249     0.932 -33.60   0
        40     29.8839    968.2563 307.8968559  +6.2789066      2336.05     3286.635     3123.245      79.5689     158.7596     317.5193      1.467     3.22     893.6841     55.95125     361.6024        17     1.211     0.806 -35.63   0
        41    880.5488    967.2975 307.5437167  +6.3078413     942.1119     1410.886      1078.24      79.4429     158.7596     317.6455      1.734     5.46     885.8419     55.95125      118.173        10     1.047     0.803 -42.31   0
        42    971.7576    965.3943 307.5059110  +6.3116730     620.3587     934.2051     1076.183     78.93689     158.4438     317.1405      1.471     4.60     882.5872     55.95125     103.5826         5     0.845     0.710  40.81   0
        43    952.3950    964.4418 307.5139822  +6.3114199     782.2337     1242.546       1185.5     78.93689     158.4438     317.1405      1.876     5.20     883.6535     55.95125     112.2726         8     1.124     0.679 -87.63   0
        44    297.2060    964.6187 307.7859991  +6.2894022     1033.025     1191.099      1632.47      79.1903     158.4438     317.2352      1.349     4.63     894.5222     55.95125     177.5892         9     0.965     0.702 -71.41   0
        45   1004.8170    962.5226 307.4922810  +6.3139619     829.2984     1613.986     1807.439      79.0637      158.507     317.2984      2.176     7.09     880.7372     55.95125     111.8035        13     1.857     0.757 -72.19   0
        46    573.6471    963.1813 307.6712768  +6.2992718     1836.712     2680.593     2374.446      79.0637     158.6965     317.2352      1.481     3.18     891.7638     55.95125     256.2603        18     1.210     0.867 -44.98   0
        47     62.3231    960.4499 307.8836530  +6.2832220     791.7977     1159.609     1171.363      79.4429     158.8227     317.4246      1.651     3.78     893.2514     55.95125     121.8513         7     0.885     0.633 -67.60   0
        48    612.9054    959.6551 307.6550961  +6.3020430     1289.179     1927.594     1871.957      79.4429     158.7596     317.6455      1.437     3.69     891.5311     55.95125      217.592        13     1.240     0.734 -40.27   0
        49    292.6808    957.3469 307.7881232  +6.2922523     1417.849     2235.157     2779.147      79.5689     158.7596     317.4877      1.707     3.35     894.4222     55.95125     246.0526        14     1.181     0.859 -58.92   0
        50    560.7109    955.8062 307.6768958  +6.3018832     640.8954      822.545     766.7062      79.0637     158.4438     317.2036      1.286     4.24     891.7609     55.95125     97.70538         6     0.767     0.670 -12.59   0
        51    759.6324    953.3082 307.5943900  +6.3095748      980.233     1435.617     1667.958      79.6947     158.6334     317.4562      1.554     4.02     888.3953     55.95125     145.6886         9     1.102     0.547 -44.97   0
        52    897.0953    950.0932 307.5374238  +6.3154972     7473.968     10822.49     11002.32      79.5689     159.3265     317.3615      1.530     3.12     885.2255     55.95125     1089.117        31     1.344     1.047 -47.85   0
        53    433.0379    947.2579 307.7301910  +6.3011308     2461.371     3462.592     3284.062      79.5689     158.8227     317.4246      1.468     3.06     892.1558     55.95125     389.6905        19     1.162     0.909 -61.34   0
        54    334.6862    945.5692 307.7710812  +6.2985260     10687.97     14927.25     15864.32      79.6947     158.5702     317.3299      1.526     2.96     893.4095     55.95125     1491.933        39     1.412     1.047 -56.61   0
        55    254.7267    944.4851 307.8043146  +6.2962867     8202.989     11312.14     11766.22      79.6947     159.0748     317.4562      1.484     3.03     893.8427     55.95125     1157.376        30     1.350     0.957 -55.94   0
        56    173.0176    943.0234 307.8382867  +6.2941424     514.1926     760.3289     421.6292      79.1903     158.5702     317.2984      1.534     4.82     892.8774     55.95125     111.2635         6     1.256     0.524 -83.98   0
        57    582.8704    939.1379 307.6682565  +6.3095074     1224.717      1707.44     1925.816      79.6947     158.7596     317.4877      1.569     3.35     891.5209     55.95125     220.9035        13     1.176     0.757 -34.37   0
        58    767.2109    938.5730 307.5917384  +6.3159119     761.7933     1138.221     1064.105      79.1903     158.5702     317.2984      1.559     4.28     887.7712     55.95125     110.4398         7     0.858     0.631 -76.40   0
        59    912.8267    935.1950 307.5313918  +6.3221736     1186.539     1811.461       1911.2      79.0637     158.5702     317.2668      1.655     3.72     884.3994     55.95125     184.5767        13     1.106     0.857 -37.55   0
        60    216.6698    934.5837 307.8204489  +6.2990949     730.5081     1014.844     1218.707      79.0637     158.6334     317.3299      1.563     4.15      893.127     55.95125     128.4589         6     0.946     0.657 -69.38   0
        61    145.5397    934.7083 307.8499754  +6.2966507     802.7582     948.0959     501.4146      79.4429     158.7596     317.5193      1.340     4.57     892.7031     55.95125     121.5672         9     0.996     0.686 -61.91   0
        62    869.2272    934.1610 307.5495292  +6.3211440     816.2434     1285.338     1107.681      79.1903     158.5702     317.2668      1.537     3.71     885.8354     55.95125     152.6474         9     1.046     0.714   3.12   0
        63    980.0571    931.1752 307.5036120  +6.3260779     801.2483     1290.128     1396.658      79.1903     158.7596     317.2668      1.753     4.90     881.2968     55.95125     116.8897         9     1.093     0.676 -44.31   0
        64    749.1144    928.3363 307.5995959  +6.3195329     1885.957     3001.741     2981.553      79.6947     158.8858     317.4246      1.579     3.40     888.0566     55.95125     289.1827        18     1.322     0.822 -52.13   0
        65    572.9575    928.7438 307.6727220  +6.3134665     823.0116     1062.437     332.0734      79.4429     158.6965     317.4562      1.401     3.26     891.4857     55.95125     120.1554         7     0.711     0.690 -27.19   0
        66    980.5356    924.0639 307.5036517  +6.3290299     1301.679     1857.442     2622.821      79.5689     158.7596     317.4562      1.543     4.22     880.9916     55.95125     182.1847        13     1.101     0.937 -49.83   0
        67    624.7188    924.4261 307.6513763  +6.3169833     741.6848     861.2358      980.481      79.4429     158.5702     317.4246      1.223     4.15     890.7316     55.95125     129.0647         7     0.954     0.536 -54.24   0
        68    613.1646    924.5830 307.6561683  +6.3165315     857.8242     1261.665     1271.888      79.1903     158.5702     317.2036      1.505     4.58     891.0398     55.95125     131.0718        10     1.089     0.782 -24.00   0
        69    534.3665    923.8946 307.6889079  +6.3141751     1282.891     1881.747     1809.152      79.6947     158.6334     317.5193      1.541     3.90     891.5281     55.95125     209.1966        13     1.274     0.631 -44.72   0
        70    350.4222    925.6450 307.7652200  +6.3072802     351.3446     431.0813     535.1718      79.0637     158.7596     317.2668      1.082     3.85     892.6804     55.95125     86.77765         5     1.000     0.425 -14.06   0
        71    667.7474    921.6572 307.6336040  +6.3195674     2865.379     4015.555     4219.015      79.5689     158.7596     317.4246      1.484     2.91     889.6982     55.95125     424.8196        19     1.127     0.909 -40.58   0
        72   1018.8296    920.9012 307.4878575  +6.3316136     651.4048     1081.737     1199.377      79.5689      158.507     302.7247      1.522     4.19     879.0142     55.95125     96.06451         6     1.186     0.422 -61.60  16
        73    564.7105    918.5314 307.6764898  +6.3174064     568.9389     979.9787     549.1502      79.6947     158.9488     317.4246      1.750     6.24     891.2359     55.95125     84.61731         7     1.412     0.775  70.44   0
        74    957.6899    919.5665 307.5132883  +6.3301242     712.3225     1080.043     1187.448      79.6947     158.6334     317.4246      1.482     4.08     881.9507     55.95125     110.5961         7     0.987     0.482  -7.78   0
        75     64.3581    917.5536 307.8842590  +6.3009999     3303.049     4914.302     5389.417      79.4429     158.7596     317.3299      1.625     3.31     892.9572     55.95125     473.4768        21     1.349     0.828 -68.11   0
        76    828.7319    917.4982 307.5669024  +6.3266700      857.732     940.7834     730.6937      79.5689     158.8858     317.4562      1.323     3.99     885.8781     55.95125     129.5977         9     1.006     0.649 -79.63   0
        77    207.8864    916.5876 307.8247033  +6.3062291     2547.792     3316.514     3414.823      79.1903     158.5702     317.2984      1.364     2.80     892.8536     55.95125     403.8439        17     1.092     0.890 -67.18   0
        78     81.9222    916.9674 307.8769868  +6.3018334     2148.259     3017.773     2938.582      79.4429     158.7596     317.3615      1.473     3.50     892.7798     55.95125      321.679        17     1.241     0.812 -51.45   0
        79    945.9033    916.5765 307.5182825  +6.3309651     848.6384     1343.252     1398.136      79.6947      158.507     317.2668      1.729     3.90     882.4318     55.95125     119.7567        10     0.980     0.765 -71.18   0
        80    346.6611    912.6704 307.7672192  +6.3125105     1008.325     1382.457     1877.435      79.6947     158.7596     317.4877      1.610     3.65     892.7382     55.95125     143.8741        10     1.112     0.768 -84.76   0
        81    241.6779    913.4385 307.8107802  +6.3086656     951.8834     1181.114     321.2141      79.4429     158.8227     317.4246      1.360     3.27     893.1679     55.95125     147.6769         9     0.939     0.730 -45.86   0
        82    662.4392    910.6288 307.6361788  +6.3239428     7804.793      10824.5     10685.36      79.0637      158.507     317.2984      1.482     2.93     889.3602     55.95125     1189.389        30     1.282     1.004 -52.81   0
        83    799.8795    911.5072 307.5790833  +6.3281789      757.779     1161.996     1241.784      79.3167     158.9488     317.4877      1.743     3.32     886.1094     55.95125     142.8463         8     0.894     0.682 -61.62   0
        84     22.5513    908.8320 307.9019107  +6.3031922     1318.915     1805.557     1694.011      79.3167     158.7596     317.3615      1.512     4.51     893.1553     55.95125     195.2587        16     1.271     0.891 -59.25   0
        85    451.4267    908.3772 307.7238665  +6.3177999     490.9951     598.4022     35.19258      79.0637     158.5702     317.3931      1.167     4.14     891.6216     55.95125     71.07452         5     0.994     0.491  86.16   0
        86     35.2482    907.3666 307.8966890  +6.3042250     1189.629     1624.959     1601.072      79.3167     158.7596     317.3615      1.476     4.07     893.0318     55.95125     187.7673        11     1.076     0.761 -50.08   0
        87    900.0713    906.8279 307.5376395  +6.3334593     3081.133     4335.847      4876.32      79.3167     158.7596     317.3615      1.509     3.10     883.9715     55.95125     446.2266        19     1.147     0.935 -45.09   0
        88    345.4266    903.7633 307.7680322  +6.3161463     18440.33     25477.23     27092.46      79.1903     158.5702     317.2352      1.475     2.94     892.7764     55.95125     2824.121        45     1.385     1.051 -53.91   0
        89     80.0513    904.9822 307.8781689  +6.3067184     1388.628     1780.653     1816.851      79.0637     158.8227     317.1721      1.427     3.91     892.7139     55.95125     209.0061        13     1.201     0.722 -64.74   0
        90    216.2936    903.3898 307.8216586  +6.3119606     1380.868      1713.24     1487.222      79.1903     158.3806     317.2036      1.294     3.50     892.8264     55.95125     209.7078        13     1.211     0.656 -55.50   0
        91    396.1225    903.2593 307.7470008  +6.3180567     736.8109     815.9124     1127.272      79.6947     158.7596     317.3931      1.285     4.65     892.0248     55.95125     122.0606         8     0.968     0.634 -10.33   0
        92    422.9367    894.8181 307.7361523  +6.3224418     1134.917     1521.448     1337.325      79.1903     158.6965     317.2984      1.332     3.60     891.5883     55.95125     201.4958        10     1.118     0.574 -56.67   0
        93    108.7054    894.4927 307.8666273  +6.3120137     1873.095     2680.313     2751.627      79.5689     159.2636     317.4246      1.499     3.42     892.5946     55.95125     253.7423        14     1.169     0.725 -43.89   0
        94    504.0132    891.7128 307.7025942  +6.3264438     599.0099     929.9793     1027.852      79.1903     158.5702     317.3299      1.814     4.15     891.1323     55.95125     107.5159         6     1.206     0.408 -32.68   0
        95    676.4316    890.7397 307.6310378  +6.3326228     930.2049      1424.57     1718.691      79.3167     158.8227     317.3931      1.718     5.27     888.2191     55.95125     143.0193         9     0.932     0.878  22.21   0
        96    890.4913    888.6148 307.5422283  +6.3406589     2168.744     2877.489     2342.873      79.3167     158.5702     317.2352      1.460     3.24     883.7271     55.95125     309.3816        18     1.217     0.887 -55.26   0
        97    824.4686    887.6411 307.5696749  +6.3388545     3403.257     4493.983     5115.615      79.4429     158.7596     317.5193      1.501     2.93     885.3552     55.95125     512.8949        24     1.631     0.853 -39.52   0
        98    861.2925    888.1484 307.5543679  +6.3398758     2221.554     3105.923     2690.295      79.4429     158.6334     317.6139      1.451     3.13     884.6419     55.95125     327.6427        15     1.080     0.842 -49.02   0
        99     92.1670    887.9657 307.8737143  +6.3141515     2689.947      3816.33      3242.89      79.1903      158.507     317.1721      1.480     3.13     892.5701     55.95125     421.7773        20     1.248     0.913 -35.99   0
       100    560.4958    879.0190 307.6795698  +6.3335781     377042.6     518584.6     541738.8      79.4429     158.5702     317.2036      1.478     3.24     890.1833     55.95125     56086.14       177     1.567     1.257 -54.30   4
       101    339.8112    885.6674 307.7709741  +6.3234286     843.9611      997.947     1536.838      79.0637     158.6334     317.2668      1.382     5.44     892.8725     55.95125     157.3423         9     1.200     0.765  63.55   0
       102    648.3068    881.9769 307.6430103  +6.3352989     1404.732     1917.562     2173.102      79.5689     158.5702     317.2668      1.493     3.46     888.4184     55.95125     226.9267        14     1.094     0.855 -39.14   0
       103    404.7457    881.5726 307.7441517  +6.3272996     8687.541     11965.56     12741.19      79.3167     158.8227     317.2984      1.459     3.10     891.6382     55.95125     1239.345        29     1.320     0.935 -48.83   0
       104    347.9568    879.9576 307.7677847  +6.3260595      14058.9     19634.59     20816.41      79.3167     158.7596     317.2668      1.461     3.02     892.7106     55.95125     2207.958        42     1.436     1.028 -55.38   0
       105    898.7848    875.1614 307.5392361  +6.3464904     5625.287     8183.542     9448.732      79.3167     158.5702     317.2036      1.567     2.89      882.952     55.95125      817.669        29     1.232     1.095 -38.55   0
       106    666.3107    876.2595 307.6357270  +6.3382622     4081.047     5552.733     5476.941      79.4429     158.8227     317.5193      1.408     3.01     887.7798     55.95125     619.5506        21     1.203     0.872 -45.49   0
       107    737.6779    873.3527 307.6061919  +6.3418510     801.7776      1090.56     547.9106      79.4429     158.8227     317.3931      1.303     4.13      886.551     55.95125     147.8168         9     1.205     0.495 -48.85   0
       108    641.1832    870.3207 307.6463601  +6.3398726       3746.9     5078.871     5289.119      79.1903      158.507     317.3299      1.421     3.01     888.0496     55.95125     584.5232        22     1.217     0.869 -58.04   0
       109    829.6478    869.4698 307.5681345  +6.3465299     1760.915     2429.276     2836.169      79.5689     158.6965     317.4562      1.509     3.24     884.8272     55.95125      238.275        15     1.156     0.776 -41.60   0
       110    631.5698    869.2191 307.6503888  +6.3400055     1182.129     1593.722     2557.934      79.1903     158.5702     317.2984      1.404     2.78     888.1955     55.95125     184.5742        10     0.921     0.698 -47.26   3
       111    633.8592    864.9574 307.6495815  +6.3418417     2493.237     3574.933      4460.21      79.5689     158.7596     317.5193      1.508     3.07     887.9804     55.95125     418.3816        18     1.221     0.801 -49.77   2
       112    183.8401    870.2059 307.8362536  +6.3245689     643.0052     833.8359     866.7872     78.80988     158.4438     317.1405      1.363     3.42     892.6783     55.95125     110.7488         7     0.857     0.601  28.77   0
       113    956.6428    868.1586 307.5154467  +6.3513138     925.3227     1279.888     1375.926      79.3167     158.7596     317.2984      1.546     4.57     880.0599     55.95125     140.2769        12     1.173     0.874 -74.09   0
       114    917.5245    863.1055 307.5318592  +6.3520938     3589.375     5088.341     6034.599      79.4429     158.9488     317.4562      1.501     2.85     881.9256     55.95125     545.3364        26     1.319     1.033 -58.58   0
       115    327.8479    863.7330 307.7766811  +6.3320824      1167.86     1524.029     1343.484      79.5689     158.6965     317.4562      1.369     3.57     893.0851     55.95125     180.5034        11     1.109     0.640 -53.22   0
       116    375.7824    858.9705 307.7569393  +6.3356586     2969.377      3885.32     3904.085      79.1903     158.5702     317.3615      1.384     2.99     891.9648     55.95125     430.4571        19     1.110     0.880 -50.12   0
       117    512.1116    848.7574 307.7006783  +6.3444497     3485.479     4798.899      4619.78      79.5689     158.6334     317.4562      1.433     3.12     890.2178     55.95125     582.4723        21     1.223     0.891 -58.94   0
       118    856.6268    848.1838 307.5576465  +6.3562199     1103.405     1686.932     2103.149      79.1903     158.5702     317.3299      1.707     3.06     883.5013     55.95125     179.9521        10     0.968     0.674 -53.04   0
       119    577.5199    846.3174 307.6736018  +6.3476498     882.9911     789.1023     611.1155      79.5689     159.0118     317.4877      1.228     4.49     888.7482     55.95125     155.6416         8     1.120     0.532 -51.44   0
       120    558.9454    844.8493 307.6813637  +6.3476334     6801.907     9125.051     9756.709      79.5689     158.7596     317.4877      1.401     3.04     889.1058     55.95125     1070.159        23     1.231     0.868 -44.37   0
       121    565.6351    844.2350 307.6786067  +6.3481112     1489.864     1972.509     2408.515      79.3167      158.507     317.1721      1.395     3.19      888.929     55.95125     228.6136        12     1.020     0.734 -35.54   0
       122    476.5613    843.9798 307.7156003  +6.3452299     1812.478     2497.455     2554.103      79.1903     158.5702     317.1721      1.376     3.02     890.7692     55.95125     278.5745        12     1.069     0.687 -51.77   0
       123    270.8014    844.5407 307.8010146  +6.3380890     777.3321     1064.996     709.5768     78.93689     158.4438     317.1405      1.391     3.39     893.2498     55.95125     131.4545         8     0.956     0.590 -43.62   0
       124    894.4873    843.1150 307.5420957  +6.3595777     1528.354     2018.284     2075.459      79.3167     158.9488     317.4877      1.376     3.54       882.23     55.95125     225.2578        11     1.044     0.693 -49.16   0
       125    118.2184    843.1025 307.8644151  +6.3335500     1533.618     2050.967     1920.665      79.4429     158.6334     317.1721      1.412     3.21     892.3197     55.95125     238.9374        13     1.052     0.807 -69.67   0
       126    694.6472    841.9854 307.6251135  +6.3533613     763.8984     1090.724     940.6389     78.93689     158.5702     317.1721      1.418     2.70     886.3824     55.95125     145.3972         7     0.714     0.682 -68.38   0
       127    529.5891    838.7136 307.6937596  +6.3491825     22434.92     30260.83     31157.32      79.1903      158.507     317.2668      1.435     2.95     889.5101     55.95125     3277.545        42     1.327     1.004 -49.41   0
       128    371.3709    840.0603 307.7594087  +6.3433175     590.1589     1032.846      521.665      79.1903     158.7596     317.3931      1.529     4.53     891.6846     55.95125     111.5537         8     1.683     0.346 -43.18   0
       129    943.1725    837.0710 307.5220825  +6.3636991     4121.319     5766.618     5693.194      79.3167     158.6965     317.3615      1.471     3.07     880.1812     55.95125     611.2563        25     1.289     0.992 -52.98   0
       130    176.1947    838.2405 307.8405081  +6.3375084     628.3516     1056.128     723.4949     78.80988     158.4438     317.1405      1.459     3.33     892.6057     55.95125     102.6534         5     0.921     0.349 -46.87   0
       131     63.3708    834.9721 307.8874623  +6.3350597     662.1309     860.7964     821.2958      79.0637      158.507     317.2036      1.479     4.88     891.9958     55.95125     95.09003         7     1.120     0.602 -70.01   0
       132    697.3231    830.6867 307.6243823  +6.3581156     626.1649     954.9589     1033.262      79.5689     159.0748     317.5193      1.921     4.67     886.1232     55.95125     102.9516         7     1.277     0.484 -23.59   0
       133     40.0705    829.1335 307.8973339  +6.3366852     1779.003     2434.932     2312.682      79.5689     158.8227     317.4246      1.433     3.62     891.8838     55.95125      255.496        16     1.286     0.783 -61.28   0
       134    322.2588    827.2809 307.7802317  +6.3469439     3689.983     5112.067      5108.78      79.6947     158.8227     317.4246      1.456     3.35     892.4135     55.95125     588.2847        22     1.346     0.830 -54.75   0
       135    787.7660    823.2930 307.5870757  +6.3641943     62605.15     85304.42     88794.71      79.6947     158.6334     317.4877      1.453     2.83     884.5173     55.95125     9196.643        68     1.394     1.128 -54.96   0
       136    726.5590    825.2148 307.6124265  +6.3613533     822.3553     990.9916     1284.008      79.0637     158.5702     317.2036      1.275     3.49     885.5525     55.95125     140.7036         8     0.931     0.621 -72.59   0
       137     22.2523    825.4412 307.9048568  +6.3376092     2258.694     2953.806     3035.509      79.5689     158.8227     317.4246      1.394     3.21     891.8143     55.95125     334.6428        15     1.039     0.871 -40.34   0
       138    431.3145    822.0144 307.7351278  +6.3527802     1021.388     1428.935     1194.472      79.1903      158.507     317.2984      1.429     5.02     890.4908     55.95125     153.5984        11     1.297     0.636 -39.37   0
       139    245.0085    820.9421 307.8125207  +6.3469645     5677.262      8308.05     9994.812     78.93689     158.6965     317.1405      1.547     3.14     892.7384     55.95125     897.4779        32     1.388     1.035 -54.32   0
       140    998.7966    820.8509 307.4995288  +6.3722527     415.8512     718.2003     1373.975     78.93689      158.507     317.0141      2.304     5.46     876.4759     55.95125     76.17456         5     1.171     0.719  80.60   0
       141    913.0027    818.5408 307.5352318  +6.3703420     9274.072     13373.41     14280.79     78.93689     158.5702     317.1405      1.521     3.04     881.0887     55.95125     1305.539        32     1.309     1.071 -52.06   0
       142    715.9879    817.9441 307.6170604  +6.3640013     24052.65     33723.25     35639.88     78.93689     158.6965     317.1089      1.459     3.01     885.5651     55.95125     3851.514        48     1.389     1.109 -57.01   3
       143    709.7079    814.3796 307.6197879  +6.3652628     99956.74     135857.6     141931.7      79.4429     158.5702     317.2668      1.463     2.89     885.5699     55.95125      14673.2        81     1.441     1.144 -54.14   3
       144    354.5992    815.1967 307.7672112  +6.3530193     23017.42     32293.14     34046.07     78.93689     158.3173     317.1721      1.470     2.96     891.4373     55.95125     3404.899        49     1.401     1.083 -56.44   0
       145    403.8572    815.6797 307.7467421  +6.3544739     1646.446     2252.688     2287.732      79.5689     158.7596     317.4246      1.429     3.61     890.6387     55.95125     249.8718        13     1.163     0.718 -61.78   0
       146    643.4366    814.6249 307.6472978  +6.3629427     944.5933     1249.036     1439.808      79.1903     158.5702     317.1721      1.553     3.63     886.7631     55.95125     154.1962         6     0.945     0.402 -70.13   0
       147    416.4860    813.0683 307.7415864  +6.3559759     25399.46     34247.54     35373.85      79.6947     159.0118     317.4562      1.436     2.98     890.3925     55.95125     3736.383        43     1.371     1.000 -52.42   0
       148    244.5856    799.4519 307.8134220  +6.3558225     756989.1      1628677      1801631     78.93689     158.7596     317.1721      2.200     4.46     892.5115     55.95125     64170.48       594     2.458     2.082 -74.22   4
       149    882.4380    810.8060 307.5481832  +6.3725144     936.6484     1142.226     1135.004     78.68266      158.507     317.1721      1.372     3.39     881.7277     55.95125     140.8501         9     0.931     0.715  58.19   0
       150    650.5518    808.9661 307.6445337  +6.3655173     7481.878     9887.347     10140.96      79.3167     158.7596     317.3615      1.388     2.91     886.4769     55.95125     1151.773        25     1.212     0.916 -45.27   0
       151    390.7419    808.5196 307.7524293  +6.3569896     587.0498     596.8438     384.9488      79.5689     158.7596     317.3931      1.134     5.66     890.7299     55.95125     100.1625         8     1.149     0.790 -55.52   0
       152    439.1432    806.8993 307.7323866  +6.3592833     1745.001     2436.573     2572.363      79.3167     158.7596     317.6139      1.404     3.54     890.2522     55.95125     299.6081        14     1.288     0.677 -37.19   0
       153    164.6919    806.1083 307.8463699  +6.3503870      861.829       1011.9      553.662      79.5689     159.2636     317.4562      1.256     2.78     892.5147     55.95125     150.4935         7     0.727     0.660 -70.16   0
       154    738.1110    803.3120 307.6083658  +6.3707827     752.5008     1169.423     768.7559      79.3167     159.2636     317.5193      1.614     5.05     884.8989     55.95125     107.5379         8     1.016     0.763 -56.73   0
       155    603.4899    801.1402 307.6643388  +6.3671718     1104.032     1498.743     1723.661      79.4429     158.8227     317.5193      1.348     2.90     887.2068     55.95125       198.14        10     1.013     0.633 -51.04   0
       156    878.4346    800.9014 307.5501779  +6.3764699     777.1239     1100.202     1113.759      79.5689     158.6334     317.5824      1.430     3.69     881.5542     55.95125     118.0291         8     1.016     0.560 -66.42   0
       157    154.8370    799.8381 307.8506736  +6.3526440     1048.244     1357.704     1328.618      79.3167     158.6334     317.2984      1.337     2.88     892.3746     55.95125     179.7302        10     0.976     0.658 -79.53   0
       158    685.6617    799.1890 307.6302835  +6.3707295     2712.429     3521.066     3382.151      79.0637     158.5702     317.2036      1.356     2.88     885.5627     55.95125     406.7413        17     1.150     0.797 -51.48   0
       159    419.4294    795.7339 307.7409487  +6.3632313     60701.11     83777.02     87729.02      79.3167     158.7596     317.3615      1.482     2.95     890.0462     55.95125     9371.264        76     1.532     1.116 -50.84   0
       160    129.7876    799.6808 307.8610797  +6.3518659     1257.827     1571.397     1225.055      79.1903     158.4438     317.2668      1.388     3.94     892.0195     55.95125     161.6011        11     1.027     0.750 -51.53   0
       161    962.5026    797.6610 307.5153773  +6.3806156     691.7319     979.1198     608.6947      79.3167     158.7596     317.5193      1.552     4.23      878.185     55.95125     135.1815         5     0.970     0.525 -45.95   0
       162     71.8235    797.1577 307.8852319  +6.3509558     456.6242     635.2119     749.6977      79.1903     158.6334     317.2036      1.351     4.36     891.4922     55.95125     66.90796         5     0.851     0.637 -47.20   0
       163    537.1457    794.8110 307.6921003  +6.3675613      7886.91     10680.34     10744.97     78.93689     158.6965     317.1089      1.397     2.91     887.7757     55.95125     1287.952        27     1.261     0.923 -47.00   0
       164    454.0004    793.3635 307.7266737  +6.3653702     4828.348      6792.53     7119.647     78.68266     158.5702     317.2352      1.448     3.18      889.845     55.95125     731.9991        25     1.324     0.946 -58.28   0
       165    782.3984    791.4486 307.5903742  +6.3771622     12998.35     18015.85     18973.37     78.93689     158.3806     317.0141      1.467     2.87     883.6374     55.95125     1977.946        36     1.320     1.048 -44.11   0
       166    953.6519    812.1174 307.5185678  +6.3743515     2331.639     3364.386     3008.531      79.5689     158.7596     317.4877      1.502     2.81     878.9905     55.95125     340.7932        19     1.184     0.874 -50.87   0
       167    450.5621    786.8809 307.7283198  +6.3679311     2488.269     3289.717     3470.633      79.5689     158.8227     317.3615      1.408     2.96     889.6394     55.95125     383.6258        18     1.146     0.858 -47.20   0
       168     12.0419    787.2817 307.9103876  +6.3530189     1240.878     1704.404     1730.993      79.5689     158.7596     317.3615      1.575     4.42     891.3377     55.95125     175.3538        13     1.090     1.025  56.99   0
       169    804.1133    785.7673 307.5815480  +6.3802340     1404.793     1922.282     2032.227      79.5689     158.5702     317.4246      1.494     3.16     883.0626     55.95125     217.7961        13     1.083     0.745 -65.51   0
       170    140.1129    783.3011 307.8573463  +6.3589756     12838.93     18028.42     19818.11      79.5689     159.2007     317.4562      1.500     3.08     891.6345     55.95125     1898.057        40     1.356     1.103 -61.57   0
       171    148.3200    783.6413 307.8539270  +6.3591115     3232.113     4810.322     5398.094      79.5689     158.7596     317.3931      1.682     2.98     891.7502     55.95125     512.8779        24     1.288     0.948 -50.04   0
       172    927.8993    780.0406 307.5303375  +6.3867350     7020.215     9820.425     10107.63      79.5689     158.6334     317.6455      1.457     2.97     880.0107     55.95125     1062.774        27     1.223     1.001 -45.74   0
       173    132.1214    780.7455 307.8607508  +6.3597618      3106.41     4221.249     5181.542      79.6947     158.7596     317.4562      1.443     3.22     891.4931     55.95125      492.828        17     1.270     0.779 -45.67   0
       174    977.0286    780.0923 307.5099344  +6.3883541     1635.145     2333.119     2618.254      79.6947      158.507     317.3299      1.447     3.08     877.2482     55.95125     268.4999        12     1.014     0.754 -74.65   0
       175    909.9657    809.9915 307.5367797  +6.3737703     7412.388     10337.12     11633.29      79.0637     158.5702     317.2352      1.458     2.93     880.9618     55.95125     1151.995        26     1.256     0.959 -45.14   0
       176    683.5031    777.6346 307.6319046  +6.3795562     2041.209     2836.968     3166.749      79.5689     158.6334     317.5824      1.478     3.33     884.5134     55.95125     305.7223        15     1.103     0.820 -33.49   0
       177    570.1680    776.9333 307.6789901  +6.3760492     2676.645     3666.821     3907.243      79.4429     158.8227     317.3615      1.408     3.08     886.6359     55.95125     374.1614        17     1.182     0.778 -41.72   0
       178    417.9555    776.6055 307.7422055  +6.3710791     1208.766     1893.295     2759.086     78.93689     158.4438     317.0773      1.812     3.84     889.4922     55.95125     197.4346        13     1.214     0.763 -78.07   0
       179    132.3243    774.1801 307.8608885  +6.3624791     2189.917     3088.264     3656.099      79.1903      158.507     317.3615      1.612     3.64     891.2888     55.95125     281.8776        19     1.278     0.907 -71.10   0
       180    922.1046    772.1186 307.5330096  +6.3898122     3258.345     4720.008     4872.335      79.3167     159.0748     317.5193      1.489     3.08     880.0197     55.95125     524.0636        22     1.275     0.901 -57.07   0
       181    982.2770    771.4830 307.5080435  +6.3920837     2145.554     2968.134     2960.549      79.6947     159.0748     317.5508      1.532     3.59     876.9242     55.95125      284.118        17     1.220     0.859 -45.95   0
       182    951.5816    771.4467 307.5207914  +6.3910740     3399.288     4868.563     5221.824      79.0637     158.6965     317.2036      1.550     3.15     878.5898     55.95125     439.1989        19     1.225     0.902 -47.77   0
       183    674.5380    771.3482 307.6358387  +6.3818514     1811.513     2582.594     2900.643      79.5689     158.6965     317.3931      1.470     3.16     884.2693     55.95125     285.1486        15     1.153     0.835 -63.85   0
       184    434.5058    772.1956 307.7354819  +6.3734552     527.2702     662.9902     802.7532      79.3167     158.4438     317.1721      1.170     2.42     889.2198     55.95125     117.6232         5     0.717     0.464  70.06   0
       185    821.8486    769.5015 307.5747296  +6.3875425     1090.721     1253.794     1239.638      79.5689     158.6965     317.6139      1.170     3.25     882.0975     55.95125     166.9499         8     0.951     0.575 -43.04   0
       186    896.7698    767.2774 307.5436925  +6.3909647     823.5085     1107.686     1409.873      79.4429     158.8227     317.4246      1.545     3.34       880.42     55.95125     144.1438         9     0.951     0.697  48.91   0
       187    246.9775    766.0504 307.8135569  +6.3696927     2104.222     2943.269     3558.224      79.0637     158.8227     317.3299      1.470     3.11     891.1017     55.95125     302.0711        15     1.102     0.799 -59.28   0
       188    684.3083    763.5548 307.6320437  +6.3853961     790.1452     1190.426     1721.684      79.5689     158.6965     317.5508      1.656     5.50     883.7933     55.95125       135.83         9     1.335     0.638 -49.47   3
       189    685.7205    758.7554 307.6316186  +6.3874249     1206.783     1655.226     2399.002      79.5689     158.7596     317.4246      1.499     3.21     883.5125     55.95125     183.4675        10     1.065     0.666 -41.89   2
       190    940.1177    761.4032 307.5258888  +6.3948378     1094.869     1775.991     1540.252     78.93689     158.3806     317.1089      1.755     4.31     879.1393     55.95125     183.9146        10     1.119     0.704 -44.09   0
       191    267.5674    761.5812 307.8051583  +6.3722300     842.9408     1186.264     1607.877      79.0637     158.5702     317.2668      1.460     3.38     890.9327     55.95125     155.6935         7     0.936     0.611 -46.59   0
       192    162.6498    761.0368 307.8487411  +6.3689259     878.4592     1296.818     1059.454      79.3167     158.6334     317.2984      1.483     4.84     891.0605     55.95125     116.1906        10     1.018     0.729 -53.63   0
       193    966.3596    759.4781 307.5150560  +6.3965088      2751.05     3669.269       3995.4      79.4429     158.7596     317.4562      1.438     3.08     877.7274     55.95125     391.1897        19     1.218     0.854 -63.52   0
       194    913.7770    760.3580 307.5368622  +6.3943896     1349.054     1673.962     1551.349      79.1903     158.6334     317.2036      1.365     3.02     879.9831     55.95125     187.6943        12     0.995     0.757 -56.30   0
       195    477.1255    754.0454 307.7183962  +6.3823787     597.6134      607.381      470.768      79.4429     158.8227     317.4562      1.181     3.86     888.1695     55.95125     102.5626         6     0.940     0.454 -53.81   0
       196    406.6130    753.8532 307.7476825  +6.3800917     751.1301     669.2101     730.4668     78.93689     158.6965     317.1721      1.096     3.40     888.8725     55.95125     122.8239         8     0.907     0.725 -15.09   0
       197   1008.3566    752.6342 307.4978454  +6.4007362      1877.52     2432.819     2464.436      79.3167     158.7596     317.2668      1.385     3.54     875.4862     55.95125     304.4264        14     1.144     0.773 -34.98   0
       198    634.4506    752.4337 307.6531213  +6.3883180     874.9163     1187.342     1330.465      79.4429     158.8227     317.3299      1.452     3.65     884.1693     55.95125     153.7739         8     0.958     0.698 -57.57   0
       199    809.6263    751.0422 307.5804249  +6.3947551     1315.322     1807.777     1892.793      79.1903     158.6965     317.2668      1.448     3.41     881.7406     55.95125     221.8341        13     1.182     0.711 -40.51   0
       200    895.8077    748.5367 307.5447209  +6.3986699     1588.598      2255.76     2949.887     78.93689      158.507     317.2352      1.480     4.34     880.0876     55.95125     244.0116        16     1.284     0.980 -58.85   0
       201    870.5386    743.6933 307.5553769  +6.3998253      1074.63     1531.195     1654.672      79.4429     158.7596     317.4877      1.543     4.28     880.3618     55.95125     167.4556        11     1.224     0.795 -72.89   0
       202    852.6198    740.1153 307.5629381  +6.4007037     1648.147     2205.845      2378.88      79.1903     158.4438     317.3615      1.394     3.32     880.5738     55.95125      234.347        10     1.033     0.635 -49.49   0
       203    116.1237    738.6982 307.8688151  +6.3765821     958.8418     1639.273      2144.51      79.1903     159.0118     317.4562      1.950     6.70     890.2596     55.95125     115.5646        14     1.394     0.983 -38.94   2
       204    115.2358    735.6055 307.8692884  +6.3778291     892.5853     1365.261     1999.327     78.68266      158.507     317.2036      1.569     3.59     890.1932     55.95125     138.0079         7     0.891     0.636 -10.71   3
       205     51.9028    738.7124 307.8954806  +6.3744134     2798.662     3788.872     4135.451      79.5689     159.2007     317.4562      1.488     3.09     890.4009     55.95125     463.9968        19     1.205     0.856 -50.91   0
       206    464.2480    737.9108 307.7242873  +6.3886079     611.3662     947.4467     799.4975      79.5689     158.6334     317.5824      1.736     4.85      887.697     55.95125     87.13568         7     0.991     0.673 -77.86   0
       207    569.4200    733.5234 307.6807621  +6.3939463     667.2475     667.9093     288.0844      79.1903     158.4438     317.3615      1.456     3.80     885.2296     55.95125     108.2955         6     1.029     0.404 -18.11   0
       208    707.4813    730.6395 307.6235276  +6.3997613     505.0235     644.8798     764.4511      79.5689     158.8227     317.3615      1.294     3.37     882.0801     55.95125     92.38525         5     1.074     0.307 -21.05   0
       209    664.5314    727.2952 307.6414756  +6.3997041     7161.072     9575.833     9594.623      79.4429     158.8858     317.4562      1.391     2.81     882.5129     55.95125     1043.434        30     1.311     0.947 -47.15   0
       210    522.0623    727.1578 307.7006420  +6.3949866     820.5483     1200.776     1005.306      79.5689     158.6965     317.5193      1.639     4.54     886.2763     55.95125     133.1582         8     1.015     0.578 -65.87   0
       211    611.3244    726.2753 307.6636048  +6.3983430     1444.533     2299.852     2457.435      79.8203     159.0118     317.5193      1.725     4.11     883.6165     55.95125     252.3712        16     1.301     0.947 -62.27   0
       212    533.2172    727.0432 307.6960137  +6.3954080     709.8975     738.8624     434.8813      79.0637     158.6334     317.2036      1.342     4.61     886.0455     55.95125     113.3597         8     1.085     0.555 -62.89   0
       213   1001.5114    722.6500 307.5016931  +6.4128873     2927.883     4038.097     4545.994      79.5689     158.5702     317.5508      1.535     3.07     875.4429     55.95125     401.4969        18     1.145     0.894 -52.27   0
       214    638.3931    722.9753 307.6524753  +6.4006122     2372.232     3358.667     3308.865      79.0637     158.6334     317.2668      1.494     3.21     882.9845     55.95125     349.8276        17     1.190     0.835 -55.28   0
       215    313.9167    723.4570 307.7871994  +6.3895274     843.8426     1137.054     1017.277      79.5689     158.7596     317.5193      1.449     3.22     888.8411     55.95125     122.9662         7     0.855     0.597 -76.19   0
       216    127.5329    723.0316 307.8646074  +6.3834341     4114.315     5735.699     5790.821      79.4429     158.7596     317.3931      1.465     3.24     889.9373     55.95125     581.6799        22     1.261     0.902 -51.20   0
       217    250.0152    722.6637 307.8137608  +6.3877069     810.6354     965.3194     886.2428      79.0637     158.6334     317.2984      1.174     2.43     889.4097     55.95125     166.7781         7     0.708     0.653  67.00   0
       218    781.3822    719.4014 307.5932166  +6.4068738     22689.15     30733.38     32094.71      79.1903     158.3173     317.1405      1.447     2.86     881.2483     55.95125     3370.494        43     1.333     1.049 -54.88   0
       219    911.3818    719.1890 307.5392382  +6.4113069     4101.048     5947.588     6110.393      79.1903     158.4438     317.3299      1.517     2.88     879.1949     55.95125     619.7518        27     1.337     0.967 -44.52   0
       220    480.4126    719.5989 307.7181920  +6.3967104     1496.537     2046.656     2129.323      79.1903     158.4438     317.2036      1.459     3.77     886.9564     55.95125     209.7422        14     1.160     0.811 -41.89   0
       221    325.8181    719.3348 307.7823965  +6.3916291     827.4199     1232.495     745.9858      79.1903     158.7596     317.3299      1.502     4.94     888.4458     55.95125     116.8671         8     1.048     0.660 -53.20   0
       222    508.7939    719.2922 307.7064168  +6.3977890     944.2556     1126.106     1228.009      79.1903     158.4438     317.2352      1.236     3.57     886.3052     55.95125     170.8964         7     0.922     0.524 -30.33   0
       223    283.2958    719.1575 307.8000596  +6.3902733     626.0792     890.8173     526.8561      79.5689     158.6965     317.5508      1.401     4.63     889.2803     55.95125     106.3093         8     1.093     0.557 -31.39   0
       224    661.9818    712.1877 307.6430426  +6.4058560     7950.319     11063.11      11593.3      79.3167     158.4438     317.3299      1.427     3.07     882.2911     55.95125     1213.107        31     1.283     0.997 -58.39   0
       225    644.2593    713.3406 307.6503634  +6.4047865     1032.536     1444.086     1697.949      79.5689     158.7596     317.4562      1.620     3.82     882.6383     55.95125     140.7154        11     1.071     0.763 -63.55   0
       226    254.8743    712.9658 307.8120706  +6.3918741     6872.301     9500.219     9472.837      79.4429     158.7596     317.3931      1.446     3.17     889.0863     55.95125     1030.192        25     1.289     0.903 -48.95   0
       227    356.8650    712.2075 307.7697448  +6.3956147     805.2885     940.5438     799.2797      79.0637      158.507     317.2668      1.337     3.64     887.6304     55.95125     145.2272        10     1.056     0.686 -70.60   0
       228    921.9921    704.6775 307.5353188  +6.4176526     1381.005     1814.338     1630.748      79.1903      158.254     317.2352      1.370     3.72     878.5527     55.95125     219.8489        12     0.975     0.905 -13.94   0
       229    733.6825    700.7200 307.6136528  +6.4129908     4061.405      5883.95     6453.377      79.5689     159.0118     317.4877      1.535     2.94     881.3479     55.95125     587.5298        24     1.202     1.033 -70.79   0
       230    999.9244    697.3217 307.5032013  +6.4232916     9918.295     13532.73     14413.65      79.8203     159.0118     317.5193      1.423     2.81      874.892     55.95125      1489.88        29     1.266     0.964 -46.93   0
       231    938.4007    697.7112 307.5287383  +6.4210767     2667.706     3726.714     3854.388     78.80988      158.254     317.1089      1.466     2.88     877.7335     55.95125     419.7831        18     1.154     0.860 -56.66   0
       232    988.7229    697.4291 307.5078496  +6.4228733     555.6613     696.3459     906.7662      79.4429     158.8227     317.4562      1.584     4.35     875.3906     55.95125      78.6994         7     1.391     0.387 -80.31   0
       233    688.6625    700.8829 307.6323430  +6.4114167     1214.256     1822.766     2243.966      79.6947     158.7596     317.3615      1.646     4.31     881.7607     55.95125     208.1837        11     1.239     0.630 -32.37   0
       234     19.2900    696.9285 307.9104365  +6.3905646     2172.764     2921.438     3313.131      79.4429     159.0118     317.4246      1.427     2.90     890.4471     55.95125     344.2475        16     1.155     0.791 -56.41   0
       235    435.9230    695.4824 307.7374795  +6.4051742     705.2788     812.3234     826.6149      79.6947     159.0118     317.5508      1.489     5.54     886.8633     55.95125     95.83167         9     1.195     0.724 -84.39   0
       236    552.2607    695.3943 307.6891715  +6.4091130     647.7076     959.2529     764.1369     78.93689     158.6334     317.2036      1.283     3.77     884.4918     55.95125     123.3614         5     0.888     0.459  47.28   0
       237     77.2635    691.9340 307.8865328  +6.3945798     28320.26     39829.99     41658.14      79.5689     158.7596     317.4246      1.487     3.07     889.9507     55.95125     4281.611        53     1.400     1.131 -57.25   0
       238    538.5540    693.0127 307.6949437  +6.4096367     2319.096     3143.581     3052.627     78.93689     158.5702     317.2036      1.387     2.97     884.7838     55.95125     353.6862        15     1.067     0.815 -52.19   0
       239    928.4005    689.6097 307.5331630  +6.4240876     1182.319     1651.966     1745.752     78.93689     158.4438     317.1721      1.460     3.50     877.9158     55.95125     171.8545        12     1.147     0.719 -50.01   0
       240    507.4193    690.1288 307.7079701  +6.4097832     1536.884     2182.718     2144.614      79.1903     158.6334     317.3615      1.442     3.22     885.4706     55.95125     235.4267        15     1.178     0.798 -53.87   0
       241    547.6969    686.5514 307.6913645  +6.4126108     1255.001     1721.615       1449.1      79.4429     158.6965     317.5824      1.415     3.36      884.344     55.95125     188.2066        13     1.018     0.851 -12.81   0
       242    723.2497    684.3797 307.6185346  +6.4193880     4109.616     5411.592     5594.127      79.0637     158.8227     317.2984      1.375     2.99     881.1797     55.95125     604.3172        20     1.218     0.823 -54.62   0
       243    745.2560    682.5976 307.6094557  +6.4208602     4747.077     6411.305     6251.286     78.93689      158.507     317.1089      1.403     2.82     880.9594     55.95125     720.7603        22     1.227     0.887 -56.17   0
       244    576.7462    680.4505 307.6795065  +6.4161034     3628.549      4951.76     5115.312      79.6947     158.7596     317.4562      1.451     3.07     883.2521     55.95125      525.089        23     1.244     0.924 -56.83   0
       245    412.7317    680.9349 307.7476005  +6.4104017     1596.095     2034.297     1789.957      79.5689     158.8227     317.4562      1.451     3.43     886.7191     55.95125     219.6682        14     1.010     0.904 -35.69   0
       246   1018.2547    678.7637 307.4962110  +6.4315653     5656.763      7945.66     8239.899      79.4429     158.7596     307.7787      1.485     2.95     873.6623     55.95125     870.5933        29     1.341     1.045 -40.53  16
       247    983.6411    677.6838 307.5106221  +6.4308559     8988.587     12617.02     12918.56      79.5689     158.6965     317.3299      1.523     2.87     875.1125     55.95125     1341.373        34     1.343     1.063 -62.53   0
       248    320.8465    679.3641 307.7858100  +6.4079640     1579.818     2163.954     1910.427      79.1903     158.7596     317.3299      1.471     3.73     887.3253     55.95125     246.8079        16     1.231     0.850 -50.17   0
       249    237.3709    679.9312 307.8204546  +6.4049237     1946.668     2949.646     2755.137      79.3167     158.7596     317.3615      1.545     3.36      888.019     55.95125     283.7249        15     1.201     0.792 -51.00   0
       250    703.4613    676.5391 307.6270160  +6.4219627     1254.522     1582.344     1210.147      79.5689     158.7596     317.4562      1.502     3.58     881.2428     55.95125      207.995        13     1.212     0.774 -77.80   0
       251     94.8618    674.2723 307.8798228  +6.4024640     1075.596     1575.261     1604.265      79.6947     158.7596     317.4877      1.507     4.76     889.6308     55.95125     142.6811        10     1.113     0.681 -53.78   0
       252    810.3883    671.6380 307.5827754  +6.4275637     1393.891     1831.163     1770.537      79.0637     158.5702     317.1089      1.330     2.95     880.1301     55.95125     245.5106        13     1.048     0.799 -43.68   0
       253    428.9386    671.6883 307.7411821  +6.4147632     3299.143     4656.093     5027.943      79.5689     158.9488     317.4877      1.478     3.14     886.3116     55.95125      509.598        21     1.441     0.812 -52.60   0
       254    142.0446    670.8535 307.8603458  +6.4054641     26699.03     37397.92     39074.85      79.5689     158.7596     317.4246      1.476     3.06     888.6539     55.95125     4103.905        50     1.447     1.064 -56.18   0
       255    361.9814    666.0140 307.7691786  +6.4148576     1119.028      1531.52     1450.561      79.1903     158.3806     317.3299      1.397     4.58     886.3923     55.95125     415.9672        10     1.077     0.554 -13.34   0
       256    978.5150    660.5821 307.5133244  +6.4377455      7532.01     11152.61      11851.1      79.1903      158.507     317.3615      1.620     3.00     874.8823     55.95125     1036.396        35     1.290     1.218 -43.59   0
       257    572.0467    655.7877 307.6822885  +6.4261282     53351.03     73800.29     76567.79     78.93689     158.5702     317.1405      1.444     3.10     882.6585     55.95125     8346.956        63     1.426     1.084 -52.69   0
       258    531.2291    656.4438 307.6992172  +6.4244888      760.437     1089.316      925.124      79.1903     158.8227     317.3299      1.577     5.67     883.6931     55.95125     143.3026        10     1.326     0.683 -68.90   0
       259    215.2484    657.1165 307.8304119  +6.4135987     899.7179     1273.157     1751.422      79.5689     158.7596     317.4562      1.484     4.36     887.5481     55.95125     126.5719        10     1.126     0.607 -48.28   0
       260    936.6011    657.5100 307.5308342  +6.4376144     663.3885     746.1924     835.1317     78.80988     158.3173     317.1721      1.177     3.88     876.4639     55.95125     113.7064         6     1.040     0.482  -8.35   0
       261    796.9607    655.2450 307.5889025  +6.4338827     668.3871     998.0633     686.2839      79.3167     158.7596     317.3299      1.375     3.83     880.0153     55.95125     101.0352         6     0.937     0.448 -37.03   0
       262    179.6086    652.3229 307.8453736  +6.4143786     2900.631     4345.885     4389.283      79.1903      158.254     317.2668      1.619     3.26     887.8434     55.95125     409.5221        22     1.284     0.962 -57.54   0
       263    501.7477    652.7823 307.7115836  +6.4250117      682.479     1013.413     806.0168      79.0637     158.8227     317.1721      1.690     4.45     884.4046     55.95125     105.6233         7     1.014     0.639 -69.48   0
       264     23.1210    659.7249 307.9101050  +6.4060528     1470.355     2104.351     1942.297      79.8203     159.0118     317.5193      1.497     2.87     890.3896     55.95125     216.7372        13     1.028     0.782 -67.58   0
       265     72.2121    646.6175 307.8901636  +6.4131181     1634.319     2290.147     2100.261      79.3167     158.4438     317.3299      1.443     3.92     889.4752     55.95125     221.1332        15     1.296     0.764 -53.49   0
       266      7.9686    644.1933 307.9169228  +6.4119541     517.7955     714.8773     883.9121     78.93689     158.6334     315.5889      1.416     3.81     890.6878     55.95125     72.98163         5     0.813     0.513  56.85   0
       267    469.3381    639.5708 307.7254878  +6.4293789     69897.32     95603.81     99235.73      79.3167     158.7596     317.3931      1.474     2.98     884.8581     55.95125     10609.07        69     1.427     1.111 -51.29   0
       268     12.9726    641.0461 307.9149515  +6.4134221     1954.845     2720.516      2928.01      79.0637     158.8227     317.3299      1.514     3.69     890.5995     55.95125     259.7249        17     1.262     0.843 -45.04   0
       269    655.1285    636.7545 307.6484262  +6.4367699     910.3762     1160.662     635.3766      79.5689     158.7596     317.4246      1.264     3.61     881.1166     55.95125     130.6617         9     0.980     0.642 -28.56   0
       270    143.5141    634.7178 307.8609575  +6.4204319     1919.604     2498.174     2244.494      79.3167     159.0118     317.5193      1.487     3.53     888.0965     55.95125     246.2543        15     1.167     0.795 -51.47   0
       271    939.1007    632.8116 307.5306247  +6.4478950     785.4405     987.1403     912.0837      79.3167      158.507     317.2036      1.391     2.26     875.5168     55.95125     158.5101         6     0.742     0.525 -43.21   0
       272    615.4089    631.4332 307.6651005  +6.4376363     1024.033     1240.631     1250.479      79.0637     158.5702     317.2668      1.303     4.01     881.2681     55.95125     160.8185         8     0.886     0.722 -20.39   0
       273    422.9514    632.3871 307.7449936  +6.4307879     926.6412     1164.661     1524.692     78.93689     158.6965     317.1405      1.321     3.46     885.7778     55.95125     171.3579         8     1.026     0.531 -25.38   0
       274    496.9237    630.6446 307.7143328  +6.4339896     548.4108     681.2562     744.9365      79.4429     158.8227     317.4562      1.381     5.16     883.8074     55.95125     104.0989         6     0.960     0.783  72.62   0
       275    963.2778    629.5593 307.5206929  +6.4500451     584.8585     1021.574     455.6308      79.4429     158.7596     317.4562      1.740     4.56     874.6119     55.95125     112.1291         5     0.796     0.742  71.31   0
       276    314.8204    628.7731 307.7900201  +6.4286480     2140.581      3253.58     3388.476      79.0637     158.5702     317.3299      1.597     3.44     886.2476     55.95125     307.7461        20     1.206     1.004 -37.78   0
       277     15.7064    630.0992 307.9141869  +6.4180336      750.728     934.5399     1547.848      79.5689     159.2636     317.2984      1.353     4.29     890.5641     55.95125     119.4333         7     0.744     0.706 -21.56   0
       278    466.9117    627.0142 307.7269187  +6.4344815      1045.58     1541.553     2152.255      79.3167     158.5702     317.2984      1.495     4.71     884.5406     55.95125     159.7558        13     1.197     0.818 -51.44   0
       279    741.3414    623.2375 307.6130767  +6.4452367     5848.096     7756.007     8119.903      79.5689     158.8227     317.4562      1.387     2.89     880.1047     55.95125     957.0636        23     1.212     0.888 -54.61   0
       280    794.9404    618.4221 307.5909786  +6.4490179      15646.7     21088.54     21796.92      79.1903     158.6965     317.2984      1.418     2.94     879.5671     55.95125     2419.558        41     1.329     1.039 -53.92   0
       281   1012.2448    619.0847 307.5007075  +6.4560042     961.1761      1326.91      1009.24      79.5689     158.6965     317.4246      1.486     3.84     872.7712     55.95125     129.1718         9     0.922     0.673 -26.60   0
       282    537.2756    618.3743 307.6979884  +6.4404088     1426.865     2201.861     2695.706      79.1903     158.6334     317.3931      1.844     3.39     882.0863     55.95125     206.3154        13     1.137     0.750 -53.10   2
       283     39.8747    617.7571 307.9045686  +6.4239434     797.6821     1190.002     1440.344      79.4429     158.8227     317.4562      1.550     4.05      889.927     55.95125      112.215         9     1.102     0.587  -6.99   0
       284    618.8376    616.3611 307.6641839  +6.4439738     3223.869     4382.277     4384.854      79.3167     158.6334     317.2984      1.417     3.08     880.9752     55.95125      479.293        20     1.165     0.917 -53.29   0
       285    935.9628    612.5839 307.5326066  +6.4561415     1343.129     1808.507     2419.394      79.1903     158.5702     317.1721      1.414     3.34     874.9113     55.95125     187.2307        12     1.106     0.683 -39.58   0
       286    377.2293    610.2311 307.7647285  +6.4383997     844.3459     1196.176     1124.543      79.0637      158.507     317.1721      1.457     4.72     885.6266     55.95125     162.1817        10     1.169     0.588 -43.82   0
       287    361.3570    610.2151 307.7713206  +6.4378733     527.6822     703.2946     1026.941     78.93689      158.507     317.1721      1.343     4.79     885.6266     55.95125     91.54541         7     1.054     0.616 -70.89   0
       288    231.1514    610.2891 307.8253900  +6.4334661     1412.069     1955.751     2588.259      79.5689     158.6334     317.5193      1.578     3.28      886.371     55.95125     213.5793        15     1.175     0.813 -29.02   0
       289    871.0550    601.6458 307.5599308  +6.4584890     3247.302     4393.041     4076.795      79.5689     158.7596     317.4246      1.404     2.81      876.861     55.95125     526.7462        19     1.095     0.919 -54.56   0
       290    166.0671    601.2757 307.8527226  +6.4349974     716.3656     1070.583     1311.371      79.6947     158.8858     317.3931      1.623     4.37     887.2678     55.95125     123.1846         7     1.176     0.595 -46.96   0
       291    829.7326    599.1274 307.5771772  +6.4581474     2951.416     3911.146     3766.219      79.6947     158.8858     317.4246      1.379     2.92     878.0443     55.95125      407.486        17     1.139     0.814 -48.68   0
       292    257.6895    594.0406 307.8149182  +6.4410667     8665.104     12188.91     12509.22      79.5689     158.7596     317.4562      1.486     2.99     885.6118     55.95125     1320.441        35     1.393     1.008 -61.09   0
       293    800.6523    595.0557 307.5893915  +6.4588561     2669.493     3708.235     4298.396      79.5689     158.7596     317.3931      1.476     2.82      878.753     55.95125     437.1716        19     1.254     0.854 -44.58   2
       294    810.3120    590.2759 307.5855402  +6.4611525     179078.7     241270.7     251654.1      79.5689     159.0748     317.5193      1.437     2.96     878.2551     55.95125     27164.05       119     1.485     1.192 -54.75   2
       295    743.5449    595.6102 307.6130903  +6.4567167     670.6375     888.3104     1053.284     78.93689     158.6965     317.1089      1.449     4.06     879.4786     55.95125     118.7206         5     0.960     0.506 -43.76   0
       296    191.9062    588.4656 307.8424252  +6.4411556      64466.6     91073.84     96281.48      79.5689     158.9488     317.4562      1.522     3.12      886.396     55.95125     9001.762        78     1.516     1.191 -57.98   0
       297    740.1689    590.8463 307.6146525  +6.4585706     754.9992     1029.845     858.1161      79.1903     158.7596     317.3299      1.353     4.50     879.3801     55.95125     114.1404         8     1.091     0.529 -32.15   0
       298    115.9123    584.7505 307.8741094  +6.4401313     6921.794     9632.454      10292.4      79.5689     158.5702     317.5193      1.489     3.04     887.4085     55.95125     982.1263        27     1.272     0.966 -58.40   0
       299    981.2202    581.9920 307.5148365  +6.4702831     1504.425     1934.262     1823.819      79.1903      158.507     317.2352      1.390     2.77      873.006     55.95125      237.723        12     0.940     0.776 -70.68   0
       300   1002.0215    580.9699 307.5062314  +6.4713994      820.035     1172.864     936.1862      79.0637     158.5702     317.2984      1.379     4.06     872.4827     55.95125     122.5826         7     0.952     0.494 -44.26   0
       301    230.3228    580.1928 307.8267509  +6.4458634     812.5017     1093.325     1713.978      79.1903      158.254     317.2352      1.351     3.05     885.4185     55.95125     123.1555         7     0.849     0.564 -57.84   0
       302    846.8679    577.5936 307.5707838  +6.4676108     5079.433     6854.081     6646.417      79.0637     158.4438     317.2352      1.424     2.96     876.6881     55.95125     701.4302        23     1.195     0.911 -50.00   0
       303    455.3698    575.9256 307.7334341  +6.4551863     709.6396     977.1431     1277.692      79.4429     158.7596     317.4246      1.527     4.61     883.0637     55.95125     130.1619         8     0.977     0.618 -73.85   0
       304    167.0816    574.4492 307.8532082  +6.4461068     2207.295     3156.207     4187.048      79.5689     158.7596     317.4562      1.963     3.27     886.5308     55.95125     278.3505        18     1.152     0.916 -46.91   0
       305    800.8315    570.9289 307.5901276  +6.4688231     6679.401     9242.647     9816.979      79.4429     158.7596     317.3931      1.415     2.84     877.6374     55.95125     1049.218        29     1.308     0.931 -51.65   0
       306    104.6744    571.8456 307.8792128  +6.4450805     1024.691     1415.959      1321.94      79.4429     158.8227     317.4562      1.459     3.97     887.2246     55.95125      137.704        11     1.068     0.725 -60.00   0
       307    531.6321    570.6024 307.7019414  +6.4599425     7137.737     9977.487     10440.18     78.80988     158.5702     317.2036      1.467     2.98     881.2064     55.95125     1013.068        28     1.299     0.953 -49.88   0
       308    242.0725    572.4039 307.8221346  +6.4494742      1005.44     1613.482     2316.365      79.0637     158.3173     317.2668      2.084     6.26     885.0203     55.95125     150.9551        14     1.385     0.894 -32.82   0
       309    389.8632    567.0070 307.7609400  +6.4566692     1541.966     2227.861     2257.406     78.93689      158.507     317.2036      1.476     3.18      884.009     55.95125     242.6038        13     1.079     0.738 -59.81   0
       310    178.6163    563.7126 307.8487810  +6.4509275     7303.077     10563.76     11651.23      79.3167      158.507     317.2984      1.568     3.18     885.9957     55.95125     1057.781        33     1.423     1.029 -55.44   0
       311    817.3649    563.4076 307.5835136  +6.4724813     1653.632     1974.256     2447.839      79.0637     158.5702     317.2036      1.313     3.41      876.858     55.95125     270.8182        14     1.200     0.712 -49.46   0
       312    576.3406    563.6809 307.6836066  +6.4642990     2575.483      4036.82     4453.877      79.6947     158.7596     317.4246      1.713     4.03     880.2471     55.95125     355.5688        21     1.448     0.857 -37.01   0
       313    494.0256    565.0782 307.7177458  +6.4609618     487.7737     555.0047     215.1953      79.3167     158.6965     317.3931      1.258     4.02     881.6198     55.95125     101.6339         5     1.343     0.344 -31.40   0
       314     50.2631    562.3867 307.9021288  +6.4471526     5325.979     7826.638     8053.738      79.0637     158.5702     317.2352      1.572     3.13     889.2966     55.95125      724.124        30     1.334     1.082 -69.16   0
       315    273.9273    560.1365 307.8093199  +6.4556099     93974.62       133738     139914.1      79.5689     158.7596     317.4562      1.501     3.04     884.2034     55.95125     13898.75        87     1.496     1.192 -54.49   0
       316    365.3392    575.6823 307.7708321  +6.4522639     18954.98     26204.68     26878.56      79.6947     158.7596     317.4562      1.491     3.02     884.4435     55.95125     2766.087        39     1.348     1.036 -49.55   0
       317    563.1712    557.6938 307.6892776  +6.4663294     968.9365     1285.946     1440.386      79.6947      158.507     317.3299      1.335     3.87     880.4166     55.95125     144.1777         8     0.915     0.611 -21.00   0
       318    797.0788    552.6712 307.5922997  +6.4762355     18046.47     24198.09     25450.87      79.8203     159.0118     317.3931      1.405     2.97     876.8969     55.95125     2805.355        38     1.337     0.986 -55.59   0
       319    257.6595    555.1829 307.8162432  +6.4571080     1603.646     2084.454     2138.509      79.1903     158.6965     317.1721      1.338     3.21     884.2334     55.95125     259.5172        13     1.144     0.708 -56.28   0
       320    973.3892    554.0334 307.5190266  +6.4815648     1731.313     2520.338      2409.89      79.0637     158.5702     317.2668      1.411     3.20     872.6756     55.95125     310.5067        18     1.312     0.809 -47.57   0
       321    500.6787    551.0067 307.7154569  +6.4669945      43388.8     66746.05      70922.8      79.1903      158.254     317.2036      1.657     3.19     881.0736     55.95125     6126.763        75     1.560     1.327 -36.65   0
       322    650.9957    549.7703 307.6530692  +6.4725437     999.4217      1661.02     2182.441      79.0637     158.5702     317.2352      1.835     4.79     878.9251     55.95125      139.957        10     1.252     0.576 -52.99   0
       323     48.8472    547.7886 307.9032109  +6.4531315     1281.814     1773.476     1837.718      79.0637     158.6334     317.1089      1.484     3.47     889.2653     55.95125     202.2074        13     1.092     0.882 -66.40   0
       324    213.4330    547.1689 307.8348810  +6.4589290     2080.952     3436.957     4209.218      79.0637      158.507     317.1405      1.793     4.25     884.7106     55.95125     293.3572        20     1.441     0.954 -39.13   0
       325    722.7150    545.3806 307.6234301  +6.4767574     1339.774     1810.849     2068.727      79.1903      158.507     317.3615      1.427     3.57     878.2333     55.95125     204.9528        13     1.069     0.851  81.14   0
       326    670.7590    546.0565 307.6449860  +6.4747389     1571.273     1831.909     1935.648      79.4429     158.7596     317.4562      1.246     3.15     878.7011     55.95125     245.8751        11     1.083     0.623 -50.91   0
       327    660.6757    546.0777 307.6491731  +6.4743924      3299.87     4385.068     4562.336      79.8203     159.0118     317.4877      1.373     2.85     878.7517     55.95125     502.9458        20     1.266     0.841 -46.52   0
       328     99.3947    547.4131 307.8822320  +6.4549894      638.462     1130.842     1007.999      79.1903      158.507     317.2984      1.694     3.41     886.7285     55.95125     80.35211         5     1.053     0.320 -21.92   0
       329    398.3777    541.8000 307.7582542  +6.4673619     1816.663     2693.911     2416.839      79.0637     158.3806     317.1089      1.553     3.19      882.971     55.95125     313.4989        16     1.181     0.824 -66.04   0
       330     79.7801    543.5975 307.8905067  +6.4559040     746.5931     1253.307      1462.56      79.1903     158.3806     317.1721      1.536     2.52     887.5871     55.95125     138.8502         5     0.721     0.439  22.43   0
       331    329.8818    539.9249 307.7867644  +6.4658351     4238.031     5867.862     6256.753      79.8203     159.0118     317.4877      1.449     3.02     883.1885     55.95125     637.1342        23     1.253     0.923 -56.04   0
       332    145.0379    538.4753 307.8635791  +6.4602163     27908.15     39663.33     41436.89      79.4429     158.8227     317.4562      1.516     3.08     886.0583     55.95125       3974.6        50     1.424     1.097 -53.77   0
       333    872.9655    538.7183 307.5612501  +6.4845333     1787.092      2251.48     2484.481      79.5689     158.7596     317.3931      1.349     2.99     874.6012     55.95125     307.7054        15     1.095     0.823 -58.33   0
       334    509.7752    539.5140 307.7120663  +6.4720444     2334.446      3241.74     3213.815      79.5689     158.5702     317.2352      1.433     3.04     880.6528     55.95125     352.7179        17     1.247     0.793 -37.87   0
       335    110.2202    536.7054 307.8780985  +6.4597746     2994.282     4300.864     4806.014      79.4429     158.5702     317.2668      1.529     3.25     886.4444     55.95125     448.8447        19     1.232     0.879 -54.50   0
       336    347.0446    535.1064 307.7797991  +6.4684011     1136.204     1520.414     1808.705      79.4429     158.6965     317.5508      1.511     3.71     882.9372     55.95125     149.5093        11     0.985     0.776 -41.27   0
       337    970.6639    533.1512 307.5208590  +6.4900953      5833.76     7662.675     7263.492      79.4429     158.6334     317.4877      1.368     2.88       872.17     55.95125     843.7627        22     1.177     0.885 -47.63   0
       338     44.3201    531.0957 307.9056560  +6.4598704     529.9416     502.8909     221.6752      79.3167     159.0118     317.5193      1.154     4.52     889.0303     55.95125     84.37177         6     0.988     0.587  27.27   0
       339    543.6852    525.6448 307.6984500  +6.4789077     1756.153     2342.854     2752.196      79.5689     158.6965     317.4246      1.403     2.85     880.0205     55.95125     279.3834        13     1.050     0.735 -39.24   0
       340      9.2793    522.8384 307.9204876  +6.4620983     26835.67     38482.36     39852.72      79.4429     158.8227     317.4246      1.528     3.11     890.3204     55.95125     3989.776        55     1.441     1.143 -59.77  16
       341    650.0206    519.4384 307.6544949  +6.4850338     13243.44     17965.62     18997.35      79.1903      158.507     317.1721      1.433     2.93     878.3437     55.95125     1944.436        35     1.330     0.975 -55.94   0
       342    442.0291    519.6780 307.7408712  +6.4779605     46098.05      64777.7      67797.4      79.4429     158.8227     317.4562      1.485     3.03     881.1167     55.95125     6892.571        61     1.449     1.112 -52.94   0
       343    290.2849    520.0247 307.8038812  +6.4727200      1134.11     1690.022      1255.47      79.5689      158.507     317.2668      1.583     3.95      882.285     55.95125     162.7698        13     1.214     0.742 -41.34   0
       344    207.2040    517.2074 307.8384805  +6.4710889      19900.7     30472.42     31485.92     78.93689     158.4438     317.2984      1.630     3.17     884.3552     55.95125     2526.862        52     1.433     1.252 -71.06   0
       345    172.7395    518.3530 307.8527551  +6.4694562     1801.952     2397.458     2049.535      79.4429     158.7596     317.4877      1.426     3.31      885.423     55.95125     248.7849        16     1.165     0.846 -56.11   0
       346    984.1622    517.8071 307.5157672  +6.4968810     1398.285     1793.385     2342.376     78.80988      158.507     317.1721      1.400     3.09     871.4807     55.95125     217.1554        11     0.949     0.743 -39.90   0
       347    912.7553    517.5904 307.5454330  +6.4945858      725.759      792.944     1249.566      79.0637     158.6334     317.1405      1.497     3.88     872.8845     55.95125     133.6279         6     1.029     0.418 -59.05   0
       348    824.0936    517.4163 307.5822639  +6.4916944      1088.13     1381.848     1281.051      79.3167     158.5702     317.2668      1.305     3.55     875.1675     55.95125     217.1317        10     1.102     0.604 -65.40   0
       349    571.8917    516.1447 307.6870551  +6.4837756     2989.148     3870.519     3675.394      79.4429     158.6334     317.5508      1.367     2.98     879.2932     55.95125     436.1128        19     1.224     0.829 -50.77   0
       350    945.7681    513.3900 307.5318622  +6.4974227     5243.722     6989.053     6784.835      79.0637      158.507     317.2668      1.387     2.85     871.9724     55.95125     849.3481        24     1.231     0.887 -50.89   0
       351    618.9236    511.8206 307.6676669  +6.4871371     7000.312     9857.005     10214.93      79.1903      158.507     317.3615      1.467     3.03     878.6101     55.95125     1044.665        30     1.321     0.972 -47.05   0
       352    106.6428    512.2367 307.8804120  +6.4697558     1355.675      1758.91     1700.908      79.3167     158.6965     317.2984      1.378     3.35     886.1499     55.95125     206.1495        14     1.132     0.850 -43.83   0
       353    968.2023    505.5692 307.5228066  +6.5014008     3627.944     5042.766     5319.346     78.93689     158.5702     317.2352      1.464     2.83     871.3806     55.95125     548.2654        22     1.159     1.043 -72.53   0
       354    531.0927    503.0734 307.7044404  +6.4878041     8165.324     11339.25     11651.47      79.4429     158.8858     317.4562      1.441     2.99     879.2646     55.95125     1255.572        31     1.330     0.979 -48.72   0
       355    746.5836    503.0753 307.6149390  +6.4950225     611.9564      837.369     968.6944      79.0637      158.507     317.3299      1.214     4.59     876.1401     55.95125     111.5723         7     0.993     0.606 -67.68   0
       356    407.0112    504.2199 307.7559362  +6.4831668      744.953     1036.026     473.1799      79.1903     158.4438     317.3299      1.604     5.09     881.1352     55.95125     103.0671         8     1.136     0.644 -37.47   0
       357    377.0046    503.0606 307.7684377  +6.4826377      2881.11     4109.611      4287.65     78.93689     158.6334     317.2036      1.460     3.18     881.2317     55.95125     459.0253        22     1.255     0.917 -50.33   0
       358     99.9400    502.1522 307.8835368  +6.4736934     626.7311     738.5718     737.7415      79.5689     158.7596     317.4877      1.301     5.15     886.0562     55.95125     93.27631         9     1.107     0.681 -75.89   0
       359    998.5871    501.3775 307.5103268  +6.5041458     511.4879     962.3429      1099.53      79.3167     158.5702     317.3299      1.680     4.13     870.7116     55.95125     91.51202         5     1.013     0.481 -83.10   0
       360    540.2380    500.0131 307.7007452  +6.4893743     787.1517     1114.147     1267.441      79.1903     158.5702     317.1405      1.387     3.71     879.1464     55.95125     154.6091         8     1.182     0.474 -50.07   0
       361    887.4916    498.9447 307.5565521  +6.5014399     3450.331      4533.74     4876.053      79.4429     158.6334     317.5508      1.407     2.94     873.0958     55.95125     540.0269        23     1.257     0.899 -49.82   0
       362    895.0891    493.4189 307.5535820  +6.5039751     2591.928     3577.815     3725.819      79.3167      158.507     317.3299      1.460     3.19     872.6753     55.95125     404.1685        16     1.100     0.979 -22.87   0
       363    934.1281    492.7143 307.5373907  +6.5055702     1436.242     2000.625     2554.544      79.6947     159.0118     317.4562      1.522     3.32     871.5282     55.95125     208.3176        14     1.112     0.812 -58.30   0
       364    272.8171    491.2382 307.8121081  +6.4840171     622.1426     722.2605     207.2868      79.1903     158.6334     317.1721      1.206     2.76     881.5376     55.95125     111.4686         6     0.742     0.551 -51.52   0
       365    718.8649    489.1650 307.6269196  +6.4998377     3249.203     4512.703     4657.659      79.4429     158.7596     317.4562      1.451     3.05       876.18     55.95125     480.5641        18     1.094     0.900 -54.55   0
       366    430.0493    487.8078 307.7469214  +6.4907161     1058.017     1324.288      935.271      79.0637      158.507     317.0773      1.361     3.41     880.0278     55.95125     194.0268        11     1.099     0.726 -46.42   0
       367    389.6861    487.4726 307.7636968  +6.4894991     3958.957      5534.15      5832.46      79.6947     159.0748     317.4246      1.504     3.08      880.408     55.95125     564.5383        22     1.257     0.889 -61.03   0
       368     80.7248    488.1183 307.8919919  +6.4788399     2027.138     2805.014     3175.474      79.8203     159.0118     317.4877      1.479     3.13      886.373     55.95125     327.8912        17     1.197     0.843 -57.87   0
       369    617.5164    483.9467 307.6691896  +6.4985979     10995.33     14971.61     15332.34      79.5689     158.7596     317.5508      1.443     3.05     878.3535     55.95125     1638.208        34     1.293     1.008 -50.05   0
       370    780.2302    480.5896 307.6017198  +6.5054317     18310.95      24549.6     26096.39      79.0637     158.5702     317.2668      1.425     2.84     874.9322     55.95125     2852.995        40     1.355     0.981 -54.05   2
       371    784.6323    475.6638 307.6000570  +6.5076126     1353.942      1949.89     2010.372      79.3167     158.8227     317.3931      1.517     3.03     874.7057     55.95125     217.6865        10     0.935     0.736 -32.22   3
       372    299.8883    480.8995 307.8012140  +6.4891956     2845.126      4112.84     4146.457      79.5689     159.2007     317.3931      1.496     3.36     880.4607     55.95125     475.5837        19     1.242     0.863 -52.77   0
       373    423.7781    480.1557 307.7497841  +6.4936647     741.8778     838.8927     432.2074      79.0637     158.6334     317.2352      1.246     4.28     879.7901     55.95125     101.0573         7     0.871     0.603  63.81   0
       374    809.1978    477.5010 307.5897919  +6.5076758     1462.864      2093.72     2305.628      79.0637      158.507     317.1089      1.474     4.06     874.4481     55.95125     203.5227        12     1.168     0.827 -46.24   0
       375    383.1413    477.4423 307.7667534  +6.4934203     1733.416     2508.257     2704.111      79.5689     158.7596     317.4562      1.525     3.43     879.8737     55.95125     241.1387        11     1.037     0.705 -48.36   0
       376    965.4684    475.5011 307.5249508  +6.5137236     2460.376     3282.507     3661.763      79.5689     158.8858     317.4246      1.411     2.88      870.474     55.95125      379.934        14     1.071     0.714 -47.71   0
       377    713.6581    474.5493 307.6295737  +6.5056977      682.794     738.5176     490.8278      79.5689     158.7596     317.4246      1.248     3.35     875.7795     55.95125     113.2651         6     0.913     0.630 -62.08   0
       378    117.6580    472.3190 307.8771877  +6.4866065     4760.797     6782.876     7514.095      79.5689     158.7596     317.4562      1.547     3.13     885.4524     55.95125     652.0371        29     1.423     1.009 -41.46   0
       379    755.7545    471.5871 307.6121885  +6.5083296     2443.797     3203.194     3454.609     78.93689     158.5702     317.1721      1.361     3.07     874.8121     55.95125     349.9678        16     1.061     0.881 -58.74   0
       380    371.9943    473.1293 307.7715287  +6.4948265     744.8629     1013.477     1092.989      79.0637     158.3806     317.3299      1.333     3.70     879.6426     55.95125     120.3844         7     0.886     0.536 -44.89   0
       381   1019.5365    470.2344 307.5026696  +6.5177029      4487.24     6839.292     6600.231      79.4429     158.8227     295.7276      1.664     3.61     869.0742     55.95125       517.99        32     1.342     1.191   6.15  16
       382    275.5821    469.5449 307.8116925  +6.4930661     1711.796     2360.333     2798.198      79.0637     158.6965     317.1721      1.542     3.09     880.6658     55.95125     254.5507        15     1.042     0.896 -56.23   0
       383    353.6608    467.1909 307.7793436  +6.4966623     3418.324     5073.793     4887.361     78.93689     158.6334     317.1721      1.504     3.06     879.3084     55.95125     510.1283        22     1.232     0.934 -67.19   0
       384    709.5684    465.0028 307.6315935  +6.5095021     1761.958     2411.688     2665.299     78.93689     158.5702     317.2036      1.449     3.24     875.4729     55.95125     268.0547        14     1.218     0.674 -52.71   0
       385    983.6667    463.4831 307.5177951  +6.5192930     821.6365     938.0719     926.6611      79.8203     159.0118     317.4877      1.359     3.78     869.5397     55.95125     125.9684         9     1.004     0.637 -79.44   0
       386    241.3669    463.0262 307.8261231  +6.4946066     818.3459     1090.431     708.7248      79.0637      158.507     317.2036      1.427     4.16     881.7471     55.95125     127.3834         6     0.799     0.618 -32.49   0
       387    550.9609    457.7843 307.6977141  +6.5071682     1186.514     1610.829     1136.974      79.1903     158.5702     317.2036      1.423     3.58     877.1157     55.95125     190.9977        10     0.978     0.761 -84.73   0
       388    473.0060    456.2782 307.7301431  +6.5051750     1410.706     1910.764     2040.461      79.1903      158.254     317.2036      1.453     4.92     877.1954     55.95125     205.3013        13     1.334     0.708 -58.39   0
       389    699.4066    457.0776 307.6360808  +6.5124339     587.9688     710.9486     426.4377      79.1903      158.254     317.2668      1.438     4.69     875.4432     55.95125     97.95319         6     0.978     0.639 -62.04   0
       390    835.7975    455.1497 307.5794944  +6.5177933     1665.597      2006.59     1950.476     78.93689     158.3806     317.0141      1.310     3.15     872.9171     55.95125     247.3443        13     1.083     0.747 -58.33   0
       391    821.3870    454.1815 307.5855125  +6.5177111     2226.859       3055.7     3172.034      79.3167     158.4438     317.3299      1.407     2.90     873.2756     55.95125     349.1152        19     1.108     0.995 -68.93   0
       392    718.7212    452.2517 307.6282207  +6.5150729     16633.76     22595.77     23366.34      79.5689     158.8227     317.4246      1.420     2.84     874.6696     55.95125     2554.502        41     1.350     1.015 -50.76   0
       393    620.9554    453.9583 307.6687708  +6.5110940     778.1973     1120.989      843.024      79.4429     158.7596     317.2668      1.499     4.44     876.4235     55.95125     118.7941         7     1.055     0.532 -56.36   0
       394    639.8967    448.2004 307.6610973  +6.5141058     2820.046     3818.711     3850.002      79.0637     158.3806     316.9825      1.383     3.10     875.9237     55.95125     430.8339        18     1.152     0.848 -47.61   0
       395    712.3770    447.1254 307.6310282  +6.5169770     751.8054     1128.022     1056.766      79.1903     158.6334     317.3615      1.613     5.05     874.6525     55.95125     101.6075         7     1.155     0.625 -49.33   0
       396    634.4764    447.3168 307.6633783  +6.5142890     639.1677     843.6058     804.6904      79.6947     159.0748     317.5508      1.377     4.51     875.8895     55.95125     93.77411         6     0.946     0.661 -23.85   0
       397    614.9684    445.3299 307.6715480  +6.5144557     5849.483     8173.036     8592.389      79.4429     158.7596     317.3931      1.469     3.10     875.8295     55.95125      867.765        25     1.302     0.920 -47.67   3
       398    611.2591    442.7868 307.6731743  +6.5153813     15664.38     22696.11      23790.5     78.93689     158.6965     317.1089      1.522     3.12     875.6978     55.95125     2381.892        39     1.375     1.034 -54.85   3
       399    943.8945    442.1249 307.5350318  +6.5267830     4193.175     5595.327     6051.861      79.3167     158.9488     317.4246      1.388     3.06     870.0544     55.95125     684.8228        20     1.158     0.843 -48.68   0
       400    383.1470    438.1014 307.7680786  +6.5096624     30447.52     43977.51     45519.07      79.4429     158.7596     317.6455      1.517     3.17     877.2036     55.95125     4510.698        53     1.426     1.130 -50.63   0
       401    899.6710    437.8611 307.5535441  +6.5270660     1555.492     2057.302     2664.068      79.6947     158.7596     317.4877      1.357     4.00     870.9277     55.95125     227.1554        16     1.314     0.779 -54.82   0
       402    912.7612    432.5567 307.5482848  +6.5296933     5702.421     7749.038      7717.94      79.3167     158.6965     317.2984      1.417     2.74     870.6378     55.95125     894.5314        27     1.277     0.960 -62.04   0
       403    594.2151    434.4054 307.6805358  +6.5182704      722.498     1157.532     1518.662      79.1903     158.4438     317.2668      1.780     3.62     875.2048     55.95125     119.8797         8     1.007     0.663 -38.46   0
       404    129.2669    437.3414 307.8735496  +6.5014376      2496.11      3644.29     3342.042      79.6947     158.6965     317.4246      1.556     3.53     884.2657     55.95125     326.7653        20     1.286     0.905 -49.11   0
       405     62.7360    433.0064 307.9013282  +6.5009861     1531.064      2575.39     2890.844     78.93689      158.507     317.2036      1.741     3.78      885.676     55.95125     220.4561        17     1.240     0.926 -34.97   0
       406    240.6559    428.5746 307.8275826  +6.5088059     14944.79     21493.97     21698.66      79.1903     158.7596     317.2352      1.561     3.09     880.4653     55.95125     1969.919        42     1.387     1.118 -50.36   0
       407    968.8535    430.2927 307.5250615  +6.5325015     694.3339     784.2582     910.7857      79.4429     158.6965     317.6139      1.160     4.13     868.7007     55.95125     122.1945         6     0.756     0.644  83.01   0
       408    735.5468    422.2743 307.6222401  +6.5280125     779.6472     1003.859     1393.771      79.4429     158.7596     317.3931      1.277     3.13     872.9838     55.95125     150.9963         6     1.062     0.381 -56.83   0
       409    703.7020    421.7864 307.6354838  +6.5271479     825.1449     1265.271     1465.467      79.4429      158.507     317.1721      1.592     4.32     873.7964     55.95125     133.4528        11     1.118     0.780 -57.18   0
       410     76.1287    422.6467 307.8961165  +6.5057143     911.9781     1367.799     1827.734      79.5689     158.7596     317.4246      1.643     3.42      885.015     55.95125     134.4081        10     0.976     0.720 -43.54   0
       411    964.1645    421.0079 307.5273207  +6.5361783     979.9396     1564.842     1424.645      79.0637     158.5702     317.2036      1.570     3.07     868.6057     55.95125      182.001         9     1.087     0.689 -40.08   0
       412   1013.0923    421.4740 307.5069814  +6.5376193     538.7417     730.6035     982.6174      79.5689     158.8858     317.4562      1.383     4.12     866.2788     55.95125     94.33191         5     0.882     0.550 -44.50   0
       413    140.8881    417.2513 307.8694025  +6.5101230     5355.452     7639.407     8157.266      79.5689     158.5702     317.5193      1.497     3.20     883.4078     55.95125     775.9178        25     1.300     0.956 -55.79   0
       414    353.7542    418.1729 307.7809593  +6.5169024     1378.779     1850.998     1839.496      79.0637     158.8227     317.3299      1.386     3.39      876.008     55.95125     212.1038        13     1.080     0.813 -68.07   0
       415    186.3833    418.3665 307.8504691  +6.5111941     825.2405     1252.782     748.6394      79.1903      158.507     317.2984      1.761     5.62     882.1054     55.95125     94.07928        12     1.202     0.741 -43.98   0
       416    245.8967    416.1577 307.8258254  +6.5141084     1360.164     1863.608     1661.355      79.5689     158.6965     317.6139      1.550     3.25     879.8258     55.95125     209.7051        12     1.073     0.701 -77.07   0
       417    438.2159    416.0634 307.7459492  +6.5206100      645.668     924.9164     1059.376      79.0637     158.6965     317.2668      1.395     2.73     875.2441     55.95125     126.8162         5     0.770     0.489 -38.45   0
       418    163.0932    412.8919 307.8603274  +6.5126703     2576.905     4033.699      4173.88      79.5689     159.2636     317.4246      1.690     4.90     882.8765     55.95125     373.8871        24     1.597     0.911 -72.52   0
       419    826.9158    413.3864 307.5845867  +6.5347387     824.9138     1027.078     1139.889      79.1903     158.5702     317.2668      1.392     4.89      871.573     55.95125     116.6787        10     1.119     0.823 -82.27   0
       420    558.7750    412.5756 307.6959915  +6.5260948     1133.117     1511.539     1083.914      79.0637     158.5702     317.3299      1.370     3.62      874.259     55.95125        180.2        12     1.017     0.885  86.71   0
       421    386.4552    407.7852 307.7677275  +6.5222896     2187.811     3179.982     3096.848     78.93689     158.6965     317.1405      1.577     3.37     875.3209     55.95125     314.6945        19     1.203     0.955 -51.41   0
       422      5.2862    408.2869 307.9260255  +6.5092547     800.1211     1062.336     473.7557      79.3167     158.9488     293.8586      1.364     3.46     886.8839     55.95125     113.2104         8     0.907     0.621 -82.29  16
       423    274.7699    408.1268 307.8141045  +6.5183950     657.1094     991.9605     593.4363      79.4429     158.7596     317.4246      1.513     3.26     878.6253     55.95125     116.0389         5     0.716     0.692  62.28   0
       424    975.1840    407.0136 307.5232129  +6.5423240     930.3782     1161.886     519.1808      79.3167     158.4438     317.3615      1.268     2.66     867.5027     55.95125     164.7162         8     0.819     0.623 -44.77   0
       425    320.1318    406.3787 307.7953225  +6.5206417      508.129     845.9344      1062.19      79.1903     158.6965     317.3615      1.964     3.42     876.8705     55.95125     82.21191         5     0.773     0.438  19.11   0
       426    440.2702    401.4489 307.7455888  +6.5267126     7981.546     11211.71     11902.91      79.5689     158.6965     317.4562      1.534     3.03     874.3802     55.95125     1100.567        33     1.368     1.024 -59.26   0
       427     36.5949    402.2918 307.9132251  +6.5127852     3299.335     5268.988      5237.97      79.1903     158.4438     317.1721      1.738     3.36     885.6872     55.95125     438.5553        30     1.595     0.990 -47.65   0
       428    780.9096    398.8280 307.6041858  +6.5392105      14424.9     19503.45     20627.28      79.6947      158.507     317.2984      1.405     2.93     871.9812     55.95125     2242.435        36     1.282     0.988 -51.49   0
       429    772.9763    400.4162 307.6074278  +6.5382894     1997.312     2805.132      3028.63      79.3167     158.6334     317.3299      1.435     2.82     872.0336     55.95125     315.2465        12     0.985     0.742 -53.03   0
       430    539.6893    400.4631 307.7043271  +6.5304555     508.5252     671.0178     820.2444      79.5689     158.8858     317.4877      1.318     4.74      873.536     55.95125     83.96918         6     0.959     0.664  67.73   0
       431    200.6416    401.3448 307.8451225  +6.5187012     586.7703     832.3837     1168.645      79.4429     158.6965     317.4246      1.812     3.72     880.9939     55.95125     110.4224         5     0.968     0.411 -15.83   0
       432    344.1596    397.1748 307.7856533  +6.5252490     1218.385     1579.467     1646.211      79.1903     158.5702     317.2036      1.366     3.65     875.6033     55.95125     193.4228        12     1.138     0.671 -66.44   0
       433   1023.7739    394.2784 307.5034564  +6.5492039     1891.726     2312.608     2644.134     67.88342     124.6094     237.1488      1.057     2.27      864.712     55.95125      546.336         9     1.019     0.414 -86.42  24
       434    955.5694    390.5603 307.5319126  +6.5484620     637.2613     521.0338     537.1031      79.1903     158.5702     317.2668      1.185     4.61     867.6914     55.95125     110.4796         7     0.905     0.666 -68.45   0
       435    188.9961    389.7596 307.8503511  +6.5230922     766.7803     918.3129     536.1495     78.80988      158.507     317.1721      1.249     2.99     881.1677     55.95125     166.1759         6     0.877     0.536 -89.89   0
       436    906.0514    389.0264 307.5525333  +6.5474412     693.6021     843.4143     368.8171      79.1903     158.8858     317.3299      1.334     4.01     869.1342     55.95125     118.5909         7     0.908     0.508 -44.89   0
       437    394.4115    388.2176 307.7650831  +6.5306353     483.3454     678.5529     258.2026      79.1903     158.4438     317.3299      1.425     3.48     874.2336     55.95125     68.12885         5     0.758     0.461  73.45   0
       438    488.4052    385.0539 307.7261481  +6.5350969     3274.712     4484.595     4010.633     78.93689      158.507     317.1089      1.436     3.32     873.0945     55.95125     465.7074        21     1.281     0.884 -67.15   0
       439    460.5938    385.7080 307.7376780  +6.5338934     2336.334     3481.429     4176.448      79.1903     158.4438     317.2352      1.696     3.31     873.3807     55.95125     337.8934        19     1.261     0.873 -67.15   0
       440    917.1724    384.8210 307.5480549  +6.5495490      886.606     1132.702     718.0966     78.93689     158.5702     317.3931      1.361     4.90     868.8001     55.95125     129.4984         9     0.989     0.687 -72.55   0
       441    846.2776    381.7571 307.5776067  +6.5484446     36686.77     51758.89     53859.28      79.4429     158.7596     317.4877      1.501     3.12     870.0636     55.95125     5665.958        57     1.455     1.084 -64.64   0
       442    338.7477    377.1643 307.7885767  +6.5333285     982.3665     1383.263     784.7207      79.4429     158.7596     317.3931      1.546     5.24      875.079     55.95125     146.0237        12     1.255     0.722 -45.49   0
       443     63.8796    378.0163 307.9027147  +6.5237266     773.8838     983.5769     1256.511      79.1903      158.507     317.2668      1.345     4.52     884.3062     55.95125     112.8698         7     0.870     0.669  22.29   0
       444     26.4274    374.4205 307.9183919  +6.5239487     1241.133      1907.24     1880.795      79.0637      158.507     317.3299      1.628     4.03     884.9363     55.95125     186.0125        14     1.302     0.737 -45.76   0
       445    618.1852    374.1273 307.6726091  +6.5439598     2729.076     3876.373     4296.758      79.0637      158.507     317.3299      1.531     3.13     871.4941     55.95125      427.223        20     1.201     0.931 -51.59   0
       446    149.3721    372.4402 307.8673945  +6.5289085     560.5074     864.1292     1094.508      79.1903     158.5702     317.2984      1.345     3.47     882.1562     55.95125     79.39783         5     1.063     0.327 -69.39   0
       447    702.7319    367.7202 307.6377055  +6.5494371     86929.92     119322.6     123970.7      79.6947     159.0118     317.4246      1.468     3.00     871.1006     55.95125     12322.81        81     1.434     1.174 -51.31   0
       448    860.8168    369.4398 307.5719810  +6.5540160     1360.698     1771.004     1885.766      79.1903     158.6334     317.2036      1.530     4.33      869.266     55.95125      177.608        13     1.166     0.743 -61.04   0
       449     81.9642    367.2881 307.8955666  +6.5287650      1540.55     2146.144      1558.38      79.5689     158.6334     317.4246      1.436     3.45     883.7281     55.95125     212.5989        13     1.058     0.794 -35.70   0
       450    565.2103    364.4844 307.6949385  +6.5461653     2988.322     4239.116     4782.476      79.1903      158.507     317.2668      1.601     3.14     870.8948     55.95125     437.1714        23     1.311     0.955 -48.81   0
       451    944.1605    364.9095 307.5375126  +6.5586712     836.3923     912.3118     612.1649      79.5689     158.6965     317.4562      1.354     4.21     867.0099     55.95125     134.4277         8     1.062     0.513 -35.71   0
       452    392.8604    364.7942 307.7665177  +6.5402535     619.3629     806.6968     1319.744     78.93689     158.6334     317.2036      1.398     3.57     873.0974     55.95125     118.4802         5     0.788     0.515 -49.96   0
       453    102.4687    363.1577 307.8871898  +6.5311610     6501.834     9464.515      9530.84      79.4429     158.6965     317.5193      1.553     3.01     883.2784     55.95125     906.8849        34     1.377     1.107 -58.15   0
       454    548.4365    360.6042 307.7020367  +6.5472047     7834.232     10973.49     11229.67     78.68266      158.507     317.2352      1.478     3.03     870.6661     55.95125     1131.108        31     1.318     0.984 -56.62   0
       455    411.3752    355.7649 307.7591319  +6.5446030     27596.62      39686.5     41515.59      79.0637     158.5702     317.2036      1.534     3.18     872.1097     55.95125     3932.365        53     1.453     1.109 -52.03   0
       456    277.3659    358.1816 307.8147135  +6.5391019     2841.434     4240.519     4346.146      79.0637     158.5702     317.2352      1.552     3.34     876.6266     55.95125     418.9327        21     1.213     0.998 -48.58   0
       457    519.0933    354.6201 307.7144270  +6.5486911     1461.844     2095.595      2249.84      79.4429     158.5702     317.2668      1.468     3.99     870.8193     55.95125     213.9986        13     1.239     0.737 -51.31   0
       458    589.9236    355.4249 307.6849782  +6.5507340     655.4343     975.8202     856.2189      79.1903     158.6965     317.3931      1.655     3.42      870.377     55.95125     107.9163         5     0.786     0.431 -21.64   0
       459    391.2767    353.8489 307.7675449  +6.5447190     1267.438     1891.986     2891.965      79.4429     158.8227     317.4246      2.007     4.63     872.6068     55.95125     164.5895        16     1.262     0.962 -57.34   0
       460    490.6588    351.2144 307.7263529  +6.5491431      1237.62     1590.799     1369.733     78.93689     158.6965     317.1721      1.444     3.57     871.2494     55.95125     161.9921        13     1.019     0.871 -55.91   0
       461    806.1949    348.4543 307.5953757  +6.5608536      935.585      1250.55     787.2109     78.93689      158.507     317.1089      1.264     3.41      870.056     55.95125     155.7369        11     1.049     0.701 -49.76   0
       462    678.5060    353.9271 307.6482328  +6.5543205     540.0871     555.4515     618.7966      79.4429     158.8858     317.4562      1.498     3.91      870.394     55.95125     93.53503         5     1.274     0.343 -41.64   0
       463    500.4742    346.2321 307.7224437  +6.5515295     9337.885     13271.28     13086.93      79.4429     158.7596     317.3931      1.511     3.07     870.7755     55.95125     1269.743        32     1.355     0.999 -53.56   0
       464    769.5638    344.9582 307.6107097  +6.5610716     3556.007     4774.353     5071.676      79.3167     158.7596     317.2984      1.426     3.05     870.0463     55.95125     530.1575        20     1.221     0.832 -57.36   0
       465    924.9999    344.8132 307.5461464  +6.5663282     1109.078     1356.537     1841.576      79.1903     158.4438     317.2352      1.379     3.29     866.7458     55.95125     163.7407        10     0.902     0.769 -46.53   0
       466    717.1505    344.7796 307.6324879  +6.5593911     925.4567     1186.228     1386.755      79.0637     158.8227     317.2984      1.219     2.56     870.0228     55.95125     161.5112         6     0.708     0.550 -23.57   0
       467    327.1864    342.7968 307.7945393  +6.5471284     1099.094         1440     779.4235      79.1903     158.4438     317.2984      1.374     3.18     874.3085     55.95125     186.8135        11     0.963     0.773 -41.98   0
       468    162.3986    336.8111 307.8631890  +6.5440562     1225.173     1754.501     1304.286      79.1903     158.4438     317.2352      1.455     4.27     881.0439     55.95125     189.5687        13     1.325     0.689 -58.71   0
       469    609.5792    335.5055 307.6774844  +6.5596166      646.196     962.9504     633.5906      79.4429     158.5702     317.2668      1.488     5.94     869.3768     55.95125     77.59668        10     1.275     0.777  81.88   0
       470    439.0380    336.7655 307.7482824  +6.5533758     627.8958     714.3494     454.9435      79.3167     158.5702     317.2036      1.311     3.93     871.0504     55.95125     96.30841         6     0.915     0.483 -36.94   0
       471    262.3707    336.4737 307.8216754  +6.5475596     728.8259     889.5858     465.1914      79.4429     158.7596     317.3931      1.479     3.48     876.6546     55.95125     120.6407         7     0.849     0.645 -74.24   0
       472    390.3613    330.3270 307.7687189  +6.5543993     8155.087     11715.39     11635.26      79.4429     158.6965     317.4877      1.555     3.12     871.8328     55.95125     1069.744        32     1.339     1.028 -56.28   0
       473    246.2311    330.9111 307.8285673  +6.5493132     2371.412     3218.008     3590.616      79.6947     158.5702     317.3615      1.473     3.60     877.3437     55.95125     307.6588        15     1.158     0.835 -55.87   0
       474    743.9217    330.3940 307.6218511  +6.5662264     1099.671      1649.05     1744.085      79.1903      158.254     317.2036      1.674     3.07     869.4788     55.95125     178.8304        10     0.981     0.651 -59.12   0
       475    758.2230    326.2820 307.6160486  +6.5684027     60053.86     81241.11     84365.02      79.3167     158.4438     317.3299      1.431     2.97     869.2964     55.95125     8787.158        65     1.387     1.113 -53.76   0
       476    429.7342    325.7854 307.7525174  +6.5575965     2630.073     3662.824     3407.958      79.0637     158.6334     317.3615      1.485     2.95      870.697     55.95125     371.1603        19     1.133     0.933 -38.81   0
       477    993.1375    323.3992 307.5185601  +6.5774447     1800.164     2461.233     2071.803     78.80988     158.5702     317.1089      1.373     2.88     863.8888     55.95125     282.4777        14     1.046     0.799 -43.65   0
       478    933.9812    322.6491 307.5431595  +6.5757789     2527.094     3236.571      3508.86      79.0637     158.8227     317.2036      1.366     2.87      865.421     55.95125     416.5216        16     1.084     0.806 -59.33   0
       479    576.0816    323.1754 307.6918143  +6.5635843     1353.494     1931.271     1894.925      79.3167      158.507     317.3931      1.448     3.39     868.5693     55.95125     209.2383        12     1.200     0.686 -48.11   0
       480    416.4365    321.5341 307.7581845  +6.5589051     2186.478     2974.894     3090.048      79.4429     158.7596     317.4877      1.531     3.66     870.7239     55.95125     262.2807        15     1.119     0.867 -58.64   0
       481    466.9019    321.8998 307.7372095  +6.5604484     1185.481     1610.663     1468.032      79.5689     159.1378     317.2668      1.518     3.44     870.1306     55.95125     176.0909        10     0.888     0.783  81.00   0
       482    296.5323    320.8081 307.8080149  +6.5551758     729.2471     1115.105     939.5526      79.0637      158.507     317.3299      1.412     3.23     874.5781     55.95125     131.1719         6     0.766     0.612 -49.69   0
       483    837.4843    315.8563 307.5834735  +6.5753584     1435.277     1928.162      1702.26      79.5689     158.7596     317.5193      1.459     3.21     867.9009     55.95125     192.7168        15     1.055     0.895 -65.69   0
       484    466.8155    316.1627 307.7374389  +6.5628141     873.3638     1127.791     1193.211      79.1903     158.5702     317.1721      1.464     5.26     869.8412     55.95125     113.6872        10     0.969     0.901 -62.17   0
       485    192.9783    312.6841 307.8513031  +6.5550462     2428.268      3503.79      3723.73      79.3167     158.4438     317.3299      1.528     3.38     879.5091     55.95125     322.2065        19     1.172     0.972 -49.21   0
       486    756.6638    310.8481 307.6172153  +6.5747225      6696.96     9335.866     10331.44      79.4429     158.6334     317.4562      1.448     2.89     868.7104     55.95125     975.6176        27     1.232     0.970 -57.74   0
       487    447.0602    312.6813 307.7457624  +6.5635882     1123.062     1558.295     1745.882      79.6947     158.7596     317.3931      1.478     3.77     869.9713     55.95125     185.0546        12     1.186     0.725 -47.45   0
       488    347.3273    310.7582 307.7872550  +6.5610323     729.7917      1219.97      1253.71      79.4429     158.8227     317.4562      1.705     4.58     872.6268     55.95125     109.4313         6     0.920     0.651 -12.16   0
       489    229.1080    310.6441 307.8363648  +6.5571042     711.0172     965.7724     766.4245      79.5689     158.6965     317.5508      1.578     5.00     878.0307     55.95125     133.0564         8     1.142     0.619 -34.58   0
       490    772.9775    308.8533 307.6105055  +6.5760920      2885.88     3720.772     4055.017      79.0637     158.7596     317.2352      1.395     3.00     868.5599     55.95125     471.2134        21     1.245     0.849 -46.06   0
       491     89.3134    309.9069 307.8944563  +6.5527018     1205.083     1947.662     2072.697      79.5689     159.2007     317.5193      1.681     3.47     882.4526     55.95125     172.4141        12     0.965     0.861 -15.03   0
       492    475.7462    308.3768 307.7339917  +6.5663282     580.3852     882.6447     793.6783      79.0637     158.7596     317.2352      1.778     3.45     869.3192     55.95125     79.81097         5     0.776     0.443 -17.91   0
       493     76.3482    304.1205 307.9000374  +6.5546537       1464.5     1965.313     2141.752      79.5689     158.7596     317.4246      1.468     3.57     882.5881     55.95125     181.5669        12     0.953     0.842  12.10   0
       494    362.3488    303.4355 307.7812625  +6.5645602     1861.718      3264.23     3018.185      79.4429     158.7596     317.3299      1.844     5.36     871.8843     55.95125     214.6391        26     1.709     0.998 -11.42   0
       495   1011.2925    299.7904 307.5118102  +6.5877979     6620.569     8756.823     9058.216      79.1903     158.3806     317.2036      1.383     2.85     863.1095     55.95125     1084.767        25     1.232     0.897 -56.21   0
       496    489.2757    299.4722 307.7286719  +6.5704586     2225.952      3085.53     2798.374      79.8203     159.0118     317.4246      1.463     3.19     868.5829     55.95125     321.3254        17     1.116     0.925 -37.03   0
       497    251.9365    295.1093 307.8274073  +6.5642857     6135.237     9059.805     9320.725      79.5689     158.9488     317.5193      1.533     3.07     876.3812     55.95125     892.9683        29     1.341     1.013 -61.53   0
       498    816.7098    293.9894 307.5928382  +6.5836916     668.5854     903.7097     752.7653      79.3167     158.4438     317.2036      1.467     2.86     867.4112     55.95125     108.8279         5     0.783     0.486 -34.04   0
       499    771.2237    288.6713 307.6119126  +6.5843656     809.9254      974.808     1009.689      79.1903     158.6334     317.3615      1.305     3.88     867.7481     55.95125     154.3612         6     0.953     0.521 -67.67   0
       500    123.8781    288.7240 307.8808160  +6.5626112     614.8773     825.0362     891.9504      79.8203     159.0118     317.5193      1.428     4.68     881.2152     55.95125     98.00824         6     0.926     0.672 -43.38   0
       501    228.8838    287.9940 307.8372235  +6.5664476     632.6168      808.213     412.5594      79.1903     158.4438     317.2668      1.352     4.35     877.8143     55.95125     110.6823         7     1.258     0.427 -25.69   0
       502    791.6053    286.6081 307.6035151  +6.5858993     534.1272     613.1182     591.1456     78.93689      158.507     317.2668      1.214     4.17     867.5294     55.95125     77.82556         5     0.993     0.500 -45.21   0
       503    386.0204    285.6935 307.7720284  +6.5726803     1836.091     2889.537     2922.072      79.4429     158.5702     317.2352      1.651     3.89     870.5468     55.95125     233.2059        18     1.267     0.912 -51.75   0
       504    972.9719    284.8212 307.5282317  +6.5926988     1186.475     1370.246     1589.394     78.93689      158.507     317.3299      1.224     3.23     863.1625     55.95125     188.3096        10     0.960     0.684 -59.52   0
       505    308.3996    281.9485 307.8043980  +6.5716178     1279.102     1589.159     821.7106     78.80988     158.3173     316.9825      1.343     3.47      873.082     55.95125     216.3258        14     1.085     0.869 -41.11   0
       506    155.7637    281.8065 307.8678055  +6.5665409     1985.072     2701.319     2915.186     78.68266      158.507     317.2036      1.456     3.47     880.2667     55.95125     283.4478        16     1.176     0.822 -65.09   0
       507    565.3053    277.3672 307.6978340  +6.5821350     2431.605     3304.169     3402.719      79.6947     158.6334     317.5193      1.453     3.11     866.2258     55.95125     359.1646        17     1.087     0.915 -49.06   0
       508    909.0033    276.5083 307.5550849  +6.5939942     1929.989     2879.969     3185.834      79.1903     158.4438     317.1721      1.545     2.83     864.1342     55.95125     373.2838        16     1.298     0.943  23.13   0
       509    729.1142    274.9710 307.6298664  +6.5886125     5695.518     7672.515     7755.124      79.6947     158.4438     317.2668      1.407     3.01     867.3505     55.95125     915.0386        22     1.162     0.928 -57.11   0
       510    669.9411    274.8445 307.6544521  +6.5866833       2481.2      3354.17      3723.65      79.4429     158.6965     317.5193      1.452     2.91      866.852     55.95125     399.0565        19     1.178     0.903 -52.23   0
       511    966.9570    274.7968 307.5310668  +6.5966366     809.5298      1016.96     1064.003     78.93689     158.3806     317.0773      1.323     2.78     862.7165     55.95125     158.9595         8     0.919     0.589 -60.92   0
       512    384.3517    268.7234 307.7732944  +6.5796302     794.2239     1237.364     696.6818      79.4429     158.8227     317.4246      1.594     5.08     870.1777     55.95125     108.6953         7     1.346     0.542  72.90   0
       513    925.1088    266.8577 307.5487182  +6.5985166     1265.336     1561.404     1513.519      79.4429     158.6965     317.5193      1.349     3.33     863.2508     55.95125     227.0231        10     0.939     0.762 -47.31   0
       514    228.5077    260.2402 307.8383179  +6.5778928     2560.756     3418.877     3481.806      79.6947     158.6965     317.4877      1.481     3.33     876.8704     55.95125     320.0363        19     1.212     0.903 -57.69   0
       515    871.3185    259.3202 307.5713174  +6.5998310     1927.693     2669.878     2964.206      79.6947     159.0118     317.5824      1.455     3.16     864.5844     55.95125     313.6165        16     1.082     0.876 -48.91   0
       516    761.8178    258.5858 307.6168317  +6.5964718         1761     2341.386     2164.536      79.3167     158.4438     317.3299      1.359     3.54      866.668     55.95125     247.8687        13     1.184     0.686 -41.93   0
       517    581.8010    254.3266 307.6917578  +6.5922004     597.2448      752.571      841.694     78.93689     158.1907     317.2668      1.263     3.91     865.2805     55.95125     91.28772         6     1.053     0.416  12.91   0
       518    250.3674    254.1870 307.8294422  +6.5811273     605.2462     959.8335      560.326      79.0637      158.507     317.3615      1.661     3.40     875.6411     55.95125     92.28522         5     0.777     0.429  70.20   0
       519    462.5230    250.0694 307.7414510  +6.5899566     25016.12     35594.23        37302      79.6947     158.8858     317.3931      1.532     3.08     867.1641     55.95125     3472.198        49     1.430     1.099 -56.03   2
       520    468.1675    244.6932 307.7392875  +6.5923656      1640.38     2291.279     2344.208      79.6947     158.6334     317.4877      1.453     3.70     866.7943     55.95125     211.9044        14     1.113     0.828 -52.09   3
       521    323.6663    251.8143 307.7990741  +6.5845717      809.966     1059.034     653.5554      79.0637     158.6334     317.3615      1.502     5.01     872.0313     55.95125      105.905         8     1.047     0.679 -51.72   0
       522    788.6159    249.2491 307.6060129  +6.6012232     14631.94     20562.36     22367.37      79.0637     158.8227     317.1405      1.507     3.12     866.2147     55.95125     2150.587        49     1.472     1.144 -26.62   0
       523    727.0945    245.3954 307.6317002  +6.6007553     812.0541     946.4677      508.224      79.3167     158.4438     317.1721      1.368     4.63     866.0814     55.95125       130.89         8     1.008     0.604 -45.08   0
       524    150.6064    243.4584 307.8712450  +6.5821988     2478.554     3644.087     3536.945     78.93689     158.6334     317.1405      1.556     2.98     879.1366     55.95125     371.8719        15     1.090     0.825 -56.20   0
       525    125.4174    242.2285 307.8817500  +6.5818582     1254.036     1809.234      2188.66      79.1903     158.5702     317.3615      1.656     4.49     880.0905     55.95125     169.6848        14     1.231     0.859 -44.95   0
       526    177.6760    241.5771 307.8600642  +6.5838869     716.3299     947.1504     1204.324      79.1903     158.5702     317.3299      1.208     3.84     878.1161     55.95125     114.0979         6     0.903     0.468  88.59   0
       527    782.0620    240.8462 307.6090182  +6.6044731     745.8483     1336.055     1549.198      79.4429     158.6334     317.4562      1.839     5.35      865.946     55.95125     117.8549         9     1.217     0.663  -5.27   0
       528    925.0395    239.6929 307.5496591  +6.6097296     1681.612     2147.496     2463.918      79.6947     158.6965     317.5193      1.428     3.16     862.3097     55.95125     268.9249        14     1.059     0.791 -37.55   0
       529    623.5181    237.6282 307.6749900  +6.6004927     487.7967     928.7593     1258.161      79.4429     158.5702     317.3615      1.440     3.46      864.752     55.95125     96.37866         5     1.387     0.250 -44.75   0
       530    307.1519    236.9484 307.8064363  +6.5901538     1138.222      1614.39      1301.19      79.6947     158.6334     317.4246      1.489     3.77     872.7291     55.95125     180.1399        13     1.133     0.802 -40.17   0
       531    586.5826    235.9224 307.6903914  +6.5999590     5254.085     7327.087      7592.87      79.0637      158.507     317.3615      1.447     2.97     864.5407     55.95125     773.1119        23     1.186     0.938 -49.08   0
       532    549.2432    235.7551 307.7059086  +6.5987759      2241.63     2971.744     3213.791      79.5689     158.7596     317.3931      1.391     2.79     864.5407     55.95125     345.8944        15     1.024     0.830 -66.26   0
       533    390.9509    235.1355 307.7716867  +6.5937186     1606.727     2164.159     1979.213      79.4429     158.6334     317.4562      1.457     3.57     869.1249     55.95125     239.8922        16     1.243     0.806 -53.50   0
       534    947.3969    232.9651 307.5405967  +6.6132540     2984.717     3905.712     4178.653     78.68266     158.5702     317.1721      1.382     2.66     861.2784     55.95125     469.5217        20     1.114     0.941 -59.57   0
       535    893.6512    232.5083 307.5629402  +6.6116469     12698.17     16615.63     17443.03      79.4429     158.6334     317.6139      1.383     2.74     862.8315     55.95125     1844.264        31     1.223     0.971 -47.74   0
       536    980.2651    230.3718 307.5270289  +6.6154223     11155.36     14778.55     15123.74      79.1903     158.7596     317.3615      1.388     2.86     859.8399     55.95125     1626.154        32     1.240     0.977 -56.62   0
       537    568.7802    232.3386 307.6979077  +6.6008416     1058.453      1355.08     779.7141      79.1903     158.7596     317.3299      1.444     4.20     864.3763     55.95125     158.1637        10     0.980     0.729 -63.96   0
       538    321.0587    231.6872 307.8008370  +6.5927934     949.2435     1941.376     2419.476      79.5689     158.8227     317.5193      2.500     7.91     871.8713     55.95125     164.4615        17     1.898     0.943  73.69   0
       539    691.6216    230.2857 307.6469451  +6.6058057     3128.011     4444.975     4770.813      79.5689      158.507     317.3299      1.537     3.11     865.0325     55.95125     454.0922        22     1.321     0.893 -60.56   0
       540    213.0841    232.1514 307.8456745  +6.5889700     705.2299     951.0592     1211.447      79.5689     158.7596     317.4562      1.461     4.88     876.5035     55.95125      97.4469         7     0.896     0.754 -50.94   0
       541    266.0217    229.9665 307.8237579  +6.5916531      1292.05     1708.131      1611.47      79.0637     158.5702     317.2036      1.394     3.46     874.5485     55.95125     190.2032        13     1.077     0.815 -49.72   0
       542     19.7945    228.9749 307.9260733  +6.5837700      27502.1     39947.92      41017.2      79.0637      158.507     317.2668      1.518     3.10     883.3721     55.95125     4011.346        50     1.410     1.142 -54.12   0
       543    500.4051    225.1871 307.7265532  +6.6015006     2090.116     2937.753     2761.124      79.1903      158.507     317.2984      1.512     3.24      865.038     55.95125     312.2148        16     1.153     0.840 -40.92   0
       544    832.1523    221.8244 307.5888482  +6.6140019     2259.823     3088.463     2724.336      79.1903     158.7596     317.2984      1.417     2.89     864.1588     55.95125     351.6005        17     1.132     0.838 -43.37   0
       545    512.2630    221.1541 307.7217632  +6.6035634     2805.724     3901.501     3759.974      79.4429     158.6965     317.4562      1.484     2.98     864.6661     55.95125     398.0524        19     1.212     0.889 -59.04   0
       546    884.2835    221.0221 307.5672177  +6.6160760     2216.776     3036.846     3252.276      79.3167     158.4438     317.2984      1.425     2.86     862.5271     55.95125     390.0593        17     1.164     0.815 -40.09   0
       547    743.8108    218.3990 307.6256639  +6.6124605     44088.33     60385.85     63285.02      79.1903     158.4438     317.2352      1.460     2.97       865.06     55.95125     6277.426        59     1.376     1.103 -54.42   0
       548    346.8994    217.8713 307.7905692  +6.5993658     6223.142     12281.48     13452.83      79.3167     158.8858     317.4246      2.121     5.80     870.1664     55.95125     757.5116        46     1.987     1.127 -74.38   0
       549    977.5611    217.1053 307.5285975  +6.6208093      3229.32     4583.455     5225.662      79.6947     158.6334     317.5508      1.514     2.94     859.4574     55.95125     465.6653        20     1.244     0.870 -73.35   0
       550    911.6968    215.5713 307.5560121  +6.6192426     8690.479     11332.12     11426.76      79.6947      158.507     317.4246      1.392     2.79      861.657     55.95125     1249.264        31     1.255     0.983 -56.63   0
       551    455.2387    214.5591 307.7456748  +6.6043724     5402.117     7935.641     8801.796      79.3167     158.8227     317.2984      1.588     3.20     866.1885     55.95125     769.7297        28     1.317     1.053 -61.95   0
       552   1015.8723    215.7718 307.5127259  +6.6226388     2064.388     2637.716     2866.468      79.4429     158.7596     317.3615      1.413     3.24     858.0008     55.95125     282.1216        15     1.090     0.810 -44.27   0
       553    229.9151    211.2215 307.8393904  +6.5981771     839.2197     1141.008     1296.885      79.3167     158.4438     317.3615      1.639     5.21     875.4733     55.95125     103.8814        10     1.013     0.756 -57.76   0
       554    112.6691    205.7141 307.8882813  +6.5965032     5172.722     7349.814     7514.817      79.6947     159.0118     317.4562      1.522     3.19     879.5496     55.95125     712.1365        25     1.357     0.946 -59.83   0
       555    258.1691    203.6609 307.8279090  +6.6022490     7075.083     10514.62     11069.77      79.3167     158.8227     317.3615      1.574     3.14     874.6348     55.95125     988.9709        33     1.414     1.049 -62.11   0
       556    932.0658    204.9861 307.5479053  +6.6242933     942.9177     1287.449     1327.604      79.0637     158.5702     317.3615      1.363     4.61     860.6901     55.95125     128.0422         9     1.013     0.638 -55.23   0
       557    609.6702    202.1751 307.6819369  +6.6146655     482.0396     1364.598     1622.231      79.1903     158.6334     317.3615      2.916     8.49     863.5099     55.95125     100.9926        11     2.036     0.989 -88.16   0
       558    282.9385    202.5067 307.8176584  +6.6035586     36451.92     52715.93     54699.47      79.4429     158.7596     317.4877      1.551     3.07     873.9704     55.95125      5026.93        57     1.439     1.163 -55.18   0
       559    712.0397    201.8008 307.6394213  +6.6182495     971.3936     1255.162     1028.145     78.68266      158.507     317.1089      1.415     4.30     864.2354     55.95125     143.4039         8     0.978     0.583 -61.77   0
       560    406.9898    198.0399 307.7662759  +6.6095720     54272.88     78657.34     81867.52     78.93689     158.5702     317.1721      1.496     3.07     867.4921     55.95125     8017.863        66     1.451     1.182 -56.20   0
       561    162.9900    199.3195 307.8675942  +6.6008379     4233.611     6193.463     6334.469      79.1903     158.4438     317.2668      1.546     3.20     877.8054     55.95125     576.6411        27     1.320     1.000 -55.21   0
       562    424.0931    198.6442 307.7591504  +6.6098970     1538.692     2130.935     1914.018      79.5689     158.6965     317.5508      1.453     3.52      866.824     55.95125     196.8894        17     1.205     0.899 -50.50   0
       563    544.0204    197.8819 307.7093547  +6.6142367     399.1473     919.5114     296.7012      79.3167     158.4438     317.3615      2.168     5.56     863.4888     55.95125     116.2659         8     1.843     0.472 -52.70   0
       564    577.1913    197.1794 307.6955980  +6.6156391     641.1662     904.4229     1418.256      79.1903      158.507     317.2036      1.549     4.41      863.412     55.95125      102.562         7     1.038     0.532 -69.93   0
       565    311.0069    195.7482 307.8062267  +6.6072926     19647.27     28649.94     29836.77      79.0637     158.5702     317.0457      1.539     3.09     872.4476     55.95125     2860.134        44     1.408     1.109 -57.37   2
       566    318.4657    195.0822 307.8031507  +6.6078184     2101.459     3949.118     5304.523      79.8203     159.0118     317.4877      2.309     5.28     872.0074     55.95125     300.7018        31     1.890     1.089 -73.96   2
       567    794.7524    194.7650 307.6052954  +6.6239226     1292.349     1921.457     2231.836      79.1903     158.7596     317.3615      1.609     3.95     864.0371     55.95125     193.7234        15     1.260     0.913 -77.87   0
       568    746.2299    194.3104 307.6254691  +6.6224866     37091.69      50240.8     52596.21      79.6947      158.507     317.3931      1.445     2.86     863.9927     55.95125     5266.054        58     1.371     1.112 -54.67   0
       569    694.4034    196.0561 307.6469414  +6.6200307     1042.749     1389.696     1226.366     78.93689     158.5702     317.1089      1.448     3.57     863.9766     55.95125      142.868        10     0.981     0.698 -29.76   0
       570     33.5592    194.6088 307.9215196  +6.5984216     722.5612     1008.794     1480.483     78.93689     158.5702     317.1405      1.262     3.20     882.3037     55.95125     127.2429         5     0.960     0.335 -23.21   0
       571    570.3538    192.7179 307.6985889  +6.6172518     575.5787     898.4375     1033.272      79.5689     158.7596     317.4246      1.611     3.43      863.325     55.95125     109.4128         5     0.993     0.657 -24.77   0
       572     63.1075    191.4089 307.9093536  +6.6007388     9911.001      14473.3     15387.33      79.1903     158.4438     317.2352      1.554     3.04     880.9371     55.95125     1386.406        35     1.332     1.105 -62.14   0
       573   1004.6555    188.9360 307.5182862  +6.6333438     1268.038     1708.254     2015.041      79.6947     158.7596     317.4246      1.534     3.67     858.1852     55.95125     197.9796        12     1.158     0.668 -47.35   0
       574     96.9886    189.4212 307.8953466  +6.6027011     1686.575     2167.154     2265.382      79.1903      158.507     317.2984      1.407     3.16      879.343     55.95125     270.9938        14     1.110     0.776 -65.88   0
       575    972.4563    187.5137 307.5317114  +6.6328560     693.5596      700.218     787.8732      79.5689     158.7596     317.5824      1.073     3.65     858.9755     55.95125     138.4827         6     0.950     0.403 -70.07   0
       576    731.1052    182.2945 307.6321569  +6.6269411     674.7755     827.8435     1138.294      79.5689     159.3894     317.3615      1.345     4.26     863.4734     55.95125     92.44806         7     0.901     0.575 -33.36   0
       577    579.8344    178.8923 307.6951161  +6.6232776     845.1671     1144.144     1203.438      79.6947     158.6334     317.4877      1.670     3.94     862.9711     55.95125     144.0491         9     1.179     0.513 -43.15   0
       578   1005.5858    174.8362 307.5183728  +6.6391961     2401.721      3486.72     4389.914      79.1903     158.5702     317.2036      1.570     3.05     858.0476     55.95125     343.7659        16     1.075     0.824 -54.30   0
       579    588.9223    172.4437 307.6915579  +6.6262446     1149.986     1665.745     1527.582      79.4429     158.7596     317.4246      1.525     3.19     862.7805     55.95125     170.6954        12     1.022     0.763 -87.47   0
       580    596.9386    170.7079 307.6882861  +6.6272300     2157.598     2969.288     3151.852      79.4429     158.8227     317.5193      1.449     3.25     862.7373     55.95125     319.5746        18     1.166     0.920 -56.86   0
       581     27.0406    167.5316 307.9251447  +6.6093801     4774.566     6943.061     7941.588      79.4429     158.7596     317.5193      1.635     3.65     882.1248     55.95125     661.7602        34     1.751     1.027 -66.18   0
       582    341.1574    170.5222 307.7945535  +6.6187206     1190.552     1559.685     1530.433      79.4429     158.7596     317.4877      1.377     3.13     870.5694     55.95125     183.1693         9     0.881     0.684 -65.62   0
       583    281.8224    168.7581 307.8192625  +6.6174539     33006.08     48411.45      51250.3      79.1903     158.5702     317.2036      1.559     3.16     874.0504     55.95125      4727.18        56     1.441     1.169 -57.30   0
       584    713.4802    165.4966 307.6400444  +6.6332861     9103.836     12248.51      13418.8      79.3167     159.0118     317.5193      1.443     2.82     862.9023     55.95125     1380.624        31     1.268     0.983 -56.06   0
       585    190.8429    166.8078 307.8571234  +6.6151977     1058.809     1263.558     1166.046      79.0637     158.5702     317.1405      1.367     3.88     876.3613     55.95125     137.9386        13     1.041     0.904 -12.51   0
       586    267.5210    163.6715 307.8253756  +6.6190728     940.7375     1425.946     1904.127      79.8203     159.0118     317.3931      1.659     4.62     874.2723     55.95125     150.1004        10     1.130     0.773 -58.19   0
       587    124.1390    162.4618 307.8849805  +6.6147457     5285.937     7491.702      7148.57      79.5689     158.7596     317.4562      1.505     3.03     877.9016     55.95125     752.2137        27     1.365     0.950 -57.12   0
       588    651.9336    159.6320 307.6658115  +6.6336458      945.944     1417.747     1234.001      79.4429     158.8227     317.3615      1.483     4.52     862.8915     55.95125     168.4252        11     1.306     0.704 -48.56   0
       589    586.3814    160.5222 307.6930152  +6.6310812     807.9341     1011.035     1144.879      79.0637     158.4438     317.3931      1.155     3.15     862.5173     55.95125      166.813         7     0.922     0.627 -46.38   0
       590    463.2632    159.6555 307.7441932  +6.6273085     1530.085     2152.646     1812.359      79.6947     158.7596     317.4246      1.507     2.99     863.7555     55.95125     211.5692        13     0.969     0.833 -41.75   0
       591    394.9586    158.5894 307.7726056  +6.6254548     4030.332     6472.828      6347.11     78.93689     158.5702     317.1721      1.710     3.86     866.9238     55.95125     509.6952        28     1.420     1.074 -81.97   0
       592    571.0461    157.6786 307.6994820  +6.6317409     642.9913      934.067     991.1369      79.5689     158.7596     317.3931      1.586     4.58     862.5117     55.95125     103.9891         8     1.410     0.422 -66.48   0
       593    359.4551    157.3777 307.7873959  +6.6247621     3491.817     5043.614     5291.221      79.0637     158.7596     317.2352      1.562     3.21     869.4759     55.95125      460.453        23     1.262     0.974 -51.13   0
       594    113.6160    157.3367 307.8895254  +6.6165069     1950.244     2942.891     3225.501      79.0637     158.6965     317.2668      1.668     3.69     877.8273     55.95125     252.1617        22     1.260     1.096 -59.66   0
       595    941.2464    157.0220 307.5457014  +6.6444023     580.6925     831.3442     626.2327      79.1903     158.7596     317.2668      1.499     3.81     858.4156     55.95125     77.40509         5     0.827     0.504  32.65   0
       596    675.4201    155.3400 307.6561984  +6.6362046     843.0967     1296.529     1766.833      79.1903     158.6334     317.2984      1.672     4.26     862.9387     55.95125     141.1832         9     1.023     0.657 -51.46   0
       597     51.3634    153.2821 307.9155234  +6.6160828     588.6891     816.9002     586.4398      79.5689     158.7596     317.3931      1.443     3.49     880.5317     55.95125     95.37939         5     0.780     0.451  74.68   0
       598   1005.9255    151.6532 307.5190095  +6.6487788     1643.247      2158.12     2021.206      79.5689     158.7596     317.4246      1.413     2.87     857.4033     55.95125     239.5581        13     0.945     0.812 -55.87   0
       599    732.2322    151.8200 307.6327139  +6.6395603      608.913     635.1205     313.0674      79.0637     158.5702     317.2352      1.098     3.79     862.3481     55.95125     117.2585         5     0.884     0.467 -43.44   0
       600    211.2299    146.3040 307.8493476  +6.6243487     6190.819     8731.763     8616.925      79.6947      158.507     317.4562      1.503     3.01     875.3184     55.95125     853.0358        28     1.308     0.981 -47.55   0
       601     93.8827    146.2832 307.8980972  +6.6204053     2291.065     3469.478     3632.459      79.3167     159.0118     317.5193      1.558     3.37     877.8274     55.95125     333.7382        21     1.307     0.970 -36.14   0
       602    673.0256    145.2109 307.6575342  +6.6403062     7113.235     9485.641     10052.76      79.1903     158.5702     317.2984      1.397     2.97     862.6425     55.95125     1053.325        26     1.192     0.956 -61.40   0
       603    821.0501    145.1656 307.5960372  +6.6452796     1264.366     1529.869     1552.893      79.4429     158.7596     317.3299      1.332     3.74      860.846     55.95125     191.4129         9     1.034     0.640 -38.45   0
       604    625.1677    142.4738 307.6775093  +6.6398326     10484.49      14862.3     16657.55      79.4429     158.7596     317.3931      1.539     2.98     862.2235     55.95125     1477.303        36     1.386     1.056 -54.24   3
       605    628.7423    134.0113 307.6763092  +6.6434462     58696.71     82281.54     86293.93     78.93689     158.6965     317.1405      1.466     2.92     862.0739     55.95125     8958.922        72     1.422     1.170 -55.28   3
       606    260.1710    142.6293 307.8291402  +6.6275126      878.244     1146.359     860.1825      79.0637      158.507     317.1721      1.545     5.29     874.3749     55.95125     109.5271        11     1.101     0.811 -41.16   0
       607    563.1709    141.9861 307.7032826  +6.6379555     655.0867     818.8967     781.5201      79.1903     158.5702     317.3299      1.426     4.65     862.2923     55.95125     92.16852         5     0.952     0.644 -58.74   0
       608     23.9745    141.2459 307.9273089  +6.6201283     1114.206     1694.706     1371.372      79.1903     158.8227     317.2984      1.597     5.61     881.9865     55.95125     154.0176        13     1.265     0.700 -72.97   0
       609    352.4214    138.2674 307.7909633  +6.6324153     4065.154      6296.18     6627.168      79.1903     158.7596     317.3299      1.692     3.62     870.4745     55.95125     544.0792        31     1.557     1.025 -51.52   0
       610    998.6353    137.1949 307.5225235  +6.6545046     866.5648     1279.929     1074.538     78.68266     158.5702     317.2036      1.461     5.07     856.5913     55.95125     125.3339        10     1.102     0.659 -52.11   0
       611    534.2000    137.4510 307.7154715  +6.6388561     1839.088     2573.732     2896.084     78.80988      158.254     316.9509      1.505     3.31     862.3647     55.95125     293.6215        12     1.096     0.682 -44.85   0
       612    307.7879    127.6700 307.8098639  +6.6352899     3937.358      5919.53     6598.902      79.0637      158.507     317.2668      1.642     3.18     872.9907     55.95125     557.5028        29     1.345     1.082 -59.02   0
       613    503.4766    124.6634 307.7286668  +6.6431046     608.9577     832.2509     416.0864      79.8203     158.7596     317.3931      1.264     3.26     862.3824     55.95125     129.6785         5     1.067     0.289 -21.36   0
       614    707.8361    122.0860 307.6438501  +6.6510192     1040.538     1319.607     1213.261      79.5689     158.6965     317.4246      1.284     4.22     861.7283     55.95125     159.2308         8     0.854     0.631 -44.56   0
       615    679.0834    121.3078 307.6558221  +6.6503775     1524.883      1996.21     1410.683      79.3167     159.0748     317.5508      1.413     3.43      861.856     55.95125     209.4705        13     1.136     0.748 -39.22   0
       616      5.4363    110.6009 307.9360484  +6.6321542     720785.6      1502788      1626086     78.68266     158.5702     295.1512      2.114     4.13     883.0634     55.95125     61647.13       343     2.158     1.744 -70.37  28
       617    693.1500    118.0234 307.6500884  +6.6522046     3455.664     4781.892     4494.755      79.1903     158.8227     317.3299      1.431     3.02     861.6932     55.95125     543.0276        21     1.273     0.858 -51.17   0
       618    434.8105    108.9886 307.7577233  +6.6472707     4521.027     6397.748     6514.615      79.3167     158.5702     317.3931      1.466     3.08     863.6556     55.95125     687.5585        23     1.280     0.946 -50.57   0
       619    889.3075    105.4709 307.5690120  +6.6639500     2527.627     3204.527     3446.834      79.4429     158.8858     317.4562      1.355     2.77      856.997     55.95125     376.7843        20     1.292     0.850 -67.20   0
       620    907.4571    104.4387 307.5615058  +6.6649827     4521.216     6184.475     6396.334      79.5689     158.8227     317.4246      1.490     2.97      856.218     55.95125     672.3353        24     1.279     0.884 -51.69   0
       621    587.4288    104.5909 307.6944645  +6.6542075     863.6044     1133.781     1319.281      79.1903     158.5702     317.2668      1.488     4.84     861.5873     55.95125     138.0392         9     1.145     0.579 -14.01   0
       622    599.6219    102.9441 307.6894541  +6.6552961     1901.004     2597.011     2696.146      79.1903     158.7596     317.2352      1.463     3.57     861.4748     55.95125     239.0201        16     1.154     0.886 -41.52   0
       623    245.4516    102.0334 307.8366275  +6.6437769     1008.464     1451.404      2165.48      79.4429     158.7596     317.3299      1.710     4.32     874.5687     55.95125     144.5257        12     1.216     0.668 -48.30   0
       624    398.3908    100.7178 307.7731332  +6.6494620     2066.505     3048.418     2784.374      79.1903     158.3806     317.2668      1.537     3.96     866.2148     55.95125     307.0115        18     1.238     0.982 -10.92   0
       625    146.2143     97.6682 307.8780026  +6.6422382     3553.633     5057.172      5306.98      79.0637     158.6334     317.3299      1.527     3.08     875.1746     55.95125     478.1652        22     1.291     0.901 -39.81   0
       626     28.0558     95.3969 307.9271668  +6.6391937     13421.93     19565.01     20658.71     78.93689     158.5702     317.1089      1.551     3.12     881.1064     55.95125     1807.028        41     1.397     1.127 -62.95   0
       627    294.5517     96.0312 307.8164319  +6.6479065     1486.242     2208.401     2674.036      79.3167     158.7596     317.3299      1.573     4.03     873.7242     55.95125     209.0754        16     1.271     0.876 -44.35   0
       628    948.5575     94.4989 307.5447630  +6.6704596     544.4304     801.9958     874.9521      79.5689     158.6334     317.6455      1.650     3.69     854.6132     55.95125     92.93848         6     0.931     0.421 -71.47   0
       629    762.9091     94.6541 307.6218917  +6.6641882     770.7081     867.1935     918.8142      79.4429     158.5702     317.5508      1.325     3.81     859.9894     55.95125     126.8082         7     0.860     0.755 -42.27   0
       630    567.7764     95.4038 307.7029390  +6.6573413      775.045     1057.166     1290.932      79.1903     158.4438     317.2668      1.323     3.41     861.5076     55.95125     114.3295         5     0.739     0.456 -18.10   0
       631    554.9976     94.9336 307.7082641  +6.6571069     839.7309     1058.369     1440.721     78.93689     158.4438     317.2036      1.379     4.86     861.5907     55.95125     116.8097         9     0.953     0.762 -87.81   0
       632    985.2604     94.1756 307.5295243  +6.6718189     591.3537     678.8175     192.4848      79.1903     158.7596     317.2984      1.176     3.38     854.1319     55.95125     107.7125         6     0.895     0.596 -21.29   0
       633    896.7457     91.2521 307.5663992  +6.6700689     858.4281      1150.97     1075.835      79.6947     158.6965     317.4562      1.557     4.17     856.1649     55.95125     130.3998        10     0.947     0.913 -12.27   0
       634    774.8919     90.6151 307.6170489  +6.6662567     3712.311     5143.222     5310.146      79.3167     158.5702     317.2668      1.439     3.06     859.4149     55.95125     521.2428        22     1.246     0.870 -52.68   0
       635    420.1344     91.1136 307.7644238  +6.6541574     1224.774     1753.829     1607.642      79.5689     158.9488     317.4562      1.514     3.14     864.0611     55.95125     195.2511        11     0.928     0.772 -54.44   0
       636    920.6017     90.6414 307.5565078  +6.6711182     619.1551     827.9938     938.5224     78.93689     158.4438     317.1405      1.631     4.06     855.1945     55.95125     100.0845         6     1.130     0.417 -33.15   0
       637    829.7836     90.1106 307.5942593  +6.6683014     6929.954     9437.693     9812.246      79.3167      158.507     317.2984      1.413     2.88     858.0482     55.95125     1095.948        26     1.176     1.005 -54.26   0
       638    761.3634     89.8609 307.6226951  +6.6661153     624.8601     1092.214     1486.751      79.5689     158.8227     317.3931      2.032     6.11     859.7974     55.95125     96.63202         9     1.271     0.826 -70.97   0
       639    537.3186     88.5642 307.7158238  +6.6591434     1195.729      1738.26     1873.343      79.5689     158.8227     317.3931      1.648     4.09     861.5065     55.95125     172.9916        13     1.148     0.738 -52.34   0
       640    656.8623     88.2072 307.6661687  +6.6632987       662.05     961.0731     944.4969     78.93689     158.5702     317.2352      1.613     3.91     860.7502     55.95125     94.28046         6     0.762     0.575 -37.54   0
       641     68.5874     87.2328 307.9106051  +6.6439307      3566.54     5287.183      5097.38      79.0637      158.507     317.3299      1.546     3.19     877.7736     55.95125     472.5504        24     1.275     0.975 -47.89   0
       642     53.2089     87.8359 307.9169735  +6.6431633     1126.635     1580.906     914.3896      79.0637      158.507     317.2036      1.545     3.29     878.8514     55.95125     180.1196        12     0.955     0.852 -23.04   0
       643    429.3999     86.9057 307.7607163  +6.6562058     1072.397     1491.205     2256.301      79.0637     158.3806     317.0141      1.542     4.62     863.8773     55.95125     148.3014        12     1.164     0.887 -11.30   0
       644    592.0643     83.9903 307.6932327  +6.6628678     1391.749     2084.066     1520.801      79.0637     158.5702     317.2668      1.458     3.30     860.9775     55.95125     241.1251        13     1.141     0.747 -64.62   0
       645     10.8686     82.8129 307.9347333  +6.6438091     2870.953     4464.234     5090.067      79.0637     158.6334     317.2984      1.666     3.07     881.0125     55.95125     438.9294        22     1.169     1.015 -65.01   0
       646    719.3726     80.2830 307.6404637  +6.6686639     580.6397     696.6993     606.1316      79.4429     158.5702     317.3615      1.255     4.05     860.0145     55.95125     117.4332         7     1.008     0.465 -81.44   0
       647    769.5905     77.9934 307.6196761  +6.6712902     2167.061     2996.225     3407.919      79.0637     158.5702     317.2668      1.474     3.32     858.9471     55.95125     329.2158        16     1.184     0.829 -62.83   0
       648    410.0356     78.1859 307.7690558  +6.6591553     1169.411     1654.184     1473.786      79.1903     158.5702     317.2352      1.505     3.62     865.4376     55.95125     157.9604        12     1.050     0.782 -20.64   0
       649     83.3017     78.4116 307.9047909  +6.6480683     935.3614     1377.653     1234.414      79.3167      158.507     317.2352      1.523     4.19     876.6465     55.95125     133.1774         8     0.990     0.549 -73.78   0
       650    661.1939     77.6218 307.6647255  +6.6678139     573.4518     880.4981     1153.568      79.1903      158.507     317.2352      1.660     3.37     860.2413     55.95125     93.92023         5     0.736     0.454 -17.15   0
       651    107.1375     76.8828 307.8949403  +6.6495027     975.6038     1201.568     900.4581      79.6947     158.7596     317.3931      1.325     3.52      875.654     55.95125     125.3371         8     0.796     0.693  46.91   0
       652     96.1311     71.5633 307.8996929  +6.6513278      10319.5     14877.67     14961.06      79.4429     158.8227     317.5193      1.547     3.17     875.8916     55.95125      1485.85        37     1.366     1.110 -71.17   0
       653    425.1939     71.3945 307.7629873  +6.6624682         2844      3782.87       3677.9     78.93689     158.5702     317.2352      1.397     3.01     864.5701     55.95125      399.593        17     1.098     0.882 -47.47   0
       654    246.5158     71.0191 307.8372340  +6.6566166     789.3558      1191.97     1357.774      79.1903     158.4438     317.3931      1.868     5.67     874.0218     55.95125     112.1381         8     1.098     0.824  -3.90   0
       655    638.9076     63.7481 307.6744522  +6.6727949     20587.29     28707.16     30046.74      79.4429     158.6334     317.6455      1.475     3.03     859.8293     55.95125     3104.617        49     1.380     1.120 -56.85   0
       656    262.8177     65.6690 307.8306421  +6.6593737     1542.693     2306.765     3106.462      79.0637     158.6334     317.3615      1.629     3.86      873.809     55.95125     214.1713        15     1.211     0.881 -68.83   0
       657    668.4637     65.2507 307.6621215  +6.6731649     700.5236     879.6057     717.6409      79.5689     158.6965     317.4562      1.215     4.04     859.5236     55.95125     102.4741         7     0.998     0.466 -78.45   0
       658    947.7566     62.8303 307.5461591  +6.6835074     581.3127     835.4854     836.3961      79.1903     158.7596     317.2984      1.524     4.55     853.7755     55.95125     79.49078         5     1.254     0.469 -61.17   0
       659    257.0224     60.1557 307.8332362  +6.6614549     2088.174     3300.959     4635.231      79.0637     158.6334     317.2352      1.784     3.14     873.7451     55.95125     354.9002        20     1.156     1.040 -67.80   0
       660    538.6637     59.7570 307.7162362  +6.6710815     5691.455     7822.529     7806.578      79.5689     158.6965     317.4562      1.462     2.93     860.5274     55.95125     816.2076        25     1.234     0.967 -54.11   0
       661    695.1685     58.6108 307.6512496  +6.6768007     580.2052     911.4702     1636.039      79.0637      158.507     317.2984      3.326     4.83     858.9773     55.95125     83.28674         6     0.961     0.687 -74.41   0
       662    626.2218     57.5633 307.6799313  +6.6749231     856.3319     1535.754     2328.933      79.1903      158.507     317.2036      2.296     5.15      859.757     55.95125     120.7701         9     1.241     0.623 -59.40   3
       663    625.0694     53.5763 307.6805444  +6.6765305      3488.38     5006.832     5774.992      79.1903     158.6334     317.3931      1.578     3.21     859.6175     55.95125     478.2949        25     1.347     0.978 -62.43   2
       664     53.1026     59.6039 307.9179740  +6.6548147     3554.492     3695.697     3550.314      79.3167     158.4438     317.1089      0.966     3.05     877.1231     55.95125     1063.672         5     0.966     0.281  25.64   0
       665      5.8633     57.9833 307.9376541  +6.6538906     1402.504     1952.884     2191.896      79.0637     158.6965     299.6314      1.475     4.18     878.3815     55.95125     160.8345        16     1.209     0.953 -26.51  16
       666    444.2537     55.3840 307.7556088  +6.6697181     24792.55     35274.18     36913.68     78.93689     158.7596     317.1405      1.521     2.98     863.9124     55.95125     3382.528        49     1.390     1.115 -55.64   0
       667    264.8098     55.6856 307.8301519  +6.6635623     10170.76     14626.35     15726.34      79.1903     158.4438     317.2668      1.540     3.06     873.6346     55.95125     1511.454        37     1.338     1.096 -63.24   0
       668    922.0777     55.5567 307.5570729  +6.6856524     2227.303     3008.891     2629.328      79.4429     158.7596     317.4246      1.415     2.77     854.8848     55.95125     386.8312        17     1.080     0.887 -64.49   0
       669    556.9192     55.6534 307.7087897  +6.6733880     739.3286     1083.378      955.324      79.5689     158.7596     317.4877      1.480     5.24      860.207     55.95125     151.8608         8     1.450     0.535 -50.02   0
       670    324.7248     56.2908 307.8052389  +6.6653275     1061.856     1587.786     1796.812      79.5689     159.0118     317.4562      1.562     3.38     872.4001     55.95125     157.3438         8     0.886     0.648  83.83   0
       671    509.9596     56.4925 307.7282722  +6.6714661     534.2278     845.4922     933.0667      79.6947     158.6965     317.5193      1.413     3.74     860.9895     55.95125     86.99487         6     0.804     0.499   1.92   0
       672     30.2099     55.2637 307.9276316  +6.6558345     2607.567     3707.529     4049.836      79.0637     158.5702     317.2668      1.526     3.20     877.4095     55.95125     352.5692        19     1.147     0.947 -49.87   0
       673    252.7137     52.3989 307.8352885  +6.6645122     3240.009      4631.77     5812.395     78.80988     158.3173     317.1405      1.624     3.16     873.6194     55.95125     449.6546        21     1.302     0.914 -69.33   0
       674    305.8651     50.5950 307.8132669  +6.6670448     1088.778      1815.11     2147.276      79.0637     158.4438     317.2036      1.784     3.33     872.9492     55.95125     149.0706        13     1.017     0.846 -67.40   0
       675    694.2347     44.9848 307.6520963  +6.6823949     1996.944     2817.655     2828.711      79.1903      158.507     317.2668      1.500     3.58      858.215     55.95125     293.9125        17     1.279     0.783 -63.09   0
       676    942.5588     45.6698 307.5488950  +6.6904185     1083.701     1612.569     1957.449      79.4429     158.7596     317.4877      1.671     3.80     853.6819     55.95125     134.3423        12     1.058     0.776 -49.71   0
       677    205.3843     40.5509 307.8553528  +6.6678106     808.9523     1078.176      860.546      79.0637     158.8227     317.1405      1.572     5.13      873.463     55.95125     103.6996         9     1.107     0.673 -49.79   0
       678    259.6365     39.8048 307.8328381  +6.6699444      892.912     1158.672     1867.813     78.68266      158.507     317.2352      1.468     4.29     873.3857     55.95125     127.0536        10     0.982     0.743 -13.11   0
       679    182.3165     37.8023 307.8650296  +6.6681687     11748.17     16634.97      17193.2     78.93689     158.3806     317.1089      1.506     3.06     873.3891     55.95125     1648.743        35     1.330     1.046 -56.06   0
       680    526.6044     35.9525 307.7220492  +6.6805044     3168.544     4664.553     4802.914     78.93689     158.5702     317.1089      1.516     3.09     860.0671     55.95125     473.1172        21     1.249     0.954 -59.00   0
       681    927.9278     35.6036 307.5553123  +6.6940856     4648.776     6188.821     6468.274      79.0637     158.3173     317.2668      1.403     3.11     854.7001     55.95125     670.7105        21     1.198     0.878 -52.20   0
       682    728.7914     34.2559 307.6380992  +6.6879815     2299.713     3193.854     3421.729     78.93689     158.6334     317.1405      1.477     3.02     857.2164     55.95125     341.9532        20     1.287     0.856 -72.80   0
       683    464.7013     34.3879 307.7478217  +6.6790727     1980.089     2482.068     2371.867      79.3167      158.507     317.2036      1.370     2.85     862.6183     55.95125     276.6423        14     1.014     0.804 -62.75   0
       684    992.8480     31.6185 307.5284712  +6.6978992     2178.448     3311.031     3593.788      79.0637     158.7596     317.2352      1.669     3.44     848.7609     55.95125     333.9373        20     1.412     0.821 -58.28   0
       685    787.2943     31.7025 307.6138772  +6.6909939     513.1878     765.7883      593.486      79.5689     159.3265     317.2668      1.728     4.36     856.6087     55.95125     109.8608         6     1.263     0.429  82.54   0
       686    712.1331     28.2613 307.6452224  +6.6898986     8244.923     11500.55     12086.32      79.5689     158.6965     317.4246      1.466     3.04     857.0628     55.95125      1192.46        30     1.299     1.007 -57.40   0
       687    632.2780     27.6260 307.6784234  +6.6874856     4168.127      5717.83     6096.899      79.3167     158.6965     317.3931      1.459     2.97      858.461     55.95125      599.405        20     1.222     0.838 -54.81   0
       688    334.3796     27.0020 307.8022171  +6.6777436     1000.794     1329.564     2273.102      79.1903     158.4438     317.1405      1.438     3.90     872.0275     55.95125     157.5002        10     0.977     0.806 -53.88   0
       689    548.7966   1019.6661 307.6796930  +6.2751188     4400.312     6747.878     7131.231     78.93689      158.507     294.1312      1.592     3.03     892.2972     55.95125     689.0137        30     1.436     1.071 -70.01  16
       690    388.1111     25.9623 307.7799279  +6.6799787     768.2053     862.2077     473.3087      79.5689     158.6965     317.4562      1.363     3.42     868.9401     55.95125     144.3418         9     0.912     0.774   9.94   0
       691    432.5069     23.7112 307.7615582  +6.6823995     6881.953     9428.599     9407.351      79.5689     159.2007     317.4877      1.490     3.03     865.4603     55.95125     900.2864        29     1.266     1.013 -46.05   0
       692    679.6184     22.7816 307.6589167  +6.6910719     925.6989     1191.835     876.6419      79.3167     158.5702     317.3615      1.320     3.26     857.1826     55.95125     137.1309         9     0.904     0.668 -27.60   0
       693    508.1917     20.5954 307.7302173  +6.6862267     997.7178     1321.983     1835.611     78.93689      158.507     317.2668      1.488     3.42     860.2773     55.95125     168.4062         9     0.952     0.702 -38.43   0
       694    519.0394   1021.1464 307.6919971  +6.2735102     1257.624     1847.402     2162.155      79.4429       155.83     276.5419      1.586     3.89     892.5624     55.95125     194.5942        14     1.175     0.871 -61.33  16
       695    423.9732     19.3727 307.7652503  +6.6839039     835.4351     1071.273     447.0947      79.0637     158.5702     317.2668      1.400     4.77      866.429     55.95125     126.3808         9     1.042     0.619 -58.06   0
       696    102.6690     18.9417 307.8987585  +6.6732719     2737.389     3715.555     3804.985      79.6947     158.6965     317.3615      1.453     3.41     875.0922     55.95125       362.51        18     1.207     0.838 -66.40   0
       697    797.3492     17.2684 307.6101847  +6.6972894     882.3859     961.8607     984.9546      79.4429     158.6334     317.3615      1.198     3.79     855.9692     55.95125     150.0432         9     1.118     0.568 -48.73   0
       698    753.3113   1019.2860 307.5947982  +6.2821236     8370.146     12218.99     12561.93      79.3167     159.0118     298.3582      1.550     3.13     890.3407     55.95125     1119.158        31     1.310     1.063 -43.79  16
       699     93.9663     17.7556 307.9024143  +6.6734683     1666.608     2171.943     2108.646      79.1903     158.6965     317.3299      1.494     3.83     875.2538     55.95125     212.7186        15     1.135     0.862 -33.27   0
       700    463.8397     16.8710 307.7487707  +6.6862755     540.9531     632.6605     480.7924      79.4429     158.7596     317.4877      1.318     4.57     862.7396     55.95125     80.08252         6     0.987     0.600 -62.19   0
       701    990.2056     13.7027 307.5301704  +6.7052076     612.9246     800.3807     996.3566      79.3167     158.4438     317.2036      1.388     3.27     847.5792     55.95125     96.83929         6     0.737     0.619  63.45   0
       702    299.1034   1018.4102 307.7833963  +6.2672582      16212.5      23481.7     25194.71      79.3167     158.3806     306.3432      1.578     3.23     895.6273     55.95125     2328.698        50     1.741     1.071 -40.78  16
       703    423.4073   1018.6689 307.7317828  +6.2713253     982.9705     1655.263     1897.595      79.0637     158.4438     304.0785      1.881     4.59     892.7101     55.95125      191.592        14     1.434     0.850 -61.80  16
       704    814.4184   1018.6381 307.5694500  +6.2844346     1283.364     1790.568     2034.815      79.1903     158.6334     304.3419      1.571     3.33      889.275     55.95125     173.6957        13     0.997     0.885 -10.76  16
       705    125.2248   1018.6555 307.8555720  +6.2613099     470.6638     597.1014     471.4655      79.1903     158.7596     304.2102      1.238     2.57     893.0986     55.95125     106.4437         5     0.721     0.447 -16.53  16
       706    270.2051   1015.7201 307.7954841  +6.2673977      1011.11     1374.817     1062.568      79.1903     158.3173     317.2036      1.390     3.70     895.8036     55.95125     172.6286         8     0.856     0.677 -62.41   0
       707    914.7433   1012.7289 307.5279957  +6.2902265     8851.829      13907.3     14331.51      79.6947     158.6965     317.3931      1.681     3.34     886.5866     55.95125     1065.861        41     1.439     1.257 -44.29   0
       708    546.0353   1011.9777 307.6810981  +6.2782005     9231.442     13034.15     14517.45      79.0637      158.507     317.2036      1.468     2.97     892.2443     55.95125     1405.866        34     1.334     1.048 -50.44   0
       709    888.3280   1008.8810 307.5390918  +6.2909328     12926.55     20227.99     21648.24      79.8203     159.0748     317.4562      1.704     3.30     886.3815     55.95125     1715.432        52     1.522     1.293 -36.70   0
       710   1010.0016   1008.4452 307.4885897  +6.2951750      4649.66     7933.073     8500.044     78.93689     158.3806     317.0457      1.830     3.73     881.3095     55.95125     540.1738        36     1.535     1.258 -48.64   0
       711    601.1277   1009.2455 307.6583176  +6.2811746     1466.676     2045.835     2680.555      79.4429     158.8227     317.4246      1.496     3.65     892.0745     55.95125     204.8043        14     1.177     0.809 -48.61   0
       712    532.8176   1007.9818 307.6867201  +6.2794072      4292.51     6716.119     8105.363      79.3167     158.4438     317.3615      1.799     3.43     892.3155     55.95125     674.8998        34     1.593     1.191  -7.49   0
       713    641.9599   1007.0756 307.6414384  +6.2834381     1504.512     2284.491     2845.782      79.4429     158.7596     317.4562      1.675     3.11     891.8423     55.95125     206.5645        14     0.998     0.895 -11.23   0
       714     67.3518   1006.5320 307.8800069  +6.2643668     835.0535     1191.667     1270.203      79.5689     158.6965     317.4246      1.545     4.91     893.4147     55.95125     111.4084        11     1.202     0.657 -42.24   0
