#   1 NUMBER                 Running object number                                     
#   2 X_IMAGE                Object position along x                                    [pixel]
#   3 Y_IMAGE                Object position along y                                    [pixel]
#   4 ALPHA_J2000            Right ascension of barycenter (J2000)                      [deg]
#   5 DELTA_J2000            Declination of barycenter (J2000)                          [deg]
#   6 FLUX_APER              Flux vector within fixed circular aperture(s)              [count]
#   9 FLUXERR_APER           RMS error vector for aperture flux(es)                     [count]
#  12 FLUX_RADIUS            Fraction-of-light radii                                    [pixel]
#  13 FWHM_IMAGE             FWHM assuming a gaussian core                              [pixel]
#  14 BACKGROUND             Background at centroid position                            [count]
#  15 THRESHOLD              Detection threshold above background                       [count]
#  16 FLUX_MAX               Peak flux above background                                 [count]
#  17 ISOAREA_IMAGE          Isophotal area above Analysis threshold                    [pixel**2]
#  18 A_IMAGE                Profile RMS along major axis                               [pixel]
#  19 B_IMAGE                Profile RMS along minor axis                               [pixel]
#  20 THETA_IMAGE            Position angle (CCW/x)                                     [deg]
#  21 FLAGS                  Extraction flags                                          
         1    335.8149     21.3782 307.8047518  +6.6809955      13512.1      20279.7     21789.33     80.69974     161.3352     322.8953      1.638     3.64     914.4637     56.92687     1785.316        43     1.534     1.055 -74.87   0
         2    402.0466     19.3045 307.7772997  +6.6840770     2512.244     3482.253     3160.694     80.82814     161.4637     323.1201      1.492     4.03      908.687     56.92687      316.972        17     1.295     0.801 -72.53   0
         3    662.8264     14.8077 307.6690833  +6.6946806     11457.55     16734.58     17563.02     80.57114     161.3352      322.799      1.540     3.51     899.9178     56.92687     1665.365        38     1.465     0.987 -71.73   0
         4     81.2033     15.4654 307.9107517  +6.6748677     708.6022     1023.902     513.6608     80.18408     161.2709     322.7347      1.324     4.47      918.304     56.92687     133.6591         8     1.415     0.402 -89.87   0
         5    540.6155     14.5075 307.7198792  +6.6907083     1484.475     2179.599     1926.698     80.69974     161.3352     322.8311      1.604     3.84     902.1359     56.92687     201.8205        15     1.215     0.840 -83.97   0
         6    827.5540     14.3497 307.6006436  +6.7003828     1758.398     2809.984     3701.662     80.95634     161.3995     323.0237      1.951     3.97     896.6426     56.92687     274.3414        16     1.194     0.975 -63.70   0
         7    263.2117     11.5881 307.8352524  +6.6825962     6599.906     10454.63     11119.88     80.82814     161.3352     322.8953      1.770     4.09     918.8364     56.92687     929.0085        41     1.765     1.129 -44.14  16
         8    897.6732     12.1870 307.5715768  +6.7036195     1615.177     2292.265     2304.506     80.44232     161.2066     322.7347      1.547     3.70     896.1118     56.92687     225.2504        15     1.205     0.806 -73.43   0
         9    654.4886     10.2621 307.6727013  +6.6962780     9790.054     13859.94     15321.55     80.95634     161.6563     323.0237      1.559     3.58     899.7217     56.92687     1368.979        33     1.502     0.910 -65.18   0
        10    684.4009      9.4006 307.6602999  +6.6976355     9271.838      14272.7        15416     80.31331     161.0779     322.6383      1.642     3.99     899.5524     56.92687     1123.647        26     1.441     0.923 -77.38  19
        11    687.7671      7.0399 307.6589805  +6.6987229     14392.79     21135.89     22074.18     80.69974     161.3352     315.4221      1.553     3.66     899.3873     56.92687     1980.212        34     1.538     1.011 -66.68  19
        12    439.7511     11.9919 307.7618787  +6.6883621     543.3159      714.986     541.9005     80.44232     161.3352     322.6061      1.554     4.79     906.2256     56.92687     79.69147         5     0.960     0.676  61.25   0
        13    424.3604     10.3277 307.7683305  +6.6885324     8517.917     12727.92     13267.92     80.82814     161.5279     323.0237      1.617     3.60     907.2122     56.92687     1145.176        30     1.407     0.974 -69.65   0
        14    739.8824      9.1617 307.6372517  +6.6995917     2006.476     2835.769     3103.043     80.95634     161.5921     322.9274      1.458     4.06     897.8797     56.92687     264.1356        15     1.277     0.743 -71.69   0
        15    203.5042      6.8174 307.8602246  +6.6825568     1105.017     2146.448     2226.429     80.82814     161.3352      313.774      2.103     5.55     918.6839     56.92687     170.3753        20     1.568     1.175 -24.38  16
        16    663.8597      6.1929 307.6689441  +6.6982719     3355.233     4858.882     6238.589     80.31331     161.3995     308.1043      1.577     3.57     899.7332     56.92687     478.3589        22     1.397     0.860 -81.23  17
        17     70.7338      3.2587 307.9155156  +6.6795542     3409.907     4945.746     5041.203     81.08434     153.3606      273.211      1.566     4.08     917.3447     56.92687     441.5385        22     1.387     0.897 -73.98  24
        18    953.0998      2.8064 307.5488580  +6.7093439     961.7126     1252.824     1488.918     80.69974     148.4122     266.4859      1.522     5.31     893.1121     56.92687     149.6866        10     1.229     0.736 -60.86  24
        19    161.1295      1.7679 307.8780038  +6.6832149     3985.252     4744.666     4767.477     75.52203     134.8674     250.2297      1.175     2.55     918.6062     56.92687     765.5161        16     0.959     0.811 -12.18  24
        20      1.1455    998.0577 307.9107259  +6.2665106     972.6477     1249.653     1283.103      67.8553     125.3839     239.6885      1.156     3.41      939.229     56.92687     302.3107         7     1.135     0.350  87.76  24
        21    821.3250   1021.1263 307.5693971  +6.2845084     1171.112     1743.229     1500.208     81.21212     158.8086     281.6954      1.640     4.35     930.0132     56.92687     165.7112        13     1.245     0.808 -83.92  24
        22    760.2570   1021.7915 307.5947320  +6.2821922     8067.237     12094.46     12277.49     80.31331     153.0221     272.2986      1.584     3.68     931.6801     56.92687     1050.599        33     1.436     1.038 -64.54  24
        23    555.7509   1022.2581 307.6796324  +6.2751538     4317.799     6058.547     6285.034     80.95634     147.7118     265.4722      1.544     4.01     935.9455     56.92687     630.9368        23     1.340     0.920 -68.83  24
        24    525.8550   1023.3745 307.6920081  +6.2736909     971.4648     1171.423     1343.802      73.8559     133.0872     247.8144      1.248     3.83     936.2169     56.92687     173.7215         8     0.894     0.682 -23.82  24
        25    430.2313   1021.6529 307.7317706  +6.2711951     1097.607     1500.402     1426.363     80.82814     154.1026     274.2718      1.420     4.39     935.6031     56.92687     156.1809        12     1.210     0.707 -65.04  24
        26    305.9730   1021.0947 307.7833827  +6.2672542     15286.29     23548.38     24562.58     81.08433     158.4818     281.8794      1.645     4.01     937.3424     56.92687     2273.124        47     1.753     1.092 -51.55  24
        27    633.1078    995.6382 307.6484076  +6.2887353     897.9515     1106.574     932.5245     81.08433     161.4637     323.0237      1.389     3.52     933.5436     56.92687     147.6894        11     1.012     0.751 -75.30   0
        28    122.3482    995.9747 307.8604733  +6.2714516      572.759     664.1126     688.1071     80.57114     161.5279     322.8632      1.297     4.37     936.5805     56.92687     100.1609         6     0.849     0.641 -51.44   0
        29    824.8529    992.7372 307.5688855  +6.2963474     2202.093     3552.866     2987.232     80.95634     161.4637     322.9274      1.724     3.74     929.1692     56.92687     299.9565        23     1.356     1.045 -73.12   0
        30    773.0121    990.7688 307.5904780  +6.2954271     6784.721     10548.67     11542.82     80.44232     161.2709     322.8632      1.667     3.77     930.4813     56.92687     979.3391        36     1.605     1.008 -73.72   0
        31    242.5346    989.9090 307.8107759  +6.2779978     1713.472     2453.281     2519.121     80.82814     161.7204     322.9595      1.584     4.16     937.3044     56.92687     252.3579        17     1.350     0.852 -69.01   0
        32    559.9174    989.9019 307.6789917  +6.2886521     875.5191      1394.47     1359.144     80.95634     161.9127     323.0558      1.746     4.29     934.9997     56.92687     154.3511         8     1.129     0.648 -60.95   0
        33    961.2391    985.9165 307.5124806  +6.3037185     6674.888     10869.22     10804.93     80.95634     161.4637     322.8953      1.714     3.95     926.2739     56.92687     869.8673        36     1.531     1.143 -71.90   0
        34    207.8601    988.7015 307.8252139  +6.2773307     711.2354     1157.573     1277.974     80.69974     161.4637      323.088      1.745     4.14     937.1064     56.92687     154.7684         6     1.419     0.345 -47.60   0
        35     67.4967    987.8138 307.8835238  +6.2729745     2893.143     4342.314     4510.952     80.82814     161.2709     322.7347      1.569     4.05     937.3176     56.92687     420.7505        20     1.388     0.779 -68.20   0
        36    935.0872    977.5418 307.5236211  +6.3063032     2141.925     3388.362     3699.402     80.95634     161.5279      323.088      1.678     3.79      927.065     56.92687     299.5914        21     1.443     0.895 -72.53   0
        37    643.6825    979.7966 307.6445496  +6.2956299     791.5059     1097.232     820.4771     80.31331     161.1423     322.6383      1.331     4.47     933.1909     56.92687     126.2676         7     1.074     0.528 -63.47   0
        38    655.7130    973.4319 307.6397682  +6.2986604     4742.839     7154.587      7252.55     81.08434     161.3352     322.9274      1.645     3.97     932.8827     56.92687     673.7554        31     1.528     0.988 -71.55   0
        39    267.9700    973.5642 307.8007667  +6.2856007     4708.064     7078.042     7460.276     80.57114     161.2709      322.799      1.599     3.90     937.2872     56.92687     673.1375        27     1.572     0.847 -75.17   0
        40    794.4818    973.9180 307.5821289  +6.3031021     1313.641     1763.637     2379.147     80.95634     161.7845     323.0558      1.412     4.08     929.4017     56.92687     197.3162        12     1.303     0.604 -60.61   0
        41   1004.9919    973.2413 307.4947371  +6.3104117     777.2806     1138.806     1111.282     80.31331     161.3352     322.7025      1.592     4.21     924.4153     56.92687     101.6495         7     0.757     0.668  -8.18   0
        42    478.0629    971.7298 307.7135924  +6.2934108     1128.067     1635.473     1808.288     80.95634     161.5279     322.9916      1.470     4.03     935.5456     56.92687      174.415         9     1.122     0.622 -69.64   0
        43     36.6283    970.9814 307.8969100  +6.2788843     2412.306     3482.528     3885.014     80.57114     161.3352     322.8953      1.622     3.90     937.7465     56.92687     328.1744        17     1.227     0.871 -71.58   0
        44    887.5353    970.0076 307.5436198  +6.3078260     878.3358     1460.506     1434.288     80.44232     161.2709     322.8311      1.630     4.85     927.5284     56.92687     128.5846         9     1.151     0.607 -76.96   0
        45    304.0797    967.2650 307.7859858  +6.2894146     759.9687     1122.926      1292.18     81.21212     161.5921     322.9274      1.519     4.67     937.2869     56.92687     111.4968         9     1.329     0.465 -64.11   0
        46   1011.4653    965.7221 307.4923011  +6.3137322     939.1714     1612.323     1476.607     81.08434     161.5279     322.9274      1.953     6.08     924.1993     56.92687     120.8413        12     1.457     0.713 -55.81   0
        47    958.8340    966.8464 307.5141189  +6.3115118     736.0856     1111.981     891.0043     80.57114     161.5279     322.8953      1.588     4.47     925.8951     56.92687     109.6425         8     0.864     0.657 -51.38   0
        48    580.7782    966.0170 307.6711337  +6.2992122      1743.49     2635.086      2339.85     80.69974     161.3995     322.8953      1.546     4.12     934.0212     56.92687     244.4081        17     1.228     1.004  73.18   0
        49    619.3967    962.5388 307.6552148  +6.3019418     1326.196     1793.722     1765.456     80.31331     161.2709     322.6704      1.520     4.48     933.2947     56.92687     183.6141        13     1.322     0.637 -66.31   0
        50     69.4521    962.7338 307.8835604  +6.2833946     831.7542      1281.14     1758.368     80.95634     161.4637     322.8953      1.999     5.64      937.057     56.92687     124.0117        11     1.089     0.822 -83.77   0
        51    299.3789    959.8926 307.7881866  +6.2923004     1595.521     2323.922     2586.457     80.82814     161.3352     322.7668      1.613     4.70     937.2913     56.92687     238.3252        14     1.347     0.756 -74.87   0
        52    567.4824    958.2874 307.6769149  +6.3019581     725.8229     945.4901     780.8605     80.69974     161.7204     323.0237      1.446     4.20     934.1187     56.92687     108.2478         7     1.068     0.470 -79.85   0
        53    766.6130    956.6979 307.5942800  +6.3092799     1023.685     1443.461     1296.099     80.82814     161.2709     322.7025      1.572     4.30      929.627     56.92687     163.2075         8     0.989     0.534 -69.49   0
        54    903.9663    952.7206 307.5373769  +6.3155121     7094.952     10956.77     11008.44     80.82814     161.5279     322.9595      1.654     3.52     926.8732     56.92687     948.4396        32     1.461     1.027 -72.68   0
        55    142.0262    954.1534 307.8537168  +6.2893797     508.4521     516.7371     620.0529     80.57114     161.5921     322.8632      1.179     3.75     936.5805     56.92687      91.1106         5     0.800     0.504 -60.76   0
        56    439.8300    949.9312 307.7302028  +6.3011282     2261.005     3418.257     3071.379     80.82814     161.5279     322.9274      1.534     3.85     935.5557     56.92687     312.9656        19     1.376     0.811 -81.23   0
        57    113.3466    951.3916 307.8657185  +6.2895548     492.6324     937.8878     478.9976     80.44232     161.3995     322.6704      1.602     3.41     936.5805     56.92687     93.74915         5     1.020     0.329 -69.14   0
        58    608.4066    950.5908 307.6601804  +6.3065067     596.1646     613.0651     681.9263     80.31331     161.3352      322.799      1.323     4.59     933.4592     56.92687     94.79242         7     0.911     0.656  70.92   0
        59    341.4959    948.2441 307.7710915  +6.2985242     10200.12     14933.14        15618     80.95634     161.4637      323.088      1.561     3.99     937.1574     56.92687     1438.864        34     1.494     0.942 -71.73   0
        60    261.5698    947.1271 307.8043170  +6.2963004     7372.948     11032.61        11219     80.82814     161.5279     322.9595      1.579     3.75     937.2315     56.92687     1132.633        32     1.525     0.936 -72.20   0
        61    773.9738    941.7325 307.5917262  +6.3157048     757.7137     1203.858     1082.466     80.57114     161.3995     322.8632      1.705     4.73      928.965     56.92687     101.8209         8     1.074     0.590 -68.45   0
        62    589.8179    941.5526 307.6682035  +6.3096156     1289.993     1863.869     2626.711     80.44232     161.4637     322.7347      1.639     4.32     933.5842     56.92687     180.5191        12     1.131     0.721 -62.12   0
        63    919.8359    937.9125 307.5312837  +6.3221559       1145.1      1595.36     1694.069     80.95634     161.3995     322.9595      1.597     4.11     926.0276     56.92687     175.5146        12     1.264     0.660 -76.38   0
        64    417.9123    936.8038 307.7397465  +6.3058126      690.837     990.9968     130.5869     80.44232     161.2066     322.6383      1.522     4.80     935.5881     56.92687     97.07916         7     0.939     0.695 -49.57   0
        65    151.9770    936.8063 307.8501715  +6.2968763     474.0476     757.2763     684.7186     80.44232     161.3352      322.799      2.217     4.63     936.5805     56.92687     73.87244         5     1.222     0.498 -70.47   0
        66    876.2488    936.2575 307.5494394  +6.3213835     707.2661     741.0841     274.8616     80.95634     161.5279      323.088      1.313     3.19     927.2502     56.92687     127.8832         7     0.853     0.590 -61.38   0
        67    986.8251    933.5593 307.5036114  +6.3261893     688.5379     1154.386     1544.506     80.57114     161.3995     322.7347      2.237     5.44     924.6024     56.92687     114.0531         8     1.121     0.745 -48.59   0
        68    756.0472    930.9938 307.5995313  +6.3195390     1781.227     2395.513     2805.673     80.44232     161.3352     322.6061      1.476     4.09     929.2256     56.92687     262.1129        14     1.254     0.714 -77.90   0
        69    579.5396    931.4536 307.6728116  +6.3134408     745.3269     931.8007     131.9103     80.95634     161.4637     322.9274      1.455     4.61     933.5002     56.92687     103.1201         8     1.017     0.593 -52.04   0
        70      6.5891    928.0214 307.9108369  +6.2956083     1055.686     1400.983      1214.11     80.57114     161.2709     311.6849      1.425     4.60      937.171     56.92687     163.2318        11     1.196     0.654 -77.29  16
        71    631.3960    927.3876 307.6514149  +6.3168564     637.7455     829.8542     592.2845     80.57114     161.2066     322.8311      1.353     3.44     932.5122     56.92687     93.93896         5     1.103     0.311 -69.10   0
        72    620.0235    927.5802 307.6561309  +6.3163960     905.1171     1257.991     1134.135     80.69974     161.3352     322.8953      1.597     4.70     932.9481     56.92687     121.6942         9     1.109     0.566 -64.41   0
        73    541.1061    926.8333 307.6889267  +6.3140605     1244.427     1421.525     1098.733     81.08433     161.3995     323.0558      1.400     3.80     933.6367     56.92687     187.5685        12     1.194     0.683 -80.10   0
        74    987.3455    926.4481 307.5036338  +6.3291427     1329.212     1922.392     1709.072     80.95634     161.5279     323.0237      1.718     4.21     924.3318     56.92687     182.4919        13     1.275     0.708 -76.00   0
        75    674.6026    924.1746 307.6335811  +6.3196294     2789.015     4160.231     4374.273     80.57114     161.2066     322.7668      1.538     3.61     930.8444     56.92687     393.3504        20     1.426     0.817 -75.57   0
        76     71.1913    920.4493 307.8842690  +6.3009103     2961.037     4696.904     4133.746     80.44232     161.3352     322.6383      1.652     4.57     936.6656     56.92687     398.3388        25     1.551     0.872 -76.18   0
        77    965.1885    922.6152 307.5129634  +6.3299858     717.6067     1203.467     1542.093     80.57114     161.2066     322.8953      1.714     2.80     924.5817     56.92687     110.3271         5     0.719     0.457 -17.51   0
        78     88.5457    919.5579 307.8770931  +6.3018626     1966.648     2876.331     2838.917     80.82814     161.5279     322.9595      1.595     4.11     936.5612     56.92687     278.2357        19     1.425     0.806 -74.15   0
        79    835.3098    920.3993 307.5669723  +6.3265631      736.391     1088.501     614.9399     80.18408     161.0135     322.6704      1.487     5.15     927.4355     56.92687     143.1587         9     1.275     0.589  80.36   0
        80    214.7190    919.2794 307.8247116  +6.3062225     2346.455     3716.632     3902.043     81.21213     161.7845     323.1201      1.718     4.27     936.9707     56.92687     342.2231        20     1.494     0.822 -66.06   0
        81    952.8265    919.7904 307.5181918  +6.3307394     784.0049     1327.276     1581.002     80.57114     161.3352     322.8311      1.922     5.02     924.7192     56.92687     103.4363         8     1.037     0.688 -69.54   0
        82    248.6280    915.9531 307.8107437  +6.3087358     887.7584     1330.941     903.2399     80.57114     161.5921     322.8953      1.474     4.47      937.145     56.92687     147.6366        10     1.205     0.597 -59.70   0
        83    669.2216    913.3468 307.6361799  +6.3239198     7335.825      10827.8     11548.52     80.44232     161.5279     322.7668      1.589     4.00     930.6534     56.92687     1022.943        29     1.454     0.928 -71.72   0
        84    353.5514    915.4954 307.7671906  +6.3124496     987.8751     1245.966     1890.269     80.82814     161.3995     323.1201      1.494     4.98     936.9489     56.92687     149.1142         8     1.105     0.635 -89.07   0
        85    806.8071    914.0637 307.5790213  +6.3282262     852.8563     1387.461     1520.497     80.31331     161.2066      322.799      1.841     6.13     927.5417     56.92687     112.8996        12     1.351     0.781 -68.57   0
        86     29.3886    911.5923 307.9019262  +6.3031591     1223.257     1635.121     1309.615     80.57114     161.3352     322.8632      1.524     5.70     936.7933     56.92687     180.7744        13     1.325     0.691 -75.75   0
        87    907.0768    909.6541 307.5375304  +6.3333970     2901.118     4320.682     4229.772     81.08433     161.5279     322.9595      1.582     3.72     925.7798     56.92687     398.9862        21     1.311     0.905 -70.81   0
        88     42.3093    910.2911 307.8966052  +6.3041315     1213.609     1818.344     1761.365     80.95634     162.0407     323.0558      1.552     5.19     936.7028     56.92687     174.7946        13     1.233     0.749 -72.22   0
        89    352.2237    906.4636 307.7680467  +6.3161339     17669.98     25538.93      26376.1     80.57114     161.5279     322.8632      1.554     3.89     936.9332     56.92687     2426.532        41     1.507     0.981 -70.36   0
        90     86.9117    907.4491 307.8781813  +6.3068067     1298.412     2182.351     1559.748     80.95634     161.3995     323.0558      1.717     5.19     936.4642     56.92687     170.3076        13     1.404     0.739 -58.03   0
        91    222.9493    905.9131 307.8217457  +6.3120176      1326.57     1960.939     1660.592     80.95634     161.3995     323.0558      1.529     4.29     937.0286     56.92687     211.5696        12     1.278     0.654 -63.95   0
        92    402.8820    905.2064 307.7470533  +6.3183535     555.9064     718.2512       744.09     80.57114     161.0779     322.7668      1.410     4.63     935.7105     56.92687     85.21173         7     1.161     0.524 -37.21   0
        93    683.6574    893.4138 307.6308556  +6.3326327     955.9997     1629.221     2599.429     80.31331     161.3995     322.6383      2.897     7.15     929.6056     56.92687     179.4094        11     1.910     0.750 -59.16   2
        94    429.9092    897.3030 307.7360967  +6.3225235     1265.451     1983.692     2168.432     80.95634     162.0407     322.9595      1.675     3.51     935.1411     56.92687     196.5064        14     1.147     0.803 -78.33   0
        95    115.4131    897.1648 307.8666944  +6.3120120     1733.114     2381.382     2330.631     80.44232     161.3352      322.799      1.451     4.10     936.4119     56.92687     255.8008        15     1.275     0.739 -71.81   0
        96    510.4930    894.2196 307.7027376  +6.3264993     668.9678     1070.544     1417.743     80.82814     161.3352      322.799      1.772     4.15     933.6371     56.92687     113.8285         6     1.056     0.486 -82.88   0
        97    897.2387    891.3530 307.5422301  +6.3406244      1898.77     2789.314     2685.442     80.82814     161.5279      322.799      1.548     4.23     925.6661     56.92687     232.8672        16     1.269     0.869 -74.14   0
        98    868.1838    890.7449 307.5543164  +6.3399049     2136.286     2963.938     2674.857     80.31331     161.4637     322.6704      1.525     4.17     926.4054     56.92687     266.8986        16     1.225     0.835 -66.32   0
        99    831.4097    890.1136 307.5696090  +6.3389368      3188.76     4750.494      5147.01     80.57114     161.2066      322.799      1.627     3.52     926.9865     56.92687     421.9401        21     1.376     0.826 -78.64   0
       100     99.0736    890.6708 307.8736988  +6.3141430      2552.12     3707.268     3759.624     81.21212     161.6563     322.9916      1.550     3.64     936.3117     56.92687     356.4815        20     1.326     0.856 -63.69   0
       101    567.3094    881.7174 307.6795649  +6.3335654     358873.2     517135.1     538739.6     80.69974     161.7845     323.0558      1.563     3.97     932.1249     56.92687     49703.93       161     1.652     1.177 -72.38   4
       102    461.3940    888.6342 307.7233146  +6.3271588     617.9632      980.568     927.6304     80.18408     161.3352     322.7347      1.502     4.50     934.5842     56.92687     91.65588         6     1.085     0.531 -58.49   0
       103    206.1472    889.7516 307.8292687  +6.3181250     4687.658     4937.188     4700.651     81.08433     161.4637     322.9595      0.564     0.76     936.9048     56.92687     2946.198         6     0.470     0.385 -71.24   0
       104    347.0939    888.0762 307.7707973  +6.3235530     659.0145     837.8836      1071.77     80.69974     161.7204     322.9595      1.272     2.53     936.8815     56.92687     152.7485         5     0.749     0.508 -56.40   0
       105    654.9352    885.0839 307.6430633  +6.3351103     1360.449     2057.193     2395.843     81.08434     161.7845     323.0237      1.632     4.86      930.184     56.92687     202.1123        14     1.351     0.764 -74.27   0
       106    411.5568    884.2941 307.7441563  +6.3272785     8139.509     11927.46     12080.49     80.95634     161.4637      323.088      1.574     3.83     935.3077     56.92687     1142.391        32     1.476     0.916 -70.12   0
       107    354.7484    882.6662 307.7678013  +6.3260436     13616.23      19558.9      20226.6     80.82814     161.4637     322.9595      1.553     3.62     936.7599     56.92687     2082.213        41     1.475     1.000 -74.37   0
       108    673.1653    879.0189 307.6356968  +6.3382246     3597.031     5344.794     5804.944     80.44232     161.3352     322.7347      1.586     4.17     929.3558     56.92687       538.34        21     1.422     0.791 -65.99   0
       109    905.3884    877.8735 307.5392981  +6.3464619     5301.761     8193.024     8942.824     80.44232     161.1423      322.799      1.674     3.95     925.2049     56.92687     772.1874        33     1.581     1.249 -31.55   0
       110    744.8644    875.6398 307.6060355  +6.3420189     759.7524     750.8679     956.3243     80.95634     161.4637     323.0558      1.259     4.29     927.8454     56.92687     143.6907         7     1.083     0.485 -72.53   0
       111    648.0589    872.9007 307.6463287  +6.3399102     3635.991     5241.625     5564.219     80.69974     161.5279      323.088      1.488     3.80     930.0076     56.92687     503.2374        20     1.359     0.811 -68.11   0
       112    836.3587    872.2158 307.5681548  +6.3464917     1689.765     2272.144     2308.771     80.44232     161.2709     322.7347      1.506     4.26     926.5952     56.92687     229.0061        14     1.237     0.766 -68.66   0
       113    638.5692    871.4954 307.6503168  +6.3401726     971.1276     1569.879     1839.755     81.08434     161.2709     323.0237      1.466     4.37     930.2449     56.92687     176.2695         9     1.284     0.620 -75.49   3
       114    641.0052    867.4579 307.6494411  +6.3419211     2341.351     3699.892     3629.224     80.44232     161.3995     322.6704      1.598     4.67     930.0358     56.92687     354.8796        21     1.520     0.857 -58.86   2
       115    190.7725    873.2115 307.8362119  +6.3244366      655.033     691.6279     224.7864     80.57114     161.3352     322.8632      1.136     3.92     936.7949     56.92687     103.1453         6     0.792     0.556 -43.88   0
       116    963.5201    870.5026 307.5154041  +6.3514459     762.4985     1166.312     1240.689     80.69974     161.8486     323.0237      1.650     5.16     922.0607     56.92687     106.5359         9     1.236     0.609 -78.21   0
       117    924.4815    865.6739 307.5317784  +6.3521364     3190.873     4801.209     4749.297     81.21213     161.8486     323.0237      1.611     3.59     924.5724     56.92687     432.6323        24     1.400     0.938 -74.02   0
       118    334.9835    866.2515 307.7765628  +6.3321569     874.9147     1179.684     1197.759     80.44232     161.5921     322.6704      1.610     3.43     936.8925     56.92687     181.7114         8     1.148     0.480 -65.90   0
       119    185.2217    867.6065 307.8387063  +6.3265639     510.0311     577.2761     469.9465     80.57114     161.3352     322.7668      1.065     2.92     936.7508     56.92687     91.05206         5     0.717     0.461 -17.01   0
       120    382.6628    861.5939 307.7569205  +6.3356807     2804.252     3982.379     3980.182     80.31331     161.2709     322.7347      1.507     3.66     935.8346     56.92687     448.6316        18     1.362     0.779 -69.61   0
       121    518.9608    851.3741 307.7006647  +6.3444725     3307.942     4715.029     4808.723     80.57114     161.3352      322.799      1.537     4.03     932.2593     56.92687     445.0228        18     1.341     0.801 -73.56   0
       122    863.6219    850.5131 307.5575615  +6.3563631     1044.223     1449.553     1475.386     80.95634     161.3352      322.799      1.542     5.25     925.3481     56.92687     173.2528        11     1.426     0.546 -77.25   0
       123    584.1533    849.1965 307.6736650  +6.3475564     880.6489     1050.451     1178.241     80.31331     161.2709     322.6061      1.336     4.31     930.7023     56.92687     145.8151        10     1.158     0.630 -76.31   0
       124    565.7620    847.3848 307.6813636  +6.3476882     6598.314     9429.148     10473.05     80.69974     161.3352     322.7025      1.551     3.71     931.0337     56.92687     1076.366        27     1.470     0.824 -68.22   0
       125    483.5712    846.4630 307.7155266  +6.3453135     1652.102     2361.127     2428.167     80.69974     161.5279     322.8953      1.474     4.54     932.9931     56.92687     251.2991        16     1.541     0.672 -74.96   0
       126    277.4066    847.9542 307.8010900  +6.3377767     569.0121     663.9578     112.4387     80.44232     161.2709     322.6061      1.156     3.38     936.8284     56.92687     117.3781         5     1.386     0.239 -71.68   0
       127    901.5255    845.7900 307.5419790  +6.3595793     1432.862      2015.32     1886.459     80.57114     161.1423     322.8311      1.622     4.57     924.0723     56.92687     203.4427        17     1.451     0.753 -73.51   0
       128    572.6100    846.8408 307.6785380  +6.3481423     1380.332     2233.349     2388.649     80.31331     161.3352     322.6704      1.585     3.81     930.8713     56.92687     238.9354        12     1.224     0.629 -71.15   0
       129    125.0797    845.6885 307.8644215  +6.3335894     1534.639     2273.599     1831.051     80.69974     161.7845      323.088      1.460     4.90     936.1089     56.92687     225.1812        13     1.360     0.626 -76.13   0
       130    701.3628    844.7214 307.6251405  +6.3533287     870.1946     1275.111     1031.585     80.82814     161.5921     322.9595      1.482     4.88     927.9042     56.92687     158.1255        10     1.203     0.655 -41.39   0
       131    536.4167    841.4178 307.6937510  +6.3491683      21405.7     30279.63     30696.92     80.69974     161.2066     322.8953      1.562     3.82     931.6024     56.92687     3129.507        43     1.509     0.958 -71.04   0
       132    377.3319    843.1460 307.7597566  +6.3431182     721.5078     941.0866     810.1324     80.95634     161.4637     322.8632      1.291     3.78     935.4707     56.92687     131.1058         7     1.007     0.604 -69.66   0
       133    950.0140    839.7119 307.5220459  +6.3637078     3796.735     5619.732     5587.224     80.69974     161.3352     322.8311      1.586     3.56     921.7943     56.92687     514.7538        27     1.418     0.966 -77.44   0
       134     69.9078    837.2131 307.8876185  +6.3352312     606.9135     628.0967     733.0049     80.69974     161.2709     322.7347      1.263     5.03     935.9077     56.92687     97.86035         8     1.138     0.630 -62.62   0
       135     46.6916    831.9085 307.8974385  +6.3366393     1576.625     2295.303     2349.864     80.95634     162.0407     322.9916      1.595     4.08     935.8813     56.92687     238.0051        17     1.375     0.858 -57.06   0
       136    328.8798    829.9366 307.7803232  +6.3469448     3541.333     5597.866     5648.074     81.21212     161.5921     322.9595      1.704     4.76     935.9837     56.92687     494.2423        25     1.357     1.105 -75.34   0
       137    794.5915    825.9886 307.5870532  +6.3641814     58048.55     84768.42     88537.66     80.44232     161.3352     322.8953      1.563     3.74     926.4393     56.92687     8466.228        68     1.547     1.074 -70.68   0
       138    591.4248    830.6954 307.6712682  +6.3554386     549.6367     1013.142     1021.936     81.08434     161.2709     322.8311      2.121     3.47     929.7045     56.92687     120.4631         5     0.806     0.431 -69.14   0
       139     28.8706    828.1437 307.9049662  +6.3375933     2253.151     3298.151     3116.735     81.08433     161.4637     322.9274      1.522     4.06     935.8622     56.92687     323.3468        18     1.372     0.786 -67.83   0
       140    733.6871    826.8286 307.6123182  +6.3617977     687.4982     1025.259     1320.131     81.08433     161.2709     322.8311      1.715     5.29     927.0991     56.92687     111.4371         8     1.587     0.498 -75.22   0
       141    437.9848    824.6079 307.7351943  +6.3528075     874.2894     1392.273     1217.389     80.57114     161.2709      322.799      1.428     4.60     933.4509     56.92687     132.7169         9     1.244     0.543 -59.39   0
       142    251.9321    823.8281 307.8124835  +6.3468812     5494.034     8552.921     10861.25     80.69974     161.4637     322.8953      1.741     3.95     936.1712     56.92687     783.8262        29     1.483     0.935 -74.31   0
       143    722.8413    820.5673 307.6170329  +6.3640199        23251     33532.19     35272.63     80.69974     161.5279     322.8311      1.566     3.69     927.1642     56.92687     3371.408        50     1.531     1.026 -69.97   3
       144    716.5473    817.0645 307.6197646  +6.3652555     93507.05     135666.8     141108.8     80.95634     161.4637     322.9274      1.554     3.74     927.1776     56.92687     13875.28        77     1.566     1.060 -71.92   2
       145    919.8862    821.1923 307.5351794  +6.3703482     8779.733     13194.97      13676.2     80.57114     161.2066     322.7668      1.593     4.10     922.0999     56.92687     1209.707        36     1.443     1.030 -71.59   0
       146    361.4099    817.9175 307.7672199  +6.3529994     21737.62     32121.84     33353.34     80.57114     161.1423      322.799      1.547     3.76     935.1982     56.92687     3164.351        46     1.510     1.006 -72.16   0
       147    423.3044    815.7633 307.7415890  +6.3559665     23759.42     34263.04     34945.36     81.08434     161.3995      323.088      1.535     3.88     933.5464     56.92687     3306.834        44     1.487     0.992 -71.10   0
       148    410.6390    818.2767 307.7467639  +6.3545037     1611.139      2388.68     2097.189     80.82814     161.5921     322.9595      1.653     4.02     933.8937     56.92687      249.167        15     1.180     0.822 -77.91   0
       149    650.1019    817.3537 307.6473493  +6.3629121     800.1756     1145.571     1680.209     80.95634     161.3995     323.1521      1.421     5.06     927.9385     56.92687     123.8177         8     1.169     0.619  79.52   0
       150    960.4583    814.7563 307.5185456  +6.3743599     2133.977     3370.912     3514.967     80.82814     161.4637     323.0237      1.701     4.21     920.4554     56.92687     292.1614        21     1.475     0.857 -74.07   0
       151    251.3399    802.2949 307.8134569  +6.3557514     754500.9      1641031      1806671     80.82814     161.5279     323.0558      2.223     6.28     935.6408     56.92687     63357.59       588     2.458     2.012 -75.97   4
       152    889.5795    813.5268 307.5480231  +6.3725009     740.4014     834.1444     496.2302     80.57114     161.4637     322.8953      1.379     4.90     923.0255     56.92687     105.1116         9     1.050     0.649 -85.72   0
       153    657.3092    811.6061 307.6445495  +6.3655264     6915.859     9903.438     9862.135     80.57114     161.2066     322.7347      1.545     3.91     927.7071     56.92687     1033.621        28     1.422     0.884 -67.72   0
       154    446.1449    809.6194 307.7323109  +6.3592694     1810.793      2466.15     2874.622     80.44232     161.5279     322.7668      1.567     4.16     932.8575     56.92687     269.6453        15     1.273     0.827 -76.68   0
       155    171.1466    808.6373 307.8465446  +6.3504362     724.4355     1022.817     920.9657     80.82814     161.5279     322.9916      1.367     4.18     935.7483     56.92687     120.3177         7     1.181     0.422 -57.08   0
       156    885.3539    803.9085 307.5501009  +6.3763308     783.5248     1127.561     1027.468     80.95634     161.4637      323.088      1.558     4.43     922.8328     56.92687     112.4019         8     1.098     0.732 -67.55   0
       157    610.5806    803.5683 307.6642262  +6.3672801     1062.743     1426.815     2282.732     80.44232     161.3352     322.8311      1.607     3.62     927.6065     56.92687     201.5627        10     1.109     0.626 -65.39   0
       158    692.4971    801.7245 307.6302685  +6.3707841     2632.033     3626.069     3123.742     80.57114     161.7204     322.9916      1.500     3.57     927.1688     56.92687     393.0542        18     1.303     0.770 -69.52   0
       159    161.5138    802.3563 307.8507571  +6.3527052     1070.799     1553.988     1407.146     80.95634     161.3995     322.9595      1.473     5.18     935.6348     56.92687     174.1753        11     1.316     0.576 -51.46   0
       160    136.6112    802.3298 307.8610993  +6.3518782     1088.724     1336.346     1238.583     80.44232     161.2709     322.7668      1.407     3.20      935.632     56.92687     207.9429        11     1.131     0.645 -73.72   0
       161    426.2421    798.4182 307.7409540  +6.3632262     57837.45     83005.46        86128     80.44232     161.3352     322.7347      1.561     3.80      932.938     56.92687     8161.771        66     1.547     1.057 -69.13   0
       162    969.5120    800.1030 307.5152770  +6.3807121     755.2991      876.418     979.3945     80.95634     161.9767     322.9916      1.378     4.84     919.8155     56.92687     122.1698         9     1.056     0.627 -37.24   0
       163    544.0145    797.3713 307.6920794  +6.3676082     7588.668     10747.42     10865.45     80.57114     161.3352     322.8632      1.507     3.85     930.3328     56.92687     1062.084        27     1.419     0.877 -70.61   0
       164    460.7388    796.0745 307.7267069  +6.3653512     4887.956     7204.257     7822.988     81.21212     161.5279     322.9595      1.578     3.64     931.9949     56.92687     725.9099        24     1.359     0.893 -71.03   0
       165    789.1917    794.0929 307.5903675  +6.3771696     11987.13     17435.52      17989.5     80.57114     161.2066     322.7668      1.566     3.95     925.6392     56.92687     1607.398        33     1.427     0.953 -70.99   0
       166    457.4119    789.4383 307.7283123  +6.3679795     2563.737     3742.433     4364.747     80.44232     161.3352     322.6383      1.678     3.85     931.7227     56.92687     398.8132        19     1.277     0.900 -64.43   0
       167     18.6045    790.0594 307.9105187  +6.3529705     1192.834     1648.006     1883.702      80.3133     161.3995     322.7347      1.452     3.93     935.6497     56.92687     171.0153        14     1.212     0.756 -55.06   0
       168    810.8279    788.3742 307.5815739  +6.3802541      1258.15     1716.892     1676.026     80.44232     161.3352     322.8311      1.617     4.25     924.8705     56.92687     178.1297        13     1.184     0.856 -63.67   0
       169    146.9630    785.9976 307.8573528  +6.3589694     11915.65      17626.1     19133.81     80.05465     161.3352     322.7668      1.525     4.20     935.4052     56.92687     1771.784        35     1.499     0.925 -72.32   0
       170    978.9864    787.2168 307.5117743  +6.3863487     655.2074     786.0971     916.8732     80.69974     161.2066     322.8953      1.346     4.80     919.2849     56.92687     97.44391         7     1.233     0.530 -82.79   0
       171    155.0917    786.3538 307.8539652  +6.3590958     3243.859     4835.214      4860.64     80.95634     161.4637      323.088      1.542     4.18     935.3879     56.92687     454.0009        20     1.385     0.806 -70.44   0
       172    916.8751    812.6072 307.5367180  +6.3737922     7103.794     10537.99     11779.19     80.57114     161.0135     322.8311      1.628     3.79     921.7727     56.92687     985.6606        30     1.411     0.987 -73.81   0
       173    934.8029    782.6899 307.5302763  +6.3867429     6898.122     9995.293     10082.17     80.31331     161.2066     322.6704      1.564     3.68     919.9846     56.92687     1018.734        26     1.415     0.900 -70.35   0
       174    139.0154    783.4005 307.8607411  +6.3597742     3132.695     4743.793     5825.118     80.57114     161.2066     322.7025      1.662     4.20      935.383     56.92687     433.1706        20     1.446     0.791 -70.98   3
       175    139.2866    776.8586 307.8608498  +6.3624841     1951.489     3175.542     4070.254     80.95634     161.5279      323.088      1.787     4.60     935.3041     56.92687     271.9455        21     1.564     0.810 -68.72   3
       176    984.0670    782.4982 307.5098226  +6.3884664     1531.086     2175.432     2482.354     80.95634     161.6563     322.9595      1.546     4.48     919.0424     56.92687     213.3733        15     1.297     0.815 -73.12   0
       177    690.2655    780.0491 307.6319243  +6.3796585     1889.388     2726.811     2325.305     80.82814     161.3995     322.9274      1.490     3.27     926.4427     56.92687     317.2429        18     1.193     0.931 -62.01   0
       178    577.2806    779.6074 307.6788624  +6.3760572     2625.605     3844.622     4107.399     80.57114     161.0779      322.799      1.591     4.56     928.3899     56.92687      337.207        19     1.346     0.917 -78.89   0
       179    425.0992    778.9103 307.7420865  +6.3712419     1312.528     1998.429     1603.428     80.95634     161.9767     322.9274      1.562     5.03     932.1268     56.92687     166.7915        10     1.212     0.592 -72.71   0
       180    708.5942    778.0130 307.6243807  +6.3811125     659.7692     738.7897     432.9517     80.57114     161.3352     322.8311      1.127     3.42     926.0701     56.92687     147.8512         5     0.840     0.403 -67.60   0
       181    958.3948    774.1575 307.5207645  +6.3910532     3120.847     4721.324      4945.64     80.31331     161.2066     322.6704      1.613     4.16     919.3181     56.92687     440.9286        20     1.369     0.864 -66.12   0
       182    928.9433    774.6902 307.5329784  +6.3898501     3220.792     4413.417     5461.375     80.82814     161.4637     323.0558      1.513     3.75     919.9199     56.92687     437.9361        22     1.309     0.886 -76.90   0
       183    989.2351    773.9748 307.5079620  +6.3921580     1898.938      2889.54     2642.762     80.44232     161.3352     322.7025      1.559     4.33     918.6982     56.92687     248.9493        17     1.396     0.782 -70.89   0
       184    681.3288    773.5710 307.6358537  +6.3820340     1384.544     1952.383     1767.436     80.82814     161.5279     322.9595      1.393     4.26     926.3908     56.92687      244.689        12     1.352     0.597 -68.45   0
       185    828.4193    772.3887 307.5748050  +6.3874421     1044.044     1473.864     1583.492     80.57114     161.2066     322.8632      1.448     4.38     923.5833     56.92687      160.818         8     1.245     0.438 -67.80   0
       186    903.8769    769.5469 307.5435615  +6.3911365      753.147     1116.619     1330.329     81.08433     161.5279     322.9595      1.424     5.16     920.7595     56.92687     103.6697         9     1.193     0.632 -51.06   0
       187    253.8201    768.8641 307.8135562  +6.3696369     1853.448     2932.461     4145.028     80.57114     161.5279      322.799      1.782     4.05     934.1667     56.92687     258.8389        19     1.440     0.829 -76.41   0
       188    946.8679    764.6424 307.5258710  +6.3945970     1138.558     1657.308     1629.065     80.95634     161.4637     323.0237      1.593     5.62     919.3147     56.92687     149.5956        15     1.392     0.844 -76.12   0
       189    692.7919    761.4998 307.6314990  +6.3874015      1004.82     1679.241     1999.969     80.69974     161.1423      322.799      2.416     5.06     925.7249     56.92687     197.2596        10     1.464     0.495 -51.18   2
       190    920.6737    762.6082 307.5368183  +6.3945623     1159.697     1762.444     1890.921     80.57114     161.0779      322.799      1.820     5.22     919.9371     56.92687     171.3547        11     1.304     0.590 -73.47   0
       191    274.2067    763.9887 307.8052546  +6.3723350     806.5916     1335.845     1161.112     80.57114     161.3352     322.8632      1.739     4.02     933.8906     56.92687     126.2963         8     0.869     0.700  82.94   0
       192    169.4291    763.9310 307.8487693  +6.3688355     833.4337     1253.077     1139.778     80.69974     161.5279     322.8953      1.667     4.37     934.8903     56.92687      152.473         7     0.994     0.547 -65.60   0
       193    973.2882    761.9045 307.5149899  +6.3966093     2545.672     3778.414     4338.484     80.95634     161.9127     323.0237      1.570     3.73     918.6723     56.92687     341.3414        20     1.394     0.818 -69.11   0
       194   1015.1785    755.3573 307.4978113  +6.4007103     1717.553     2757.102     2833.356     80.44232     161.3995      322.799      1.690     3.77     917.5076     56.92687     261.6141        19     1.353     0.881 -72.47  16
       195    484.4860    756.1021 307.7181922  +6.3826509     691.8494     1027.729     589.2312     80.95634     161.9767     323.0237      1.612     5.61     929.0993     56.92687     90.85022         8     1.079     0.822  84.77   0
       196    413.3235    756.5593 307.7477308  +6.3800746     693.1006     726.7087     541.6918     80.82814     161.5279     323.0237      1.153     4.60     931.5519     56.92687     118.7527         7     0.972     0.618 -72.11   0
       197    816.3165    754.0098 307.5804489  +6.3946256     1135.167     1611.893     1352.854     80.57114     161.2066      322.799      1.436     4.82     923.1794     56.92687     191.0299        11     1.317     0.587 -72.20   0
       198    641.3472    754.5634 307.6530981  +6.3885430     677.8846     1089.597     1095.601     80.82814     161.5279     322.9916      1.797     4.43     926.4378     56.92687     102.0779         7     0.985     0.566 -60.46   0
       199    902.7519    751.0854 307.5446484  +6.3987212      1667.08     2573.455     2939.287     80.95634     161.4637     322.9595      1.603     3.92     920.1818     56.92687     239.1219        17     1.325     0.845 -56.43   0
       200    877.1091    746.6640 307.5554470  +6.3996901     1140.697     1493.388     2044.554     80.95634     161.7204     323.0237      1.492     5.03     920.8013     56.92687      166.867        12     1.150     0.777 -82.96   0
       201    662.6312    745.4739 307.6445644  +6.3930085     569.5439     980.7057     743.6302     80.82814     161.5279     322.9916      2.018     5.28     925.8514     56.92687     83.45721         7     0.964     0.816 -57.77   0
       202    859.5596    742.3157 307.5628818  +6.4008990     1599.531     2336.975     2478.798     80.95634     161.4637     322.8953      1.542     3.58     921.0859     56.92687     246.7741        16     1.219     0.834 -62.43   0
       203     58.6498    741.3434 307.8955383  +6.3744318     2750.698     3976.648     4043.273     80.95634     161.5279     322.9916      1.586     3.75     935.3338     56.92687     432.0981        21     1.350     0.833 -75.49   0
       204    122.6892    740.0491 307.8689874  +6.3771224     1022.831     2196.303     2611.993     80.95634     161.3352     323.0558      2.326     6.83     934.9583     56.92687     137.1871        16     1.653     0.792  82.17   0
       205    671.2620    730.0140 307.6415001  +6.3996803     6744.786     9816.483     10405.06     80.44232     161.3352     322.7668      1.524     3.82     925.2142     56.92687     960.3304        29     1.390     0.977 -68.03   0
       206    618.0856    729.1965 307.6636129  +6.3982371     1623.811     2509.353     2267.007     80.44232     161.1423     322.6704      1.531     4.08     926.3389     56.92687     240.5303        14     1.261     0.693 -76.68   0
       207    539.7671    729.4289 307.6961322  +6.3955169     843.8152     1102.935     1038.987     80.44232     161.2709     322.7347      1.514     3.60     927.5414     56.92687     137.6624         8     1.137     0.586 -62.00   0
       208    529.1224    729.5458 307.7005492  +6.3951118     933.6605     1329.311     1668.756     81.08433     161.5279     322.9595      1.545     4.72     927.6422     56.92687     138.2827         9     1.153     0.549 -62.86   0
       209    134.3169    725.7184 307.8646433  +6.3834302     3862.513     5495.286     5544.567     80.69974     161.7845     323.0558      1.506     4.05      934.527     56.92687     569.4659        21     1.456     0.753 -75.73   0
       210   1008.4026    725.2195 307.5016362  +6.4129273     2593.739      3735.95     3229.423     80.57114     161.0779     322.7025      1.449     3.60      916.861     56.92687     372.4788        16     1.292     0.737 -70.41   0
       211    645.3688    725.7513 307.6523975  +6.4005733     2215.816     3155.458     3361.065     80.69974     161.5279     322.8632      1.563     4.20     925.6549     56.92687     299.3013        19     1.325     0.917  88.84   0
       212    320.9485    725.5157 307.7871421  +6.3897894     717.6442     1080.584     1057.821     80.95634     161.4637     323.0558      1.663     4.55     932.2127     56.92687     126.4989         8     1.328     0.443 -68.74   0
       213    256.6999    725.0613 307.8138401  +6.3878180     613.9053     817.3173     1499.983     80.69974     161.3995      323.088      1.419     4.28      932.593     56.92687     102.3678         7     1.311     0.398 -63.64   0
       214    788.2125    722.0708 307.5931944  +6.4068727     21041.42     30444.94      32236.5     80.44232     161.2709      322.799      1.533     3.89     922.6049     56.92687     2810.927        42     1.461     0.979 -70.80   0
       215    918.2655    721.6885 307.5391919  +6.4113765     3909.021     5695.475     6560.506     80.95634     161.7204     322.9595      1.581     3.77     919.1246     56.92687     517.6842        23     1.383     0.889 -76.89   0
       216    515.9211    721.9651 307.7062874  +6.3977990     1054.157     1488.461      1317.43     80.82814     161.5921     322.9595      1.572     3.84     927.5913     56.92687     166.6404        10     1.282     0.606 -79.01   0
       217    487.2607    722.4724 307.7181734  +6.3966284     1521.324     2242.019     1865.416     81.08434     161.5279     322.9916      1.550     4.08     927.8752     56.92687     243.0107        12     1.146     0.722 -78.91   0
       218    470.6207    723.3976 307.7250531  +6.3956883     581.0322     749.8771     545.4216     80.57114     161.2066     322.7025      1.524     4.05      928.264     56.92687     88.12158         5     1.168     0.401 -36.47   0
       219    333.0125    721.9406 307.7822525  +6.3916707     628.8516     967.7188     1517.153     80.31331     161.4637     322.6704      1.868     4.48     931.9791     56.92687      114.078         6     1.244     0.458  77.24   0
       220    289.3403    722.0071 307.8003876  +6.3901760     642.0901     1066.471     679.3503      80.3133     161.3995     322.7025      1.440     4.53      932.462     56.92687     100.8573         7     1.336     0.436 -64.64   0
       221    261.7447    715.6494 307.8120630  +6.3918733     6528.259     9432.132     9529.685     80.95634     161.5279     323.0237      1.568     3.69     932.4953     56.92687      978.275        28     1.424     0.898 -71.54   0
       222    668.7400    714.8753 307.6430569  +6.4058462     7479.788      11107.2     11547.63     81.21213     161.5279     322.9274      1.573     3.91     924.6912     56.92687     1162.656        31     1.457     0.933 -70.66   0
       223    651.1684    715.7398 307.6503257  +6.4049009     1078.714     1583.743     1917.947     80.69974     161.5921     322.9274      1.588     4.35     925.1948     56.92687     154.4027        12     1.150     0.834 -59.67   0
       224    364.0110    714.2948 307.7696366  +6.3958684     746.4788     1135.328     1232.266     80.57114     161.2066     322.7025      1.394     4.11     931.1068     56.92687     117.5865         7     1.113     0.432 -53.81   0
       225    928.6742    707.4183 307.5353477  +6.4176158     1157.527     1507.708     1456.849     80.44232     161.3995     322.8632      1.413     5.01      918.679     56.92687     181.8954        12     1.251     0.685 -72.79   0
       226    740.4452    703.2759 307.6136656  +6.4130349     3768.303     5419.087     6348.574     80.82814     161.5921     322.9916      1.573     3.85     922.9297     56.92687      542.574        22     1.420     0.840 -81.01   0
       227    695.7531    703.5344 307.6322191  +6.4114327     1108.606      1521.91     1807.101     80.95634     161.4637     322.9595      1.748     3.75     923.7443     56.92687     205.4946        11     1.178     0.642 -68.29   0
       228   1006.7835    699.8528 307.5031593  +6.4233466     9011.541     13426.56     13520.75     80.44232     161.5921     322.7025      1.568     3.72     916.4897     56.92687      1243.53        32     1.447     0.967 -70.31   0
       229    945.3000    700.2831 307.5286817  +6.4211169     2421.234     3488.885     3157.534     80.95634     162.0407     323.0558      1.533     3.84      918.155     56.92687     329.0305        17     1.249     0.844 -67.45   0
       230     25.9618    699.6483 307.9105248  +6.3905445     1848.877     2877.493     3235.946     80.82814     161.5279     322.8311      1.601     5.20     934.7083     56.92687     272.2963        15     1.404     0.710 -65.48   0
       231      6.2381    702.0059 307.9186361  +6.3889066     646.9473     759.8043     1325.523     80.05465     161.2709     308.4743      1.318     3.85     934.8951     56.92687     113.1299         6     0.898     0.473 -56.24  16
       232    442.6386    698.0246 307.7375301  +6.4052251     590.0149     947.2812      998.322     80.57114     161.3352     322.7668      1.699     3.38     928.5154     56.92687     118.7199         5     1.333     0.247 -71.68   0
       233    559.4107    697.5746 307.6890469  +6.4093268     621.2653     821.3252     686.6307     80.57114     161.3352     322.8311      1.568     3.91     926.4746     56.92687     101.0886         5     1.176     0.372 -52.96   0
       234     84.1084    694.6874 307.8865447  +6.3945512     27011.14     39355.07     40424.54     80.95634     161.9767     323.0558      1.549     3.97     934.1417     56.92687     3689.583        50     1.530     1.026 -70.91   0
       235    545.3503    695.5925 307.6949533  +6.4096739      2269.15      3079.42     3229.707     80.44232     161.2709     322.6061      1.507     3.91     926.5706     56.92687      351.942        17     1.247     0.787 -72.25   0
       236    514.0241    693.0016 307.7080513  +6.4096933     1487.133     2024.557     1952.813     80.57114     161.2066     322.7347      1.451     4.88     927.1293     56.92687     199.1547        12     1.257     0.629 -68.55   0
       237    935.1727    691.8477 307.5331712  +6.4242615     1025.861     1584.339     1692.465     80.57114     161.5921     322.8953      1.530     4.47     918.3144     56.92687     172.1709        13     1.323     0.745 -74.08   0
       238    554.5591    689.3345 307.6913395  +6.4125663     1167.828      1304.55     1255.224     80.95634     161.4637     323.0558      1.426     4.05     926.2755     56.92687     197.8392        11     1.177     0.648 -76.05   0
       239    730.1010    686.8290 307.6185150  +6.4194792     3706.358     5495.195     5970.428     80.95634     161.2709     322.9595      1.552     3.82     922.7754     56.92687     522.1383        21     1.436     0.777 -73.79   0
       240    752.0674    685.1390 307.6094483  +6.4209119     4317.848     6265.531     6479.637     80.95634     161.4637     322.9595      1.531     4.02     922.2858     56.92687     585.0016        26     1.430     0.902 -68.26   0
       241    583.6280    683.1183 307.6794756  +6.4161069     3680.577     5243.546     5339.582     80.82814     161.3352     322.8953      1.515     4.01      925.857     56.92687     523.5695        21     1.333     0.870 -68.12   0
       242    419.5921    683.8792 307.7475790  +6.4102918     1406.668     2107.581     2222.805     80.57114     161.0135      322.799      1.629     5.01     928.3679     56.92687      201.619        14     1.351     0.731 -59.73   0
       243    244.1789    682.6567 307.8204730  +6.4049040     1941.934     2821.578     2746.827     80.57114     161.5279     322.7668      1.545     4.28     932.2115     56.92687     279.4465        17     1.315     0.816 -73.64   0
       244   1023.7325    681.8474 307.4967233  +6.4313460     1873.074     2272.921     2660.396     69.66509     127.3534     242.0564      1.162     3.06     915.7375     56.92687     519.8187        10     1.201     0.523 -87.53  24
       245    327.7714    682.2598 307.7857689  +6.4078772     1689.076     2265.868     1706.908     80.57114     161.5921     322.8953      1.446     4.31     930.8551     56.92687      248.365        13     1.192     0.694 -69.53   0
       246    990.3856    680.2273 307.5106284  +6.4309023      8530.75     12545.94     12329.63     80.57114     161.3995     322.8632      1.557     3.74     916.6391     56.92687     1146.277        32     1.426     0.989 -75.70   0
       247    544.1600    680.8133 307.6959456  +6.4157358     348.0448     584.5231     303.5071     80.44232     161.3352     322.7025      2.047     3.80     926.1709     56.92687     84.63147         5     1.341     0.309 -57.39   0
       248    710.2402    678.5770 307.6270415  +6.4222217      1005.03     1257.006     1103.715     80.57114     161.3352     322.7347      1.485     4.73     922.8094     56.92687     166.8083         9     1.143     0.555 -68.13   0
       249    101.7022    676.9911 307.8798367  +6.4024495     860.3788     1388.121     1466.133     80.69974     161.1423     322.7347      1.860     5.02     933.5057     56.92687     127.7572         8     1.200     0.593 -66.06   0
       250    435.7632    674.4411 307.7411810  +6.4147311     3053.304     4777.148     5255.987     80.69974     161.5279     322.8311      1.704     3.80     927.9076     56.92687     443.7527        23     1.433     0.862 -64.89   0
       251    148.8654    673.5681 307.8603652  +6.4054503     26060.88     37821.84     38772.68     80.82814     161.5921     322.9274      1.572     3.75     932.9798     56.92687     3607.303        48     1.537     1.010 -71.08   0
       252    817.2082    674.3422 307.5827552  +6.4275479     1275.939     1850.714     1763.707     80.31331     161.3995     322.7025      1.670     4.16     920.3071     56.92687     199.8698        12     1.205     0.666 -75.27   0
       253    368.1732    668.6277 307.7694492  +6.4148623     786.9645     1279.741     1607.333     80.44232     161.3352      322.799      1.575     3.22     929.0953     56.92687     142.2103         7     0.860     0.588 -73.39   0
       254    985.2924    663.1738 307.5133159  +6.4377733     6938.419     11389.13     12641.15     81.08433     161.2709      322.799      1.783     3.63       916.16     56.92687     941.9777        34     1.460     1.172  89.97   0
       255    578.8697    658.4407 307.6822830  +6.4261360     51849.27      74068.9     76794.32     80.82814     161.5279     323.0237      1.547     3.76     925.0328     56.92687     7529.577        62     1.517     1.037 -70.29   0
       256    943.3732    659.8929 307.5308374  +6.4377286     752.8142     1456.113     1248.014     81.08433     161.2709      322.799      1.766     5.81     917.3072     56.92687     112.2845         9     1.489     0.639 -80.96   0
       257    222.2907    659.5925 307.8303430  +6.4136902     721.4044     1052.262     1109.191     80.57114     161.2066     322.7668      1.772     4.75     931.6475     56.92687     125.2733         7     1.132     0.564 -72.59   0
       258    537.9158    658.2379 307.6992997  +6.4248471     653.2569     964.3105     689.2723     80.95634     161.4637     322.8953      1.496     4.87     925.5844     56.92687     95.44543         7     1.170     0.573 -54.02   0
       259     30.0268    662.1400 307.9101068  +6.4061667     1135.664     1797.876     1858.822     80.57114     161.5921     322.8311      1.721     5.28     934.1346     56.92687     171.8759        12     1.325     0.593 -72.25   0
       260    186.3410    655.1958 307.8454223  +6.4142963      2956.79     4356.097     4467.222     80.31331     161.3995     322.7347      1.544     4.34     932.1131     56.92687     406.1652        20     1.383     0.827 -70.92   0
       261    509.0936    655.2650 307.7113709  +6.4251081     740.0129     1025.102     1078.438     80.82814     161.7204     322.9916      1.554     5.01     926.3654     56.92687       110.66         8     1.134     0.626 -60.24   0
       262     79.1234    649.2538 307.8901527  +6.4131406     1405.194     1990.979     1815.108     81.08433     161.5279     322.9595      1.411     3.85      933.587     56.92687     256.6273        13     1.306     0.628 -72.21   0
       263    476.1149    642.2332 307.7255076  +6.4293824     65581.96     95330.66      99284.3     80.95634     161.3352     322.9274      1.567     4.01     926.9072     56.92687     8807.408        72     1.558     1.075 -72.13   0
       264     19.6741    643.8167 307.9150269  +6.4133826     1744.233     2529.853     3393.136     80.44232     161.2709     322.8311      1.654     5.00     934.2507     56.92687     221.1494        14     1.250     0.756 -63.96   0
       265    661.9461    639.6595 307.6484097  +6.4366729     808.7808     1165.091     672.4072     81.08433     161.4637     322.9595      1.506     4.70     922.7068     56.92687     130.6372         9     1.351     0.464 -65.91   0
       266    150.7414    637.2631 307.8608140  +6.4205020     1691.262     2075.432     1620.243     81.08434     161.4637     322.9916      1.362     3.51     932.4644     56.92687     290.2101        17     1.360     0.736 -76.84   0
       267    945.6098    634.9868 307.5307443  +6.4480863     533.6595     727.8254     765.5156     80.69974     161.2709     322.8953      1.205     3.49     916.1835     56.92687     80.04767         5     1.432     0.245 -72.62   0
       268    429.9183    635.2404 307.7449308  +6.4307194     936.7857     1390.654     1607.542     80.95634     161.5921     322.8953      1.612     5.14     927.2836     56.92687     144.5778         9     1.330     0.562 -76.06   0
       269    622.1286    633.8567 307.6651434  +6.4377352     922.5026     1243.742     1251.836     81.08433     161.4637     322.9274      1.342     4.73     923.3522     56.92687     149.3167        11     1.210     0.650 -61.49   0
       270    330.6023    632.9297 307.7862587  +6.4283387     523.4141     903.9856     1345.301     80.44232     161.1423     322.7668      1.880     5.16     928.9459     56.92687     100.5863         7     1.301     0.579 -67.20   0
       271     22.5721    633.5320 307.9141716  +6.4177263      707.355     1257.794     1770.986     80.69974     161.4637     322.8632      1.941     4.17     934.2204     56.92687     130.9081         6     1.125     0.442 -77.61   0
       272    321.7104    631.4506 307.7900018  +6.4286506     2196.889     3302.018     3250.495     80.95634     161.3352      323.088      1.618     3.96     929.2083     56.92687     310.4843        18     1.314     0.872 -71.05   0
       273    473.7781    630.1290 307.7268863  +6.4343014     832.0406     1174.969      1320.34     80.57114     161.3995     322.9274      1.619     4.22     926.6085     56.92687     117.8589         7     1.156     0.439 -57.62   0
       274    504.0068    632.9160 307.7142370  +6.4341646      531.536     862.4097     1094.019     80.57114     161.2066      322.799      2.034     3.71     925.8312     56.92687     100.9421         5     0.998     0.396 -60.51   0
       275    748.1799    625.8185 307.6130575  +6.4452735     5681.867     8035.747     7733.661     80.69974     161.4637     322.8953      1.513     3.85     920.8562     56.92687     769.3168        26     1.423     0.875 -71.86   0
       276    801.7350    621.0581 307.5909727  +6.4490300     14798.85     21435.15     22534.34     81.08433     161.4637     322.9916      1.541     3.93      919.365     56.92687     2149.327        37     1.471     0.938 -70.16   0
       277   1019.0114    621.6387 307.5007033  +6.4560472     893.5624     1392.181     1244.463     80.44232     161.3352     306.0782      1.924     4.67     912.6921     56.92687     149.2731        11     1.197     0.637 -74.25  16
       278    544.2986    619.9084 307.6979401  +6.4408860     1082.669     1920.135     2563.068     80.95634     162.0407     322.9274      2.105     7.00     924.0243     56.92687     196.5372        18     2.305     0.595 -78.82   0
       279    625.5820    619.1670 307.6642035  +6.4439158     3098.304     4295.316     4065.954     80.57114     161.3352     322.8311      1.483     3.69     922.6973     56.92687     488.2962        20     1.347     0.789 -70.57   0
       280    942.8553    615.2496 307.5325508  +6.4561433     1136.387     2044.342     2496.895     80.95634     161.5279     322.9916      1.959     4.31     915.4855     56.92687     161.8315        12     1.179     0.661 -76.30   0
       281    238.2761    612.6268 307.8252911  +6.4336178     1447.869      2258.29     2738.898     80.82814     161.4637     322.9274      1.878     4.45     929.7463     56.92687     181.4332        16     1.347     0.811 -74.23   0
       282    384.3660    612.4329 307.7646203  +6.4386067     930.9962     1161.678     1107.961     80.57114     161.2709     322.7025      1.413     4.02     927.2401     56.92687     172.9261         7     1.066     0.434 -77.60   0
       283    877.7151    604.3173 307.5599753  +6.4584813     3008.342       4250.4     4284.293     80.69974     161.7204     323.0237      1.488     4.12     917.5542     56.92687     483.7521        19     1.318     0.798 -69.37   0
       284    836.5737    601.7143 307.5771518  +6.4581812     2682.329     3643.385     4463.601     81.08434     161.2709     322.8311      1.508     3.80     918.3454     56.92687     403.7332        17     1.356     0.731 -69.44   0
       285    172.8990    603.4912 307.8527536  +6.4351905     767.1302     1010.884     1307.536     80.95634     161.9767     322.9274      1.619     5.01     931.2388     56.92687     114.2009         9     1.351     0.525 -72.10   0
       286    807.4343    597.7029 307.5893903  +6.4588633     2668.681      3905.62     4683.373     80.95634     161.3995     323.1201      1.662     3.71     918.6214     56.92687     362.3029        20     1.377     0.806 -67.94   0
       287    750.3861    597.9400 307.6130786  +6.4568575      676.772     1031.094     806.1002      80.3133     161.3995     322.6704      1.525     5.21     919.8643     56.92687     97.33148         7     1.409     0.544 -60.11   0
       288    264.5428    596.6671 307.8149208  +6.4410900     8274.169     11764.26     11649.42     81.08434     161.4637     322.9274      1.530     3.82     929.1217     56.92687     1136.776        30     1.458     0.893 -69.46   0
       289    817.1387    592.9406 307.5855194  +6.4611539     167433.5     239994.7     250386.9     80.95634     161.4637     322.9916      1.521     3.94     918.3057     56.92687      23251.3       117     1.595     1.142 -70.97   0
       290    198.7555    591.1337 307.8424322  +6.4411622     61135.47     90857.75     96118.66     80.95634     161.4637     322.9916      1.600     3.79     929.9034     56.92687     8373.354        79     1.623     1.142 -70.20   0
       291    746.9528    593.0413 307.6146694  +6.4587651     491.4941     629.6042     861.5011     80.82814     161.5279     322.8311      1.254     3.66     919.7093     56.92687     80.93433         5     1.005     0.384 -58.31   0
       292    122.7689    587.4610 307.8741167  +6.4401214     6796.537     9706.471     9253.312     80.69974     161.5921     322.8953      1.533     3.58     932.0085     56.92687     986.1537        26     1.387     0.888 -69.15   0
       293    987.7675    584.6847 307.5149208  +6.4702620     1366.042     2030.146      1673.51     80.95634     161.3352     322.8953      1.613     4.83     913.0294     56.92687     178.7601        15     1.177     0.953 -60.55   0
       294   1009.0674    583.7465 307.5061046  +6.4713601     745.7182     1153.038     1640.339     80.95634     161.4637     322.8632      1.671     4.63     912.3339     56.92687     130.8672         8     1.157     0.527 -86.22   0
       295    237.3538    582.9435 307.8266774  +6.4458417     847.3101     1435.084      2011.55     80.95634     161.5279     323.0237      2.450     4.63     928.6824     56.92687     130.2826        11     1.240     0.649 -86.96   0
       296    853.6707    580.2122 307.5707725  +6.4676302     4531.582     6409.779     6557.974     80.44232     161.2709     322.7668      1.507     3.93     917.2975     56.92687     662.2288        21     1.328     0.820 -72.74   0
       297    372.1254    578.3621 307.7708544  +6.4522621     17760.84     26359.84     27375.02     80.82814     161.5921     323.0237      1.583     4.00     926.5252     56.92687     2436.348        41     1.506     0.996 -72.75   0
       298    462.4510    578.6896 307.7333257  +6.4551588     802.8109     1111.451     946.6697     80.95634     161.3352      323.088      1.467     4.28     925.2565     56.92687     140.1887         7     1.186     0.440 -52.12   0
       299    174.0116    577.2512 307.8531788  +6.4460612     2122.357     3344.376     5089.198     80.31331     161.3995     322.7025      1.959     4.11     930.2865     56.92687     302.0161        17     1.307     0.795 -69.80   2
       300    249.1746    575.3564 307.8220241  +6.4493716     1088.841     1308.646     1950.494     80.57114     161.5921     322.8311      1.448     4.83     928.3478     56.92687     160.9648        11     1.103     0.873 -53.59   0
       301    807.6312    573.4787 307.5901227  +6.4688713     6176.953     8946.447     9436.521     80.82814     161.5279     322.9274      1.564     3.72     917.7412     56.92687     959.4167        25     1.414     0.841 -72.56   0
       302    538.4935    573.2375 307.7019240  +6.4599601     6904.472     10004.06        10191     81.08434     161.3995     323.0237      1.564     3.81     922.9072     56.92687     963.0303        29     1.410     0.922 -67.56   0
       303    111.2498    574.6845 307.8793334  +6.4450084     1061.511     1533.057     1166.393     80.95634     161.5279     323.0558      1.564     5.25     931.9268     56.92687     141.1613        10     1.148     0.677 -72.81   0
       304    396.8115    569.8745 307.7608872  +6.4565952      1593.89     2250.317     2363.228     80.44232     161.1423      322.799      1.493     3.65     926.1619     56.92687     257.2446        13     1.184     0.708 -69.91   0
       305    185.5100    566.3903 307.8487703  +6.4509320     7096.452     10692.38     11924.96     80.69974     161.2066     322.7668      1.651     3.76     929.4894     56.92687     942.5496        30     1.470     0.947 -73.05   0
       306    583.2220    566.2724 307.6835797  +6.4643349     2541.358     4079.759     4173.222     80.57114     161.3352     322.9274      1.684     4.21      922.084     56.92687     350.9832        22     1.532     0.888 -52.58   0
       307    866.8034    566.3753 307.5657821  +6.4737819     544.4991     940.5112     1458.564     80.57114     161.2066      322.799      2.041     4.74     916.5356     56.92687     91.07898         5     1.067     0.597 -61.50   0
       308    824.1823    565.7159 307.5835085  +6.4726297     1525.358     2066.841     2186.972     80.57114     161.2066     322.8953      1.487     4.94     917.2487     56.92687     235.8057        12     1.244     0.714 -61.43   0
       309    280.7421    562.8229 307.8093359  +6.4556074     89190.11     133755.2     139526.3     80.57114     161.5279     322.7668      1.595     3.78     927.7114     56.92687     11831.55        84     1.623     1.117 -71.12   0
       310     57.0416    565.0770 307.9021736  +6.4471492     5342.106     7849.556     8099.127     80.82814     161.5279     323.0237      1.566     4.05     933.3084     56.92687     687.3086        28     1.470     0.938 -72.28   0
       311    570.2481    560.3377 307.6891686  +6.4663504     1000.814     1460.183     1613.035     80.82814     161.4637     323.0237      1.705     5.30     922.1091     56.92687     144.9368        11     1.301     0.610 -69.53   0
       312    264.4371    557.6963 307.8162815  +6.4571758     1545.452     2276.211     2615.467     80.95634     161.3995     323.1201      1.703     3.86     927.6251     56.92687     236.8413        18     1.430     0.843 -82.27   0
       313    803.8766    555.3075 307.5922930  +6.4762481     17070.47     24444.92     24816.16     80.69974     161.7204     322.9595      1.545     3.89     917.1823     56.92687     2565.118        39     1.462     0.952 -70.33   0
       314    507.4892    553.7053 307.7154606  +6.4669846     41906.88     67005.02     70711.48     80.95634     161.9767     323.0237      1.765     3.78     923.2365     56.92687     5309.348        71     1.617     1.310 -61.71   0
       315    658.0770    552.2048 307.6529603  +6.4726505     1026.286     1532.725     1454.252     80.57114     161.0135     322.8311      1.498     4.44     919.9241     56.92687     150.9288        10     1.112     0.628 -48.33   0
       316    219.9980    549.8033 307.8350064  +6.4589402     2010.073     3255.515     4418.397     80.31331     161.0779     322.7025      1.742     4.00     927.7944     56.92687     278.6508        21     1.389     0.921 -68.10   0
       317     55.7186    550.0512 307.9032318  +6.4533080     1352.237     1903.901     2090.562     80.95634     161.5279     322.9595      1.532     4.58     933.1823     56.92687     183.7506        15     1.363     0.868 -66.11   0
       318    980.3673    556.6682 307.5189347  +6.4815822     1801.066     2567.231     2550.594     80.82814     161.5279     322.9595      1.579     3.90     912.9089     56.92687     232.0814        15     1.191     0.800 -61.41   0
       319    729.4039    547.9203 307.6234764  +6.4768070     1244.977     2046.106     2082.668     80.57114     161.0135     322.7025      1.781     6.37     918.0089     56.92687     175.1221        15     1.536     0.742 -72.06   0
       320    677.6664    548.5639 307.6449457  +6.4748096     1547.337     2139.987     2069.737     80.82814     161.5279     323.0237      1.516     4.24     919.1733     56.92687     237.6412        15     1.320     0.720 -65.83   0
       321    667.4869    548.6436 307.6491714  +6.4744359     3169.838     4441.349     4396.375     80.95634     161.3995     322.9595      1.511     4.04     919.4935     56.92687     443.5731        21     1.370     0.819 -65.61   0
       322    405.1815    544.1154 307.7582798  +6.4675111     1888.088     2894.464     3130.579     80.57114     161.2066     322.8953      1.518     4.14     925.3944     56.92687     265.5507        14     1.334     0.657 -76.42   0
       323    151.7966    541.1669 307.8636264  +6.4602111     26764.11     39980.76     41953.96     80.18408     161.3352     322.7347      1.588     3.91     929.8129     56.92687     3571.312        54     1.561     1.058 -71.33   0
       324    516.6292    541.9274 307.7120611  +6.4721538     2241.232     3302.692     3498.724     80.82814     161.5279     322.9274      1.579     3.95     922.5626     56.92687     336.3695        17     1.315     0.793 -69.04   0
       325    336.6947    542.5479 307.7867801  +6.4658582     3987.573     5602.117     5284.734     80.82814     161.4637     323.2163      1.531     3.67     926.1856     56.92687     573.3939        22     1.382     0.839 -70.59   0
       326    879.8177    541.3976 307.5612151  +6.4845293     1762.247     2620.988     2674.975     80.57114     161.0779     322.7347      1.626     4.27     915.1763     56.92687     235.8341        18     1.375     0.916 -71.26   0
       327    117.0181    539.4417 307.8781302  +6.4597526     2841.755     3982.622     4043.368     80.44232     161.3352     322.7347      1.540     4.05     930.7056     56.92687     355.8102        20     1.322     0.876 -74.57   0
       328    353.8651    537.8571 307.7798064  +6.4683716     1037.878     1505.181     1448.389     81.08433     161.4637     322.9916      1.532     4.47     925.7635     56.92687     151.3982        10     1.059     0.671 -81.89   0
       329    977.4669    535.6882 307.5208435  +6.4901475     5320.926     7815.697      7567.58     81.08434     161.7204     322.9274      1.595     3.70     912.4614     56.92687     802.3337        29     1.366     0.975 -70.21   0
       330    550.5493    528.1231 307.6984365  +6.4789903     1500.564     1991.494     1737.608     80.82814     161.5921     322.9274      1.468     3.90     921.0659     56.92687      213.657        14     1.194     0.795 -79.30   0
       331     16.1203    525.5031 307.9205103  +6.4621084     26253.72      38640.9        40278     80.69974     161.7845     323.0237      1.601     3.89     934.5884     56.92687     3359.071        54     1.587     1.062 -70.15   0
       332    448.8305    522.3602 307.7408831  +6.4779580     44067.39     64875.14     67539.37     80.44232     161.3352      322.799      1.578     3.74     923.4058     56.92687     6118.711        57     1.526     1.080 -70.97   0
       333    656.8800    522.0493 307.6544726  +6.4850606     12636.31     18357.84     19443.49     80.95634     161.5921     322.9595      1.515     3.74     918.7365     56.92687     1857.434        34     1.442     0.953 -70.24   0
       334    296.7363    522.8178 307.8040440  +6.4726613      1090.35      1659.19     1451.054     80.57114     161.4637      322.799      1.722     4.67     926.0244     56.92687     152.0101        11     1.052     0.770 -74.34   0
       335      1.5750    519.4332 307.9267574  +6.4641241     9751.719     14547.26     16561.02     72.86639     131.8346      246.892      1.624     4.00     935.1666     56.92687     2508.252        39     1.921     0.996  87.84  24
       336    990.5676    520.9120 307.5158972  +6.4966855     1169.065     1813.889     1877.288     81.08433     161.3352     322.9595      1.652     5.61     911.4956     56.92687     172.9794        12     1.430     0.681 -65.45   0
       337    214.0182    519.8994 307.8385012  +6.4710850     19193.27     30808.79     32494.58     80.95634     161.3995     322.7347      1.718     3.75      927.584     56.92687     2299.161        52     1.569     1.198 -81.04   0
       338    179.8885    520.7280 307.8526495  +6.4695947     1660.569     2468.012      1859.31     80.95634     161.7845     322.9916      1.456     4.19     928.8049     56.92687     233.6591        14     1.373     0.643 -73.00   0
       339    830.9619    520.0128 307.5822281  +6.4917258     935.9633     1349.455     1647.916     80.57114     161.3352     322.6704      1.479     4.84      915.684     56.92687     139.5179        11     1.319     0.564 -70.61   0
       340    578.6753    518.8940 307.6870643  +6.4837435     2789.251     4165.169     4397.345     80.82814     161.7204     322.9595      1.627     4.08     920.2308     56.92687     384.8092        20     1.371     0.853 -73.66   0
       341    919.3398    519.6949 307.5455264  +6.4948100     633.5817     815.5565     1094.155     80.82814     161.5279     323.0558      1.562     5.78     913.6022     56.92687     117.7487         8     1.293     0.727 -37.79   0
       342    952.4882    516.0490 307.5318788  +6.4974222     4952.385     7047.369     7153.828     80.95634     161.3995     323.0558      1.551     4.05     912.5546     56.92687     701.3817        23     1.358     0.865 -69.59   0
       343    625.7098    514.4101 307.6676776  +6.4871706     6991.883     10003.29     10222.75     80.69974     161.2066     322.7347      1.564     3.71     919.1288     56.92687     1003.412        29     1.432     0.899 -69.54   0
       344    113.3495    515.0150 307.8804807  +6.4697137     1132.895     1574.008      1330.51      80.3133     161.5279     322.7025      1.372     4.71     930.2738     56.92687     181.7191        13     1.374     0.621 -56.80   0
       345    975.2378    508.1894 307.5226922  +6.5014266     3691.469     5463.002     5188.026     80.31331     161.3352     322.6383      1.532     3.67     911.5151     56.92687     486.2775        24     1.371     0.915 -60.56   0
       346    537.8834    505.6756 307.7044543  +6.4878335     7933.169     11645.03     11705.47     81.08433     161.8486     323.0558      1.566     3.74     920.2258     56.92687     1067.846        33     1.420     1.011 -76.16   0
       347    413.6649    507.3135 307.7559979  +6.4829899     774.3898     972.8326     1512.572     80.95634     161.7204     322.9916      1.430     4.27     923.4659     56.92687     130.3998         8     1.018     0.597 -44.26   0
       348    383.7628    505.7962 307.7684699  +6.4826124     2889.256     4114.606     3952.483     80.05465     161.3352     322.7668      1.527     3.95     923.9766     56.92687     373.5328        20     1.334     0.849 -64.71   0
       349    753.4260    505.2592 307.6149326  +6.4952242     618.0612     747.1246     803.4377     80.57114     161.5279      322.799      1.442     3.79     916.8652     56.92687     112.2531         5     1.128     0.396 -73.74   0
       350    894.3807    501.5294 307.5565045  +6.5014763     3434.172     4654.059     5453.347     80.57114     161.3995     322.8953      1.476     3.84     913.8769     56.92687     496.9189        20     1.329     0.848 -74.55   0
       351    547.2075    502.1023 307.7007015  +6.4896214     711.6297     785.5152     829.4471     80.69974     161.1423     322.7347      1.295     4.53     919.7716     56.92687     113.3282         7     1.006     0.580 -73.06   0
       352    242.7094    500.4402 307.8272415  +6.4800837     626.1362     517.1676    -198.1551     80.95634     161.5279     322.9916      1.207     4.19     926.5146     56.92687     111.2271         7     0.964     0.520 -60.32   0
       353    901.8107    495.9330 307.5536060  +6.5040351     2265.641      3176.55     3386.144     80.44232     161.3352      322.799      1.452     3.67      913.617     56.92687     353.1959        15     1.227     0.753 -64.01   0
       354    941.1255    494.7956 307.5373124  +6.5058177     1172.543     1679.392     1336.808     80.57114     161.0135     322.8632      1.477     4.33     912.6098     56.92687     202.6601        14     1.297     0.715 -83.75   0
       355    120.9179    494.6414 307.8780265  +6.4783798      761.384     1065.614     1330.073     80.95634     161.5279     322.8953      1.567     5.25     929.7502     56.92687     96.47156         9     1.068     0.730 -78.33   0
       356    725.7923    491.8343 307.6268633  +6.4998423     3086.465     4356.159     3822.457     80.44232     161.3352     322.7347      1.503     3.83     917.0608     56.92687     471.6312        21     1.395     0.803 -70.17   0
       357    436.9955    490.3060 307.7468805  +6.4907947     1034.664      1381.68     2018.685     80.69974     161.2066     322.7025      1.372     4.97       922.18     56.92687     147.3079        11     1.225     0.661 -82.63   0
       358    396.5957    490.0422 307.7636711  +6.4895475     3753.847     5701.285     5805.966      80.3133     161.2066     322.7025      1.632     4.23     922.9952     56.92687     518.5355        23     1.402     0.908 -67.37   0
       359     87.5119    490.6937 307.8920359  +6.4788846     2045.952     3038.783     3720.025     80.95634     161.9767     323.0237      1.710     3.85     930.3456     56.92687     281.5195        17     1.272     0.827 -71.16   0
       360    624.3452    486.6300 307.6691799  +6.4985943      10427.8     14915.03     15138.57     80.69974     161.5921     322.8953      1.549     3.68     917.6606     56.92687      1456.12        31     1.421     0.925 -69.33   0
       361    787.0373    483.1931 307.6017122  +6.5054588     16826.72     24105.43     25095.18     80.18408     161.2709     322.7025      1.503     3.91     915.7075     56.92687     2413.295        38     1.465     0.930 -70.34   2
       362    791.3557    477.9245 307.6000954  +6.5077785     1435.219     2095.931     2278.225     80.82814     161.5921     322.9916      1.544     4.22     915.4731     56.92687      247.248        12     1.260     0.662 -71.04   3
       363    306.8278    483.6836 307.8011742  +6.4891573     2798.307     4045.618      3773.45     80.82814     161.2709     322.8311      1.552     3.98     924.4791     56.92687     349.7508        21     1.399     0.854 -70.46   0
       364    430.8105    482.5067 307.7497129  +6.4938072     667.4595     907.6813     862.0034     80.57114     161.1423     322.7347      1.678     4.77     921.9596     56.92687     99.27838         6     1.370     0.472 -67.74   0
       365    916.7648    480.3505 307.5479171  +6.5109681     537.0466     601.1097     328.7169     80.82814     161.5279     322.8632      1.300     4.34     913.1375     56.92687     88.69159         5     1.147     0.468 -58.07   0
       366    816.1243    480.2296 307.5897288  +6.5076550     1397.297      2066.56     2196.355     80.82814     161.5921     322.9916      1.500     3.92     914.9241     56.92687     200.5848        11     1.149     0.599 -65.80   0
       367    389.8482    480.1107 307.7668091  +6.4934212     1565.773      2107.22     2132.316     80.95634     161.3995     323.1201      1.475     4.45      922.685     56.92687     203.4895        14     1.273     0.714 -67.43   0
       368    972.3052    478.0102 307.5249232  +6.5137889     2293.574      3205.87     3191.394     80.57114     161.1423     322.7347      1.459     3.61     910.6051     56.92687     333.3007        14     1.231     0.696 -69.37   0
       369    720.7944    477.5524 307.6294199  +6.5055716      615.541     937.0351     775.0828     80.31331     161.3352     322.6383      1.589     5.70     916.7512     56.92687     92.45142         8     1.293     0.708  38.13   0
       370    378.4813    476.3284 307.7716585  +6.4946011     653.0016     830.7354     1012.727     81.21213     161.8486     322.9916      1.598     4.83     922.7228     56.92687     118.8632         8     1.208     0.547 -49.70   0
       371    124.3952    475.0778 307.8772442  +6.4865737     4648.599     7042.887     7306.752     80.57114     161.0135     322.7347      1.587     3.81     929.1982     56.92687     657.7703        26     1.420     0.919 -67.90   0
       372    762.6714    474.2395 307.6121351  +6.5083405     2387.409     3506.824     3354.889     80.82814     161.5279     323.0237      1.598     3.80     915.9689     56.92687     381.2476        18     1.289     0.819 -71.19   0
       373    282.3382    472.1697 307.8117359  +6.4930877     1574.871     2300.688     3323.274     80.69974     161.5279     322.8953      1.571     3.64     924.4024     56.92687     236.8817        15     1.247     0.756 -67.25   0
       374    360.5643    469.7801 307.7793222  +6.4967028      3285.88     4967.496     5095.768     80.44232     161.3352     322.7347      1.623     3.91     922.7232     56.92687     457.2033        21     1.386     0.854 -64.97   0
       375    716.3135    467.6567 307.6316143  +6.5095072     1705.058     2179.682      2195.49     80.95634     161.5279      323.088      1.494     3.63     916.3412     56.92687     238.0854        14     1.153     0.833 -65.64   0
       376    990.0906    466.4838 307.5179215  +6.5191415     575.3432     907.1426     1210.151     80.69974     161.8486      323.088      1.760     4.34     909.2122     56.92687     102.6678         6     0.980     0.548 -73.61   0
       377    248.8249    465.6409 307.8258775  +6.4946564     800.3181     1260.845     794.5193     80.57114     161.3995     322.7347      1.526     4.46     925.3484     56.92687     162.8307         9     1.219     0.669 -87.46   0
       378    419.6319    466.0819 307.7549106  +6.5002131     448.3412     393.5262     138.3695     80.82814     161.3995     322.9274      1.374     3.88     921.2755     56.92687     87.75177         5     0.899     0.481  87.36   0
       379    557.8779    460.2477 307.6976795  +6.5072593     944.7806     1335.203     1494.473     80.95634     161.5921     322.8953      1.410     5.87     917.9021     56.92687     135.2138        11     1.245     0.778 -77.42   0
       380    842.5626    457.6997 307.5795030  +6.5178407     1605.752     2309.194     2253.019     80.95634     161.3995     323.1842      1.549     3.67     913.4503     56.92687     229.6974        15     1.141     0.883 -64.38   0
       381    706.3207    459.2988 307.6360466  +6.5126234     533.8953     916.0901     1176.035     80.82814     161.8486     322.9916      1.872     3.93     916.0319     56.92687     92.58282         6     0.885     0.500 -45.68   0
       382    479.8123    458.5061 307.7301672  +6.5053604     1466.376     2095.644     2366.903     80.69974     161.2709     322.7668      1.553     4.22      919.623     56.92687     212.9341        14     1.262     0.744 -59.41   0
       383    828.2652    456.8611 307.5854706  +6.5177090     2245.916     3187.477     2847.287     80.95634     161.4637     322.9916      1.505     3.71     913.8549     56.92687     311.9111        18     1.247     0.828 -63.15   0
       384    627.4312    456.9411 307.6688978  +6.5109552     659.9572     1093.831     1275.465     80.69974     161.5279     322.8953      1.854     4.72     916.7776     56.92687     120.8349         8     1.202     0.525 -68.18   0
       385    725.5584    454.8795 307.6282036  +6.5150919     15720.48     22527.95     23515.25     80.82814     161.5279     322.9595      1.543     3.63     915.7257     56.92687     2360.398        40     1.471     0.962 -66.57   0
       386    646.8143    450.7106 307.6610556  +6.5141768     2693.917     3995.153     5121.838     80.69974     161.3352     322.8311      1.646     4.08     916.3706     56.92687      390.358        21     1.366     0.887 -70.19   0
       387    719.0922    449.3990 307.6310742  +6.5171382     842.8575     1262.025     1926.932      80.3133     161.0779     322.7025      1.959     5.46     915.5245     56.92687     129.0161         8     1.077     0.823 -14.02   0
       388    621.8591    447.8680 307.6715181  +6.5145146     5618.411     8128.534     9034.541     81.08433     161.4637     322.9595      1.519     3.63     916.6546     56.92687     832.4803        26     1.408     0.911 -73.83   3
       389    618.0287    445.3570 307.6731938  +6.5154229     15222.66     22172.25     23339.37     80.57114     161.5921     322.8311      1.546     3.83     916.6516     56.92687     2131.265        38     1.484     0.958 -72.45   3
       390    950.8066    444.8027 307.5349688  +6.5267816     4008.229     5905.185      6228.15     80.31331     161.2066     322.8311      1.575     3.76     910.2443     56.92687     641.8235        22     1.384     0.872 -73.14   0
       391    389.9391    440.7271 307.7681007  +6.5096841     29836.43     44173.98     45763.85     81.08433     161.5279     322.9916      1.569     3.75     920.4528     56.92687     4034.798        50     1.536     1.047 -69.62   0
       392    427.0565    442.3672 307.7526266  +6.5102531     657.2599     1032.759     606.4988     80.82814     161.5921     322.9595      1.467     4.38     919.8493     56.92687     103.8324         7     1.039     0.526 -62.96   0
       393    135.9193    440.2062 307.8736374  +6.5013584     2350.066     3660.465     4154.992     80.57114     161.0779     322.7025      1.709     4.17     927.3767     56.92687     359.0979        18     1.440     0.769 -72.31   0
       394    906.4093    440.2065 307.5535671  +6.5271965     1552.713     2463.457     3456.079     80.31331     161.3352      322.799      1.939     4.51     911.3847     56.92687     229.4273        15     1.198     0.849 -78.20   0
       395    919.5758    435.2141 307.5482650  +6.5296976     5231.162     7689.956     7819.937     80.69974     161.3352     322.8953      1.558     3.75     910.9067     56.92687     797.8488        24     1.420     0.874 -65.90   0
       396     69.3581    435.8342 307.9014341  +6.5009218     1343.805     2300.992     2665.644     80.69974     161.5279      322.799      1.898     4.97     929.0879     56.92687     194.6202        18     1.507     0.887 -66.68   0
       397    975.4310    432.7552 307.5251434  +6.5325778     692.8409     1019.679     729.0637     80.57114     161.5921      322.799      1.540     5.00     908.6736     56.92687     111.0932         8     1.537     0.460 -70.07   0
       398    247.4729    431.2840 307.8276005  +6.5087954      14135.8     21035.21     21574.46     81.08434     161.8486     322.9916      1.641     3.79     923.9712     56.92687     1809.302        37     1.482     1.012 -73.17   0
       399     83.0965    425.2816 307.8960846  +6.5057412     874.7645     1368.827     1775.677     80.82814     161.8486     323.0558      1.738     5.35     928.1582     56.92687     113.6727        10     1.397     0.579 -75.42   0
       400    742.3215    425.0515 307.6222433  +6.5279678      961.486      1223.07      1342.59     80.95634     161.5921     322.9595      1.471     4.75     914.1808     56.92687     122.0115        11     1.100     0.736 -66.20   0
       401    970.9173    423.6897 307.5273228  +6.5361700      1133.57     1590.421     1837.718     80.69974     161.7845     323.0558      1.568     5.02     908.4828     56.92687     167.0143        10     1.263     0.565 -65.56   0
       402    710.1838    424.5591 307.6356108  +6.5270956     689.1855     992.6085     596.7352     80.44232     161.3352     322.7347      1.453     4.22     914.6528     56.92687     130.4949         7     1.199     0.424 -67.50   0
       403    360.6324    420.6898 307.7809515  +6.5169724     1299.952     1722.305     1993.113     81.08434     161.3352     322.9595      1.522     4.84      919.639     56.92687      208.598        12     1.230     0.681 -85.04   0
       404    193.5197    421.0349 307.8503591  +6.5112119     754.8735     1242.625     1160.036     80.82814     161.5921     322.9916      1.702     4.34     925.2331     56.92687     134.4042         8     1.163     0.461 -79.60   0
       405    147.7609    419.8659 307.8694068  +6.5101546     5256.226     7942.815     8180.426     80.82814     161.4637     323.0558      1.611     3.79      926.022     56.92687     715.3513        28     1.446     0.948 -76.36   0
       406    252.4789    419.0164 307.8259357  +6.5140285     1238.947     1951.808      1467.05     80.57114     161.2709     322.8311      1.647     4.54     923.1848     56.92687     181.8103        14     1.363     0.825 -69.68   0
       407    387.7293    420.2704 307.7697093  +6.5180557     483.7201     804.8858     236.1809     80.95634     161.6563     322.9274      1.326     3.73     919.2733     56.92687     85.85504         5     0.909     0.439 -44.99   0
       408    445.0250    418.3746 307.7459718  +6.5207618     793.9154     1159.323     942.8359     80.44232     161.3352     322.8311      1.505     4.32     918.0635     56.92687     126.9039         7     0.913     0.584 -31.86   0
       409    169.7446    415.7047 307.8604156  +6.5126124     2577.468     4134.122      4021.42     80.82814     161.5279     323.1842      1.699     4.52     925.3215     56.92687     332.9888        22     1.544     0.835 -76.15   0
       410    834.0128    416.2384 307.5844482  +6.5346730     856.3209     1262.175     318.0421     80.57114     161.3352     322.6704      1.586     5.06      912.259     56.92687     129.4377         9     1.187     0.771 -71.87   0
       411    565.3518    414.6884 307.6961100  +6.5263196     1055.194     1299.585     1509.519     80.95634     161.3995     323.0558      1.497     5.39     916.5359     56.92687      140.475        13     1.327     0.715 -74.47   0
       412    981.8275    409.8947 307.5232532  +6.5422297     961.2936     1574.234     858.8447     81.08433     161.2709     322.8311      1.765     5.62     907.3958     56.92687     133.8981        11     1.434     0.621 -74.09   0
       413    393.4258    410.4050 307.7676759  +6.5223199     2062.321     2970.791     2663.135     80.44232     161.3352      322.799      1.591     3.81     918.5626     56.92687     265.2236        18     1.300     0.812 -63.82   0
       414    281.4106    411.3388 307.8141767  +6.5181709     884.7587     1288.747     902.0388     80.31331     161.3995     322.7025      1.618     5.52     921.2282     56.92687     123.4748        11     1.108     0.776 -60.21   0
       415     12.0409    410.5674 307.9260987  +6.5094216     765.0198     1086.043     1466.648     80.69974     161.3995     322.8311      1.500     5.15     929.6046     56.92687     106.2107        10     1.335     0.608 -45.19   0
       416    327.1842    408.1635 307.7952692  +6.5210203     632.9039     757.5672     256.4119     80.57114     161.3352     322.7347      1.387     4.63     919.6385     56.92687     82.05261         7     1.041     0.586 -75.70   0
       417    447.0409    404.1858 307.7456131  +6.5266875     7283.221     11099.23     10917.04     80.44232     161.3352     322.7025      1.612     3.98     917.1424     56.92687     980.4579        32     1.474     0.994 -72.19   0
       418     43.3481    405.1210 307.9132785  +6.5127253     3314.997     5368.215     5672.122     80.95634     161.5279     322.9595      1.727     4.37     928.6187     56.92687     423.0386        23     1.507     0.846 -63.32   0
       419     74.0129    405.3861 307.9005315  +6.5136490     463.6704     619.0325       639.89     80.82814     161.2066     322.8953      1.371     4.09     927.8181     56.92687      85.0011         5     1.087     0.440  65.08   0
       420    787.7127    401.4821 307.6041790  +6.5392173     13914.98     19329.08     19776.06     80.69974     161.7204     323.0237      1.519     3.84     912.9775     56.92687     2125.567        35     1.425     0.928 -71.45   0
       421    779.9019    402.9561 307.6073743  +6.5383475     2062.696     2803.174     3016.542     80.95634     161.4637     323.1842      1.423     3.41     913.0903     56.92687     350.8782        15     1.217     0.739 -64.14   0
       422    351.0640    400.0901 307.7856219  +6.5251558     1130.681     1783.264     1731.663     80.82814     161.7204     322.9916      1.594     4.56     918.4675     56.92687     142.7684        13     1.217     0.737 -60.47   0
       423    301.8243    399.7740 307.8060875  +6.5236317     478.1099     828.2039     632.2411     80.44232     161.3352     322.8311      1.613     3.78     920.0783     56.92687     69.22272         5     1.193     0.344 -12.01   0
       424    962.3507    392.9673 307.5319129  +6.5485684     670.3411     699.6155     1005.375     80.69974     161.5279     322.8953      1.259     4.84      907.401     56.92687     108.1971         9     1.115     0.595 -75.64   0
       425    195.9466    392.2173 307.8503257  +6.5231910     677.6316     963.6904     447.4408     80.44232     161.5921     322.6704      1.417     5.00     924.0896     56.92687      106.976         8     1.217     0.582 -60.80   0
       426      2.1047    390.2999 307.9309129  +6.5174540     896.7009     1969.482     2749.108     78.88019     140.0725     255.5199      2.533     8.70      929.194     56.92687     99.79688        20     1.968     1.073 -85.45  24
       427    912.7785    391.6318 307.5525524  +6.5474644     719.8261     1103.116     39.47893     80.44232     161.3352     322.7668      1.697     4.60     909.3073     56.92687     103.1453         7     1.119     0.537 -63.35   0
       428    495.2452    387.8247 307.7261397  +6.5350597       3210.3     4639.625     4452.993     80.44232     161.5279     322.8311      1.552     4.16     915.4016     56.92687     454.1411        23     1.393     0.862 -70.93   0
       429    467.4558    388.4741 307.7376623  +6.5338593     2408.221     3236.498     3023.791     80.82814     161.3995     322.8953      1.518     4.04     915.7949     56.92687     305.0104        18     1.348     0.804 -75.03   0
       430    924.0774    387.5927 307.5479939  +6.5495094     823.4303     996.3679     711.2811     80.57114     161.0135     322.7668      1.326     4.38     908.8541     56.92687     130.5327         7     0.886     0.617 -73.62   0
       431    853.0548    384.3967 307.5776074  +6.5484560     34747.33     51746.82     54279.23      80.3133     161.3352     322.6061      1.576     3.93      910.806     56.92687     4808.593        55     1.605     1.010 -73.72   0
       432    345.2804    380.2290 307.7886953  +6.5331612     914.9959     1052.738     1068.351     80.82814     161.4637     322.8953      1.327     5.10     917.4991     56.92687     131.0724        10     1.195     0.617 -72.99   0
       433     70.7677    380.4385 307.9027244  +6.5238393     694.2033     978.1527     905.6549     80.57114     161.3352     322.7668      1.586     4.64     927.3173     56.92687     96.21472         8     1.141     0.537 -65.93   0
       434    624.8212    376.8219 307.6726803  +6.5439462     2808.553     4041.259     4087.813     80.69974     161.3352     322.9274      1.551     4.08     913.3846     56.92687     370.8997        19     1.289     0.836 -76.32   0
       435     33.1594    376.9957 307.9184636  +6.5239934      1263.25     1983.526      2080.82     80.18408     161.2709     322.7025      1.704     5.59      928.089     56.92687     166.7072        14     1.293     0.758 -78.03   0
       436    156.2017    375.5895 307.8673986  +6.5287182     478.3922     759.8691     957.7498     80.57114     161.2066     322.7668      1.562     3.45     925.0847     56.92687     70.93506         5     0.757     0.454 -18.33   0
       437    709.5236    370.3754 307.6377084  +6.5494441     84214.91     120109.9     124734.4     80.57114     161.4637     322.9274      1.562     3.62     912.2098     56.92687     12040.89        73     1.518     1.086 -69.82   0
       438    867.8429    371.7849 307.5718875  +6.5541572     1261.007      1754.57     1701.193     80.44232     161.2709     322.7025      1.385     3.81     910.1268     56.92687     200.4128        10     1.169     0.566 -72.18   0
       439     88.9961    369.6033 307.8955191  +6.5289266     1305.135      2016.64     2573.968     80.31331     161.0779     322.7668      1.786     4.44     926.7042     56.92687     168.3422        13     1.048     0.911 -56.64   0
       440    951.1183    367.6541 307.5374292  +6.5586444     922.8365     1415.123     1687.029     80.95634     161.5279     323.0237      1.766     5.46     906.7756     56.92687     132.6053        10     1.229     0.684 -76.45   0
       441    572.0508    367.1554 307.6949288  +6.5461687     2736.502     3911.332     3921.757     81.08433     161.4637     322.9916      1.511     3.84     913.2018     56.92687     385.7203        17     1.317     0.752 -73.27   0
       442    109.2061    365.9308 307.8872480  +6.5311235     6349.867      9789.66     10215.33     80.44232     161.1423      322.799      1.605     3.88      926.151     56.92687     824.8982        29     1.497     0.943 -75.71   0
       443    769.9861    364.8872 307.6127740  +6.5537332     572.3004     997.5023     1297.156     80.57114     161.3352     322.8632      1.667     3.61     911.6701     56.92687      115.092         5     0.673     0.556 -89.38   0
       444    555.2406    363.2881 307.7020428  +6.5472019     7465.016      11180.1     11491.22     80.95634     161.4637     322.9916      1.596     3.80       913.08     56.92687     1020.657        34     1.430     1.056 -76.31   0
       445    284.3154    360.7762 307.8146788  +6.5391436     2765.132     3986.032     3643.176     80.82814     161.2709     322.9274      1.549     3.44     919.6594     56.92687     390.4103        20     1.343     0.922 -69.18   0
       446    418.1812    358.4345 307.7591461  +6.5446076     26791.77     40305.23     41952.76     80.44232     161.3352     322.7347      1.622     3.74     914.4783     56.92687     3679.956        48     1.518     1.069 -71.72   0
       447    596.9315    357.8921 307.6849045  +6.5508271     705.6774     1090.275     615.1299     80.95634     161.6563     322.9595      1.396     4.41     912.3685     56.92687     116.7272         7     1.183     0.471 -72.12   0
       448    525.8353    357.1038 307.7144674  +6.5487692     1483.176     2193.379     2118.183     81.08433     161.3995     323.1201      1.565     4.59     913.1268     56.92687     193.6267        11     1.179     0.642 -74.43   0
       449    398.2116    356.5356 307.7675062  +6.5447211     1267.551      1878.77     2216.014     80.44232     161.3352      322.799      1.563     4.62     914.7927     56.92687     195.3385        12     1.351     0.588 -66.85   0
       450    497.5712    353.7093 307.7263239  +6.5492226     1204.689     1759.978     1795.696     81.08434     161.2709     322.8632      1.588     5.06      913.505     56.92687     181.1082        11     1.205     0.691 -71.88   0
       451    812.8836    350.9775 307.5954199  +6.5609108     1016.035     1548.088     1439.406     80.82814     161.2066     322.8632      1.559     5.27     910.7615     56.92687      130.283        12     1.428     0.694 -68.55   0
       452    649.2686    350.9213 307.6633960  +6.5554585     668.8098     957.4268     1057.061     81.08433     161.7204     322.9274      1.387     4.04     911.6547     56.92687     120.0267         7     1.014     0.687 -22.37   0
       453    507.2610    348.8857 307.7224610  +6.5515392     8839.209     13128.31     13920.88     81.08433     161.6563     322.9916      1.602     3.74     912.9848     56.92687     1235.264        30     1.468     0.928 -70.23   0
       454    395.1103    350.9386 307.7689835  +6.5469277     724.9004     1048.589     1310.515     80.95634     161.6563     323.0237      1.413     3.89       914.51     56.92687     123.7427         6     0.790     0.550 -49.48   0
       455    776.3116    347.5539 307.6107291  +6.5611011       3458.1     4931.427     5095.048     80.95634     161.3995     323.0237      1.538     3.85     910.9974     56.92687     466.9777        21     1.389     0.837 -64.03   0
       456    931.9269    347.1855 307.5460896  +6.5664545     867.6014     1237.493     835.9716     80.44232     161.2709     322.8632      1.573     4.42      906.842     56.92687     137.2227        10     1.078     0.775 -20.26   0
       457    724.2538    347.2057 307.6323684  +6.5595031     765.5583     1037.739     1304.885     80.44232     161.2709     322.6383      1.576     4.19     911.2621     56.92687     111.8909         8     0.945     0.607 -83.24   0
       458    333.8174    345.7797 307.7946209  +6.5469987     1083.414     1577.604     1443.645     80.69974     161.3352     322.8632      1.450     4.48     916.3858     56.92687     177.6034        10     1.127     0.647 -55.58   0
       459    169.4926    339.1483 307.8631104  +6.5442103     1091.079     1553.028     1334.842     80.82814     161.3995     323.1842      1.612     4.02      923.864     56.92687     170.1799        10     1.127     0.724 -86.68   0
       460    616.2189    338.4175 307.6775477  +6.5595137     494.1884     702.5521     581.4003     80.69974     161.2709     322.8953      1.199     3.41     911.0738     56.92687     94.84113         5     1.148     0.293 -53.94   0
       461    269.1814    338.9522 307.8217035  +6.5476448     641.5451     1032.848     1061.944     80.44232     161.5279     322.7668      1.530     3.44     919.2455     56.92687     93.07233         5     0.793     0.504  36.44   0
       462    397.1926    333.0298 307.7687231  +6.5543914     7507.609     11473.98     11950.95     80.44232     161.3352     322.7347      1.576     3.70     913.8765     56.92687     1024.388        29     1.471     0.925 -68.42   0
       463    252.9945    333.5547 307.8286105  +6.5493289     2308.722     3651.661     3708.332     80.31331     161.2709     322.6061      1.713     4.25     919.5762     56.92687      318.456        20     1.428     0.849 -73.99   0
       464    750.8335    332.9038 307.6218069  +6.5662973     1085.773     1403.623     1701.542     81.08433     161.3995      323.088      1.476     3.54      910.764     56.92687     177.1638        11     1.075     0.662 -73.23   0
       465    765.0184    328.9279 307.6160474  +6.5684134     56778.82      81265.5      84304.8     80.44232     161.4637     322.8953      1.504     3.91     910.4468     56.92687     8023.982        68     1.508     1.078 -70.01   0
       466    436.5766    328.2232 307.7525235  +6.5576981     2395.304     3540.212     3513.269     80.44232     161.3352     322.8953      1.541     4.20     912.7955     56.92687     313.0494        18     1.352     0.784 -70.94   0
       467    999.8545    326.0656 307.5185770  +6.5774420      1905.72     2466.974     2167.307     80.95634     161.4637     322.9274      1.459     4.63      902.973     56.92687     260.8904        14     1.237     0.719 -70.22   0
       468    940.8308    325.2030 307.5431285  +6.5758277     2550.516      3753.39     3980.799     80.44232     161.3352     322.7347      1.530     3.75     905.2878     56.92687     412.4854        20     1.302     0.882 -69.63   0
       469    582.8623    325.7048 307.6918341  +6.5636445     1192.964     1720.261     1135.529     80.82814     161.5921     322.9916      1.511     5.36     910.4833     56.92687     168.3771        13     1.269     0.734 -73.78   0
       470    473.8666    324.5912 307.7371540  +6.5604490     1087.248     1704.105     2029.497     80.44232     161.2709     322.8311      2.030     6.47     911.9139     56.92687     158.9556        15     1.776     0.661  89.19   2
       471    422.9998    324.1445 307.7583015  +6.5589262      2134.66     3113.732     2886.111     80.18408     161.1423     322.6061      1.546     4.10     912.8849     56.92687     274.6235        17     1.276     0.843 -70.65   0
       472    303.5426    323.4159 307.8079537  +6.5552142      662.748     641.5025     237.1094     80.31331     161.4637     322.7025      1.324     4.66     917.1262     56.92687     84.70203         7     0.912     0.677 -78.41   0
       473    844.4034    318.5262 307.5834154  +6.5753627     1134.367     1668.234     1618.351     80.44232     161.0779     322.8311      1.623     4.08     908.2548     56.92687     178.1511        11     1.240     0.673 -68.38   0
       474    977.1830    316.5342 307.5283162  +6.5806205     596.4358     767.0444     1003.581     80.44232     161.4637     322.8311      1.662     3.58     903.6476     56.92687     100.2444         5     0.987     0.375  84.10   0
       475    453.9779    315.4253 307.7457260  +6.5635658     1307.632     2133.861     2138.005     80.44232     161.3352     322.8953      1.674     4.75     911.7312     56.92687     177.8536        16     1.476     0.745 -84.30   0
       476    199.6112    315.2826 307.8514056  +6.5550769     2280.454     3616.859     3903.475     80.57114     161.2066      322.799      1.692     4.06     921.5104     56.92687     354.4241        20     1.439     0.810 -68.64   0
       477    763.4349    313.5191 307.6172235  +6.5747222     6535.059     9122.399     9181.199     80.82814     161.5921     322.9595      1.514     3.61     910.0068     56.92687     979.6927        25     1.381     0.870 -71.00   0
       478    235.1786    313.5935 307.8366867  +6.5569708     659.0934     984.4731     703.2986     80.57114     161.3352     322.7668      1.731     4.44     919.6451     56.92687     104.0642         6     1.207     0.465 -49.12   0
       479    779.9229    311.3881 307.6104450  +6.5761536     2713.478     3641.397     3645.522     80.57114     161.1423      322.799      1.377     3.60     909.4974     56.92687     424.2738        18     1.287     0.778 -70.17   0
       480    353.8010    313.1582 307.7874208  +6.5611381     521.3813     1102.041     822.4797     80.31331     161.2066     322.6383      1.774     3.75     914.5842     56.92687     107.0079         5     1.626     0.249 -32.41   0
       481     96.0220    312.4893 307.8945343  +6.5527426     1088.158     1487.414     2290.326     80.95634     161.3352     322.8311      1.471     3.71     925.7454     56.92687     219.9164         8     1.166     0.479 -62.72   0
       482    371.0000    306.0246 307.7805164  +6.5646610     1177.299     1813.546     1929.628     80.44232     161.1423     322.7347      1.555     4.72     913.8652     56.92687     156.3597        14     1.433     0.716 -88.90   3
       483    368.3592    306.2274 307.7816067  +6.5644886     1584.783     2334.582     2545.106     80.57114     161.3352      322.799      1.591     3.69     913.9662     56.92687     227.4193        14     1.157     0.857  77.26   3
       484    322.6162    307.5687 307.8005652  +6.5623979     458.8304     522.7273      319.906     80.57114     161.2709     322.8632      1.091     4.16     915.7224     56.92687     84.49213         5     0.978     0.505 -44.33   0
       485     82.9427    306.5570 307.9001687  +6.5547512      1307.44     2181.222     2320.391     80.82814     161.4637     322.9595      1.774     4.36     926.0439     56.92687     203.5205        14     1.237     0.842 -52.42   0
       486   1018.0695    302.4843 307.5118004  +6.5877858      6625.92     8961.492     9355.627     81.21212     161.7845      314.698      1.498     3.86     902.1854     56.92687     866.8071        25     1.310     0.921 -71.93  16
       487    496.1194    302.3118 307.7286605  +6.5703939     2282.099     3251.233     3182.509     80.69974     161.7845     323.0558      1.549     3.78     909.8675     56.92687      323.983        19     1.343     0.834 -69.00   0
       488    258.7037    297.8134 307.8274470  +6.5642768     6099.071     9227.882     10063.09     80.69974     161.2709     322.7347      1.606     3.86     918.0556     56.92687     799.8748        30     1.498     0.929 -70.12   0
       489    823.6603    296.3591 307.5927787  +6.5838212     657.7776     1099.273     1253.961     80.95634     161.5279     323.0237      1.816     5.34      907.517     56.92687     116.3634         7     1.248     0.646 -77.77   0
       490    950.1234    292.8609 307.5403536  +6.5894911      613.398     971.2563      904.611     81.21212     161.5921     322.9274      1.724     4.93      903.535     56.92687     77.63947         8     1.205     0.572 -84.50   0
       491    778.0168    291.3477 307.6119110  +6.5843639     810.9269     1142.006     1053.959     80.44232     161.5921     322.6704      1.533     4.87     908.7681     56.92687     140.7837         8     1.227     0.548 -55.68   0
       492    392.9340    288.5122 307.7719952  +6.5726277      1773.42     2682.247     3317.349     80.95634     161.7204     322.9595      1.697     4.41     912.5851     56.92687     263.8455        19     1.538     0.753 -82.24   0
       493    235.3003    290.6644 307.8374115  +6.5664412      786.113     1105.109     1201.311     80.95634     161.6563     322.9274      1.546     4.82     919.0323     56.92687     113.8556         8     0.999     0.661 -85.03   0
       494    979.8364    287.3391 307.5281938  +6.5927628      1183.29     1613.891     1542.919     80.95634     161.5279     322.9274      1.611     4.96     902.7601     56.92687     157.4383        10     1.212     0.573 -73.08   0
       495    199.5704    284.6460 307.8524589  +6.5677238     549.2029     840.7769     851.9236     80.44232     161.6563     322.8311      1.591     5.16     920.7869     56.92687     92.96814         7     1.521     0.495 -89.23   0
       496    162.5047    284.5146 307.8678620  +6.5665306     1866.542     2795.225     2678.609     80.95634     161.9127     323.0558      1.644     4.51     922.7903     56.92687     259.8803        18     1.527     0.777 -62.84   0
       497    315.4704    284.4008 307.8043167  +6.5717227     1223.675     1816.442     1690.645     80.31331     161.0779     322.7668      1.651     4.33     915.2654     56.92687     170.3291        13     1.247     0.741 -65.68   0
       498    572.2032    280.0294 307.6978018  +6.5821448     2269.095     3502.814     3540.218     80.44232     161.2709     322.7668      1.612     3.75     907.9383     56.92687     332.7089        18     1.251     0.912 -66.40   0
       499    915.9973    279.0979 307.5549946  +6.5940336     1847.458     3030.311     3205.653     80.69974     161.2709     322.6383      1.793     4.87     903.8782     56.92687        227.7        20     1.299     1.243  63.94   0
       500    735.9026    277.6331 307.6298698  +6.5886171     5492.384     7627.069     7945.277     80.95634     161.3995      323.088      1.513     3.83     909.3552     56.92687     786.5616        25     1.328     0.895 -70.91   0
       501    676.6957    277.6147 307.6544694  +6.5866427     2243.375     3209.581     3197.046     80.69974     161.2709     322.7347      1.564     4.01     909.6109     56.92687     322.2038        16     1.332     0.711 -74.79   0
       502    973.8265    277.0791 307.5310352  +6.5967983     742.0124     1203.385     1126.167     80.82814     161.4637     322.9274      1.758     4.82     902.5505     56.92687     118.6559        10     1.218     0.636 -57.34   0
       503    391.6656    271.7209 307.7730891  +6.5795175     664.2507     692.6716      829.804     81.08434     161.6563     322.9274      1.196     4.61     912.0074     56.92687     128.5944         6     1.294     0.467 -86.75   0
       504    931.9432    269.7787 307.5486823  +6.5984138     1105.835     1723.565     1814.179     80.57114     161.4637     322.7668      1.555     5.08     903.2206     56.92687     171.5938        10     1.317     0.554 -58.40   0
       505    235.4113    262.9504 307.8383026  +6.5778867     2562.799     3671.294     3927.399      80.3133     161.3995     322.6383      1.528     3.60     918.6055     56.92687     343.0609        17     1.254     0.814 -68.06   0
       506    878.2146    261.9966 307.5712674  +6.5998319     1816.545     2616.757     3252.018     80.57114     161.2066     322.8311      1.579     4.32     904.3196     56.92687     238.6378        14     1.263     0.721 -74.35   0
       507    768.4734    261.1823 307.6168907  +6.5964988     1804.794     2581.856     2659.631     80.44232     161.4637     322.8632      1.565     4.15     907.4253     56.92687     255.6425        17     1.313     0.822 -64.64   0
       508    257.7623    256.2551 307.8292431  +6.5814026     634.2524     1043.745     965.1745     80.95634     161.5921     322.9916      1.798     4.72     917.5057     56.92687     160.8795         7     1.365     0.474 -69.41   0
       509    469.3455    252.7754 307.7414552  +6.5899471     23456.01     35280.57     36564.03     80.57114     161.5921     322.7668      1.616     3.67     908.2642     56.92687     3138.335        42     1.504     1.034 -70.27   2
       510    474.9945    247.5735 307.7392837  +6.5922843     1535.993     2384.203      2598.69     80.44232     161.3352     322.7668      1.751     6.11      907.843     56.92687     204.4992        16     1.504     0.767 -78.09   2
       511    330.6753    253.9191 307.7990296  +6.5848182     714.6725     1001.249     939.1019     81.21212     161.7845     323.0237      1.600     5.64     914.0851     56.92687     93.95416         9     1.329     0.675 -58.03   0
       512    795.3284    251.9191 307.6060444  +6.6012216     14001.45     20533.17     21181.04     81.21212     161.8486     322.9916      1.572     3.83     906.4067     56.92687      1885.17        47     1.493     1.194 -54.92   0
       513    734.1450    247.5843 307.6316112  +6.6009643     777.6945     1245.874     1085.826     80.31331     161.4637     322.6704      1.548     5.27     907.2367     56.92687     149.1893        10     1.439     0.544 -78.74   0
       514    157.5953    246.0220 307.8712043  +6.5822569     2549.721     3928.186      4518.83     80.57114     161.2709     322.7347      1.691     3.86      921.188     56.92687     343.8776        22     1.461     0.859 -77.86   0
       515    132.2125    245.2184 307.8817769  +6.5817341     1182.129     1670.054     1699.138     80.69974     161.2066     322.8632      1.522     4.61     922.5605     56.92687     172.8202        12     1.225     0.653 -61.93   0
       516    184.1701    244.1560 307.8602268  +6.5839218     615.8228      934.988     726.6432     80.57114     161.5279     322.8311      1.473     4.80     920.1409     56.92687     107.1187         6     1.070     0.610 -50.08   0
       517    931.7873    242.3366 307.5496687  +6.6097386     1480.082     2008.141     2071.851     80.44232     161.3352     322.7347      1.475     4.04     902.5422     56.92687     245.1159        12     1.226     0.641 -69.83   0
       518    593.4108    238.5352 307.6903890  +6.5999870     4969.539     7415.036     7510.817     80.44232     161.3352     322.8311      1.640     3.78     906.5295     56.92687     646.6185        29     1.442     0.982 -70.37   0
       519    556.1575    238.4677 307.7058693  +6.5987661     2142.264     3105.201     2938.212     80.95634     161.4637     323.0237      1.519     3.66      906.911     56.92687     310.2952        19     1.393     0.801 -76.69   0
       520    313.8028    239.1938 307.8065371  +6.5903305     1085.855     1772.361     1469.186     80.31331     161.2066     322.8311      1.611     4.05     914.7368     56.92687     188.5908        11     1.159     0.703 -70.95   0
       521    397.9818    237.8274 307.7716093  +6.5937228      1465.74     2158.457     2147.062     80.57114     161.3352     322.8632      1.517     4.00     910.5121     56.92687     198.7305        14     1.204     0.760 -70.63   0
       522    900.4238    235.1266 307.5629424  +6.6116677        12216     17389.54      17831.5     80.57114     161.3352     322.8953      1.506     3.58     902.9088     56.92687     1761.817        34     1.403     0.953 -71.67   0
       523    954.3789    235.5639 307.5405094  +6.6132893     2742.365     3615.774     3854.738     80.44232     161.2709     322.7025      1.444     3.84     901.7929     56.92687      393.035        17     1.266     0.765 -72.18   0
       524    219.5148    234.9067 307.8458554  +6.5889297     777.1201     1271.986     1149.307     80.82814     161.9767     323.0558      1.853     5.47     918.7316     56.92687     126.3291        12     1.753     0.481 -85.42   0
       525    575.4121    235.3824 307.6979734  +6.6006854     901.5983      1296.03     1421.894     80.69974     161.2066     322.8632      1.621     4.57     906.6098     56.92687     154.1039         8     1.132     0.544 -54.65   0
       526    328.1573    235.3528 307.8007030  +6.5923987     906.5442     1295.971     1152.394     80.95634     161.4637     322.8632      1.624     4.55     913.8624     56.92687      134.989         8     1.074     0.548 -53.30   0
       527    987.1118    232.9613 307.5269962  +6.6154566      10609.2     15108.69     15504.04     80.95634     161.4637     322.9916      1.496     3.84     900.7841     56.92687     1481.089        35     1.412     0.957 -70.52   0
       528     26.5791    231.6635 307.9261215  +6.5837712     26602.18     39875.38     41081.91     80.57114     161.5279     322.8311      1.637     3.83     927.1595     56.92687     3474.444        48     1.534     1.059 -71.41   0
       529    698.5143    232.8687 307.6469107  +6.6058472     3060.115     4361.439     4688.395     81.08433     161.7845     322.9916      1.515     3.97     906.9453     56.92687     414.8936        19     1.384     0.771 -73.35   0
       530    272.8770    232.4219 307.8237693  +6.5917504     1203.816     1562.792     1189.077     80.57114     161.3352     322.8953      1.481     4.06     916.7518     56.92687     160.8188        11     1.057     0.698 -70.54   0
       531    507.0912    227.7899 307.7266155  +6.6015290     1989.375     2890.356      2906.72     80.69974     161.1423     322.7025      1.461     4.14     906.8335     56.92687     305.4785        18     1.551     0.702 -74.55   0
       532    838.7568    224.4857 307.5889226  +6.6140000     2302.197     3124.444      3245.43     80.95634     161.3995     322.9595      1.560     3.92     903.8361     56.92687     290.3718        17     1.294     0.752 -65.65   0
       533    891.2100    223.7412 307.5671533  +6.6160605     2174.674     3174.553     3359.694     80.31331     161.3995     322.6704      1.557     3.99     902.6553     56.92687     285.8984        16     1.196     0.856 -63.10   0
       534    519.0349    223.6837 307.7217916  +6.6036249     2703.379     3926.518     4103.464     80.95634     161.5279     322.9274      1.557     3.90     906.7012     56.92687     364.2852        21     1.356     0.856 -61.09   0
       535    750.5988    221.0846 307.6256664  +6.6124557     41722.48     60718.03     63277.94     80.18408     161.0779     322.6704      1.534     3.66     905.3522     56.92687     5858.389        54     1.491     1.033 -72.07   0
       536    353.6602    220.4375 307.7906111  +6.5994135     6395.512      11937.2     12983.01     80.95634     161.5921     322.9595      2.022     5.45     912.0219     56.92687     874.1255        44     2.095     0.981 -75.89   0
       537    984.3196    219.8445 307.5285967  +6.6207789     2978.344     4082.073     3632.893     80.95634     161.5279     322.9274      1.488     3.86       900.51     56.92687     423.1892        17     1.282     0.768 -74.61   0
       538   1022.7324    218.6324 307.5126766  +6.6225613     1888.106     2393.249     2483.354       79.925     142.0574     258.2247      1.431     4.17     899.4512     56.92687     269.3351        15     1.235     0.736 -72.84  24
       539    918.4860    218.1693 307.5560072  +6.6192722     8104.525     11382.17     11667.76     80.95634     161.3352     322.8632      1.502     3.54     902.0627     56.92687     1184.783        29     1.339     0.942 -71.36   0
       540    461.9035    217.1798 307.7457482  +6.6043932     5167.672     7775.207     8159.765     80.82814     161.3352     322.7668      1.583     3.64     907.1938     56.92687     716.2888        27     1.410     0.942 -71.52   0
       541    236.3147    213.7755 307.8395903  +6.5982189     682.4823     1024.226     665.4478     80.95634     161.2709      322.799      1.648     5.35     917.9982     56.92687     128.9908         8     1.536     0.526 -73.51   0
       542    119.3743    208.6670 307.8883481  +6.5963919     5048.527     7878.013     8248.742     80.57114     161.3995     322.8632      1.684     3.70     922.0879     56.92687     671.8072        33     1.583     0.990 -77.23   0
       543    938.8035    207.8249 307.5479125  +6.6242217     797.3441     1144.523     1334.467     80.44232     161.2066      322.799      1.425     4.48     901.2709     56.92687      136.425         9     1.192     0.634 -59.33   0
       544    289.7186    205.2521 307.8176905  +6.6035337     34713.62     52548.52     54663.27     80.95634     161.5279     322.9916      1.635     3.76     916.2991     56.92687     4471.125        56     1.558     1.101 -72.30   0
       545    265.0093    206.2673 307.8279223  +6.6022838     6709.238     10159.45     10570.69     80.44232     161.3352     322.8632      1.613     3.80     917.0909     56.92687     868.4464        30     1.462     0.966 -69.92   0
       546    615.6400    207.2376 307.6822076  +6.6136535     618.4569     1004.796      1230.59     80.69974     161.5279     322.8311      1.839     3.45     905.6411     56.92687     92.87628         5     0.761     0.452 -74.75   0
       547    718.9410    204.2731 307.6393860  +6.6183370     937.7618     1500.552     2078.138     81.08433     161.5279     322.9595      1.547     4.97     905.5739     56.92687     141.5002        10     1.276     0.548 -65.11   0
       548    413.7698    200.7409 307.7663019  +6.6095643     51642.91      77544.3     80327.49     80.69974     161.5279     322.9274      1.620     3.76     908.4381     56.92687     6957.623        65     1.568     1.107 -71.82   0
       549    169.7466    202.0972 307.8676424  +6.6008002     4087.944     6233.487     6415.436     80.82814     161.5279     323.1842      1.602     3.98     919.6157     56.92687     559.3207        22     1.412     0.845 -71.60   0
       550    431.0854    201.2789 307.7590893  +6.6099235     1417.394      2207.66     1975.388     80.82814     161.8486     323.0558      1.629     4.58      907.762     56.92687     207.0458        15     1.364     0.718 -80.37   0
       551    317.7849    198.4249 307.8062603  +6.6072958     18982.03     28631.94     29953.52     80.69974     161.3352     322.8953      1.645     3.71     914.4592     56.92687     2474.233        47     1.570     1.065 -69.05   0
       552    297.9134    200.5622 307.8144443  +6.6057455      568.467     750.0369     911.1405     80.95634     161.4637     322.9595      1.454     4.63     915.7977     56.92687     97.50732         5     1.039     0.585 -73.67   0
       553    753.0737    196.9364 307.6254507  +6.6225084     35184.14     50508.11     52442.81     81.08434     161.5279     322.9595      1.512     3.93     904.7372     56.92687     4823.297        55     1.506     1.032 -70.73   0
       554    701.0794    198.9731 307.6469859  +6.6199273      999.393     1504.793     1391.003     80.82814     161.4637     322.9595      1.476     5.15      905.752     56.92687      147.385        10     1.367     0.548 -70.53   0
       555    325.5770    198.0485 307.8030355  +6.6077131     2015.806     3644.383     4300.082     80.57114     161.5279     322.8632      1.932     5.93     913.9131     56.92687     259.0781        25     1.828     0.935 -70.38   0
       556    801.5053    197.4646 307.6053093  +6.6239105      1388.77      1880.56     1840.416     80.82814     161.6563     322.9916      1.500     5.07     903.4011     56.92687     197.2262        13     1.228     0.796 -63.46   0
       557     40.7627    197.3826 307.9213905  +6.5984019      746.673     1181.829     1506.504     80.57114     161.3995     322.7025      1.708     5.94     926.6014     56.92687     104.1482         9     1.156     0.860 -29.45   0
       558     69.8890    194.1890 307.9093978  +6.6007020     9279.959     14175.81     14779.59     80.69974     161.2709     322.7668      1.599     3.94     924.4849     56.92687     1211.988        37     1.481     1.039 -72.46   0
       559    576.7767    195.2175 307.6987602  +6.6173136     409.6479     633.9761     470.9152     80.57114     161.3352     322.8311      1.418     3.62     905.4304     56.92687     77.52435         5     0.827     0.637 -41.20   0
       560    103.6644    192.1787 307.8954333  +6.6026698     1562.405     2502.659     2524.404     80.57114     161.5279     322.8311      1.637     4.29     922.1146     56.92687     224.3896        16     1.467     0.706 -71.79   0
       561   1011.5762    191.6128 307.5182189  +6.6333446     1320.356     1760.031     1723.962     80.69974     161.3352     322.8953      1.555     3.75     899.6144     56.92687     224.8104        13     1.194     0.789 -74.88   0
       562    979.1871    190.1953 307.5317246  +6.6328487     530.8419      760.567      171.894     80.57114     161.2709     322.8311      1.665     3.76     900.0453     56.92687     83.84882         5     1.207     0.337 -80.27   0
       563    738.3562    183.9941 307.6320014  +6.6273593      595.528     996.7003     677.7973      80.3133     161.2066     322.6383      1.546     3.87     904.9729     56.92687     92.02362         5     0.901     0.475 -85.70   0
       564    586.7836    181.2975 307.6950715  +6.6233960     840.6903     1181.031     761.7209     80.95634     161.3352     322.7668      1.511     5.15      905.054     56.92687     115.0114         9     0.994     0.754  44.74   0
       565      3.3664    179.0875 307.9375474  +6.6046941     927.4753     1480.294     1146.153     80.95634     154.1699     274.4607      1.629     4.77     930.0029     56.92687     128.8388        12     1.339     0.660 -65.99  16
       566   1012.3702    177.5045 307.5183624  +6.6391959     2352.062     3004.481     3595.847     81.08434     161.2709     322.9595      1.459     4.22     899.5469     56.92687     356.2709        14     1.203     0.729 -73.53   0
       567    595.5714    175.0146 307.6916319  +6.6262845     1169.036     1624.869     1970.748     80.57114     161.3352     322.8632      1.467     4.28     904.9464     56.92687     193.6902        11     1.227     0.682  87.41   0
       568    347.8614    173.8375 307.7945947  +6.6184576     965.2316     1330.977     1277.755     80.95634     161.5921     322.9595      1.579     6.08     912.4308     56.92687     127.9533        12     1.346     0.773 -71.73   0
       569    288.5571    171.5341 307.8193128  +6.6174152     32046.47        47854     50321.95     80.95634     161.4637     322.9916      1.655     3.82     916.7084     56.92687     4100.951        59     1.649     1.220 -54.01   0
       570    603.7719    173.1435 307.6882876  +6.6273319     2061.824     3019.728     3379.091     80.57114     161.5921     322.8632      1.528     3.84     904.9464     56.92687     279.9291        16     1.306     0.826 -71.59   0
       571     33.8444    170.0219 307.9251920  +6.6094643     4601.761     7253.137     8021.905     80.44232     161.3995     322.7668      1.686     3.94     927.3821     56.92687     586.1388        29     1.628     0.928 -71.73   0
       572    720.3064    168.1462 307.6400347  +6.6332982     8496.998     12362.68     13097.23     80.82814     161.4637     323.1842      1.530     3.81     904.8672     56.92687     1149.596        33     1.403     0.965 -73.01   0
       573    197.6294    169.4516 307.8571624  +6.6152163     991.8251     1191.965     1613.944     80.69974     161.6563     322.8632      1.636     4.38     918.7357     56.92687     152.6918         8     1.281     0.426 -79.11   0
       574    274.2116    166.7734 307.8254342  +6.6188983     812.9623     1303.801     1513.575     80.57114     161.3352     322.8953      1.721     4.53     917.0789     56.92687     151.6819        10     1.223     0.868 -57.34   0
       575    131.0558    165.1979 307.8849665  +6.6147313     4948.287     7640.913     7278.121     80.31331     161.2066     322.6383      1.607     4.01     920.2576     56.92687     670.7349        29     1.510     0.950 -73.43   0
       576    593.0000    163.0764 307.6931027  +6.6311271     626.2815     960.3508     907.8813     80.18408     160.8846     322.7347      1.512     3.85     904.6614     56.92687      100.342         5     1.471     0.289  90.00   0
       577    469.9725    162.2799 307.7442482  +6.6273298     1535.441     2299.926     2217.792     80.82814     161.3995     322.9595      1.626     5.12     905.1075     56.92687     193.5031        14     1.363     0.736 -63.93   0
       578    658.7277    161.7979 307.6658352  +6.6338572     832.9002     1193.576     775.7161     80.44232     161.1423      322.799      1.564     5.24     904.8063     56.92687     114.7812         9     1.265     0.772 -85.21   0
       579    401.6868    161.0697 307.7726617  +6.6255369     3951.714     6640.905     6677.318     81.08433     161.7845     322.9916      1.820     4.51     907.9877     56.92687     482.8077        31     1.615     1.046 -82.70   0
       580    366.1506    160.1654 307.7874575  +6.6247166      3307.34     4861.505     4731.523     80.82814     161.5279     322.8953      1.559     3.61      910.993     56.92687     449.7306        23     1.342     0.923 -75.40   0
       581    120.5937    160.0559 307.8894874  +6.6165017     1834.734     2891.511     2854.874     80.44232     161.3995     322.6704      1.678     4.25     920.3382     56.92687     253.6615        18     1.398     0.793 -70.55   0
       582    578.5227    159.9103 307.6992248  +6.6319490     671.1431     1141.018      1235.14     80.82814     161.7845     323.0237      1.727     4.44     904.4636     56.92687     111.9166         7     1.158     0.485 -83.40   0
       583    682.0734    158.3740 307.6562500  +6.6360527     813.1627      1220.15     1220.647     80.57114     161.3995     322.8953      1.652     3.80     904.6061     56.92687     135.1955         8     1.005     0.799 -22.82   0
       584    756.6402    157.6177 307.6252917  +6.6388610     509.5676     898.1779     793.1279     80.57114     161.3352     322.7347      1.586     3.88     903.4889     56.92687     81.40759         5     1.028     0.420  75.64   0
       585     58.8981    155.6974 307.9152682  +6.6162225     611.5547     924.5752     900.9368     80.95634     161.9767      322.799      1.821     5.60     924.7628     56.92687     71.35724         7     1.059     0.834 -87.82   0
       586   1013.0132    154.2810 307.5188747  +6.6488056     1542.587     2033.401     2162.557     80.57114     161.2709     322.7668      1.441     4.16      898.825     56.92687     242.6002        14     1.279     0.705 -69.36   0
       587    738.9046    154.1499 307.6327779  +6.6396992        692.6     800.5276      243.354     80.82814     161.4637     323.1201      1.220     4.51     904.2167     56.92687     103.9877         7     0.886     0.654 -54.92   0
       588    218.0109    148.9953 307.8493863  +6.6243475     5620.063     8429.452     8397.547     80.57114     161.2709     322.8632      1.550     3.66     918.2217     56.92687     761.0271        27     1.469     0.916 -72.71   0
       589    100.7141    148.8828 307.8981253  +6.6204449     2182.073     3489.902     4018.457     80.69974     161.7204     323.0558      1.720     4.24     920.4335     56.92687     269.2606        21     1.427     0.896 -74.28   0
       590    679.8660    147.8741 307.6575208  +6.6403137     6636.198       9758.6     9872.289     81.08433     161.5279     322.9274      1.546     3.78     904.0773     56.92687     904.7131        29     1.429     0.916 -74.30   0
       591    828.2049    147.7917 307.5958856  +6.6453115      1039.24     1552.118     1404.965     80.31331     161.2709      322.799      1.528     4.19     900.6111     56.92687     152.4618        11     1.175     0.630 -76.02   0
       592    631.9926    145.1854 307.6775036  +6.6398202     9839.313     14678.03     15605.27     80.57114     161.2709      322.799      1.589     3.83     904.2361     56.92687     1357.034        38     1.517     1.009 -70.09   3
       593    635.5169    136.6780 307.6763258  +6.6434507     57137.99     82229.22     86462.44     81.08434     161.8486     323.0558      1.580     3.64     903.9229     56.92687      7890.19        69     1.560     1.091 -70.97   3
       594    266.7724    145.8656 307.8292320  +6.6272799      781.776     1166.445     1123.489     80.57114     161.5279     322.8632      1.584     5.01     917.3384     56.92687       117.92         9     1.126     0.630 -54.66   0
       595     30.7911    144.1823 307.9273363  +6.6200291     1112.153     1759.302     1255.034     80.69974     161.2709      322.799      1.670     5.11     927.6054     56.92687     170.9991        13     1.509     0.603 -67.39   0
       596    570.1316    144.9110 307.7032170  +6.6378602     689.2054     1000.145     758.8883     81.08433     161.7204     322.9274      1.554     5.10     904.1944     56.92687     88.11517         8     1.152     0.637 -60.89   0
       597    359.1640    140.8480 307.7910130  +6.6324571     3889.968     6322.938       6996.8     80.69974     161.4637     322.8632      1.769     4.12     911.7671     56.92687     531.8586        32     1.679     0.982 -61.76   0
       598    540.8293    140.2033 307.7155513  +6.6388213     1784.353     2471.033     2795.248     80.44232     161.2709      322.799      1.543     4.44     904.0567     56.92687     248.5185        16     1.353     0.720 -69.68   0
       599   1005.1504    139.9194 307.5226239  +6.6544726     830.8884     1124.051     1045.761     80.95634     161.5921     322.9595      1.512     4.92     897.6474     56.92687     142.9574         8     1.213     0.566 -65.61   0
       600    314.6996    130.3773 307.8098419  +6.6352857     3741.532     5458.625     5616.622     81.21213     161.2709     322.7347      1.601     3.63     915.2068     56.92687     499.0386        24     1.375     0.907 -69.56   0
       601    714.2480    124.8884 307.6440082  +6.6509548     986.5266     1270.196     1114.534     80.95634     161.3995     323.0558      1.439     5.12     902.7366     56.92687     137.2061        11     1.230     0.603 -75.29   0
       602     12.1313    113.4566 307.9361306  +6.6320847     729770.6      1550023      1676405     81.08433     161.4637     322.8953      2.169     5.11      929.532     56.92687     61566.03       409     2.210     1.745 -72.79  28
       603    685.7583    123.9601 307.6558777  +6.6503842     1416.762     1937.499     1896.019     80.69974     161.5279     322.8311      1.524     3.87     902.7814     56.92687     207.2482        15     1.230     0.810 -73.07   0
       604    699.8451    120.5704 307.6501384  +6.6522553     3408.809     4653.516     4543.628     80.57114     161.5921     322.8311      1.516     3.94     902.5675     56.92687     464.3936        22     1.470     0.882 -65.91   0
       605    441.6422    111.5869 307.7577306  +6.6473077     4312.605     6396.864     6789.948     80.31331     161.3352     322.7025      1.620     3.59     905.0408     56.92687     568.0878        26     1.412     0.931 -72.44   0
       606    914.1924    107.0786 307.5615233  +6.6649943     4091.535     5942.806     6079.203     80.57114     161.0135     322.7347      1.515     4.02     897.5143     56.92687     558.0461        22     1.338     0.879 -78.14   0
       607    896.3030    107.9723 307.5689271  +6.6640276     2269.507     3045.811     3299.443     81.08433     161.2709     322.9274      1.488     4.01     897.8354     56.92687      325.899        15     1.193     0.790 -83.80   0
       608    594.0652    107.5007 307.6945332  +6.6541077     936.4868      1290.33     1349.486     80.95634     161.6563     322.9274      1.502     4.01     903.6288     56.92687     123.4365        10     1.032     0.647 -62.48   0
       609    606.1855    105.6409 307.6895596  +6.6552817     1873.712     2472.561     2269.134     80.44232     161.3352     322.7025      1.501     4.42     903.5276     56.92687     240.5881        16     1.309     0.798 -56.29   0
       610    405.1516    103.3775 307.7731702  +6.6494717     1954.881     2589.321     2216.465     80.57114     161.5279     322.8632      1.463     4.02     906.8707     56.92687     262.3077        18     1.380     0.783 -71.95   0
       611    252.5347    104.5903 307.8365436  +6.6438414     791.2346     1295.848     1706.096     80.44232     161.3352     322.8311      1.550     4.46     917.7353     56.92687     120.9773         8     1.239     0.457 -80.03   0
       612    152.9914    100.4152 307.8780456  +6.6422151     3376.584     5320.922     5439.348     80.69974     161.2709      322.799      1.682     3.90     918.5285     56.92687     435.8763        27     1.433     1.045 -73.57   0
       613    301.2723     98.7200 307.8164911  +6.6479039     1328.401     2333.732     2987.628     81.21213     161.7845     322.9916      1.967     4.14     916.4948     56.92687     169.6902        15     1.235     0.878 -48.16   0
       614    562.0875     97.9728 307.7081420  +6.6569693     863.2696     1264.826     983.8688     81.08433     161.2709     322.8311      1.483     4.89     903.6807     56.92687     117.0441         9     1.172     0.579 -60.89   0
       615    769.7137     97.6152 307.6218783  +6.6640711     673.7181     920.0622     1564.079     80.57114     161.2709     322.8632      1.433     4.93     900.6226     56.92687      97.4068         7     1.076     0.641 -63.74   0
       616    574.6950     97.8811 307.7029063  +6.6574299     704.5462     1118.253     1193.092     80.69974     161.7845     323.0558      1.493     4.36     903.5832     56.92687     111.9918         7     0.946     0.572 -60.20   0
       617     34.8519     98.1988 307.9272075  +6.6391498     12808.14     19440.37     20636.04     80.31331     161.1423     322.5097      1.600     3.92     926.6056     56.92687     1754.912        40     1.499     1.042 -74.23   0
       618    836.6119     92.8341 307.5942401  +6.6682825     6723.537     9569.502      10191.4     80.44232     161.3352      322.799      1.532     3.54     898.7341     56.92687     976.0521        31     1.361     0.997 -77.01   0
       619    426.9703     93.5979 307.7644343  +6.6542419     1347.531     1836.936     1513.142     80.44232     161.3352     322.7668      1.503     5.23     905.1907     56.92687     185.3854        11     1.214     0.636 -75.27   0
       620    903.8096     93.7615 307.5662853  +6.6701456     655.2156     965.8822     926.2331     80.31331     161.3352     322.6704      1.377     4.31     897.2098     56.92687      116.345         7     1.100     0.480 -64.85   0
       621    781.6776     93.1068 307.6170585  +6.6663327     3436.593     4841.292     4807.349     80.69974     161.7204     322.9916      1.469     3.58     900.2671     56.92687     536.2374        18     1.249     0.809 -71.63   0
       622    927.2352     92.5275 307.5565923  +6.6714376     526.0908     967.3765     682.8608     80.82814     161.5279     322.9595      1.729     4.19     896.8681     56.92687     103.2347         5     1.151     0.435 -58.81   0
       623    544.1451     91.0120 307.7158324  +6.6592415     1206.542     1831.338     2510.428     80.31331     161.4637     322.6383      1.739     5.50      903.675     56.92687     177.3318        12     1.363     0.625 -62.02   0
       624     75.1867     89.9157 307.9107292  +6.6439289     3383.206     5138.531     5298.734     80.57114     161.3995      322.799      1.564     3.61     921.3256     56.92687     463.3125        26     1.380     0.978 -68.30   0
       625     59.7066     90.9135 307.9171274  +6.6429952     973.4307     1515.709     1316.243     80.95634     161.9767     323.0558      1.588     4.36     923.0565     56.92687     127.8293        12     1.167     0.839 -74.35   0
       626    663.4949     90.9845 307.6662394  +6.6632529     594.2213     774.7841     830.9291     80.69974     161.3352      322.799      1.413     3.75     901.5738     56.92687     85.15582         6     0.815     0.495 -83.48   0
       627    436.2836     89.6536 307.7606976  +6.6561830      1020.12     1403.246     1696.715     80.95634     161.5279      323.088      1.597     4.81     905.0348     56.92687     140.1547        10     1.076     0.680 -72.43   0
       628    599.0255     86.8842 307.6931670  +6.6627856      1334.44      1752.03     1038.879     80.95634     161.2709     322.8953      1.478     5.08     902.9593     56.92687     184.8463        13     1.271     0.665 -72.77   0
       629     17.5223     85.5552 307.9348365  +6.6437853     2708.435     4053.743      4280.28     80.82814     161.5279     322.9595      1.640     3.73     927.0138     56.92687     377.1486        20     1.335     0.876 -71.99   0
       630    878.8392     81.9314 307.5770592  +6.6741953     476.1552      653.731      206.488     80.82814     161.5279     323.0558      1.444     5.30     897.3613     56.92687      79.3548         5     1.176     0.675  68.99   0
       631    776.2572     80.5878 307.6197321  +6.6713200     2168.785     3087.203     3049.089     80.31331     161.3995     322.6704      1.496     3.43     899.9062     56.92687     305.8125        17     1.162     0.845 -80.38   0
       632    417.0933     80.6536 307.7689755  +6.6592543     1113.306     1569.791     1419.353     80.82814     161.4637     323.1521      1.467     4.57     905.7832     56.92687      173.869        10     1.131     0.648 -78.06   0
       633     89.9603     81.2043 307.9048859  +6.6480231     754.3077     807.9938      486.548     80.18408     161.2709     322.6704      1.460     4.29     919.5411     56.92687     128.0016         8     1.309     0.468 -72.72   0
       634    114.1583     79.4816 307.8948898  +6.6495495     990.1237     1628.951     1832.906     80.95634     161.5279     322.8953      1.759     5.12     918.7717     56.92687     136.9342        14     1.191     1.024 -24.71   0
       635    102.9476     74.2933 307.8997237  +6.6513138     9823.382     14917.28     15492.24     80.82814     161.4637     323.1842      1.617     3.80     918.8464     56.92687     1301.167        35     1.545     0.974 -75.97   0
       636    431.9730     74.0755 307.7630147  +6.6624697     2780.437     3885.304     4477.985     80.82814     161.5279     322.9274      1.526     3.74     905.4616     56.92687       407.39        19     1.332     0.846 -77.13   0
       637    253.2230     74.0254 307.8372913  +6.6564832     641.3311     1002.159     1613.598     80.44232     161.3995     322.9274      1.780     5.15     918.0438     56.92687     117.5477         9     1.626     0.460 -60.89   0
       638    645.7211     66.4282 307.6744524  +6.6727957      20074.6     28235.71     29810.36     80.82814     161.4637     322.9595      1.544     3.59     901.2948     56.92687     2835.498        42     1.447     0.988 -71.22   0
       639    269.7876     68.3874 307.8305991  +6.6593680     1459.452     2094.633     2992.633     80.82814     161.2066     322.8953      1.562     4.17     918.0087     56.92687     218.1385        13     1.302     0.631 -66.05   0
       640    263.7206     62.6351 307.8333146  +6.6615388     2063.608     3185.542     4092.937     80.82814     161.5921     322.9595      1.686     4.05     918.1177     56.92687     263.3813        16     1.388     0.749 -80.13   0
       641    545.4684     62.4620 307.7162453  +6.6710728     5458.912     7898.247     8093.383     80.95634     161.4637     322.9916      1.566     3.67     903.0436     56.92687     722.4866        26     1.397     0.932 -67.62   0
       642    632.0921     56.8761 307.6804377  +6.6762827     3255.521     5562.288     7065.976     80.82814     161.7204     322.9595      2.050     5.66     901.1915     56.92687     521.1337        34     2.077     0.999  80.53   0
       643    451.0347     58.0390 307.7556353  +6.6697303     23397.25     35063.66     36467.24     80.69974     161.3995     322.7668      1.578     3.80     905.0187     56.92687     3134.845        48     1.557     1.038 -71.02   0
       644    271.6294     58.4348 307.8301703  +6.6635388     9763.786     14595.42     15681.82     80.57114     161.2709     322.7668      1.640     3.82     918.1522     56.92687     1245.698        35     1.483     1.030 -71.40   0
       645     12.8441     60.6609 307.9376242  +6.6539048     1181.325     1634.584     1606.157     80.82814     161.5279      323.088      1.540     4.90      923.444     56.92687     152.5265        13     1.068     0.896 -55.80   0
       646    331.6367     58.6142 307.8052296  +6.6654823     1048.292     1626.777     1857.097     80.57114     161.3352     322.7347      1.639     5.54     914.5966     56.92687     166.5718        11     1.315     0.694 -69.02   0
       647     36.9263     58.1728 307.9277022  +6.6557440     2385.281     3598.353     3635.388     80.69974     161.4637     322.8953      1.592     4.13     921.7899     56.92687     331.1603        17     1.351     0.734 -77.11   0
       648    928.9084     58.0275 307.5570561  +6.6857372     2135.351     3034.694     3162.964     81.08433     161.2709     322.8311      1.480     3.53     896.5047     56.92687     333.9462        15     1.222     0.729 -65.66   0
       649    259.5758     54.9291 307.8352974  +6.6645808     3225.977     4812.783     5558.398     80.57114     161.3995     322.8953      1.586     3.84      918.247     56.92687     420.5122        24     1.416     0.960 -67.69   0
       650    312.9122     53.0563 307.8131981  +6.6671475     1090.349     1818.696     2524.605     80.95634     161.3995      323.088      1.913     5.67     916.1954     56.92687     161.2859        13     1.315     0.688 -74.86   0
       651    949.5998     48.4007 307.5487809  +6.6904029     1096.824     1621.704     1970.453     80.31331     161.0779     322.6383      1.624     3.99     894.7112     56.92687     181.8729        14     1.177     0.980 -87.70   0
       652    700.9025     47.5216 307.6521587  +6.6824496     2081.408     2788.932     2882.673     80.69974     161.7204     322.9916      1.476     3.64     900.0167     56.92687     311.0617        17     1.309     0.740 -78.58   0
       653    105.8096     48.0255 307.8994242  +6.6622547     692.2565     970.8392     636.8817     80.57114     161.3352     322.8311      1.469     3.49     918.8248     56.92687     115.4744         6     0.982     0.524 -11.38   0
       654    266.5119     42.4805 307.8328363  +6.6699534       878.84     1448.422      2455.84     80.69974     161.7845     323.0558      2.210     5.07     918.4103     56.92687     137.6178        11     1.392     0.707 -80.31   0
       655    212.3047     43.4545 307.8553280  +6.6677276     693.8238     1087.197     244.7862     80.82814     161.4637     323.1842      1.639     3.53     918.4821     56.92687      114.439         7     0.870     0.626 -70.14   0
       656    189.1630     40.4995 307.8650439  +6.6681686     11118.69     16374.81     17212.03     80.95634     161.3995     323.1842      1.595     3.64      918.513     56.92687     1498.102        35     1.492     0.975 -70.39   0
       657      2.3928     40.5482 307.9426487  +6.6618557     1118.366     1475.557     1441.673     80.18408     143.3653     259.9458      1.567     5.58     920.3475     56.92687     165.2677        13     1.373     0.673 -72.07  24
       658    533.3511     38.7210 307.7220813  +6.6804680     3005.361     4335.684     4696.397     80.95634     161.5921     322.9595      1.572     3.74      902.783     56.92687      420.913        21     1.441     0.836 -71.21   0
       659    934.7664     38.2493 307.5552862  +6.6940986     4374.724     6157.069     5881.944     80.82814     161.5279     322.8953      1.490     4.01     895.7767     56.92687     653.4316        22     1.355     0.825 -74.88   0
       660    735.6713     36.8289 307.6380703  +6.6880281     2079.138     2998.328     2925.534     80.82814     161.5279     322.9595      1.468     3.27     898.9487     56.92687     320.4302        15     1.157     0.744 -74.52   0
       661    471.5899     36.9534 307.7478055  +6.6791255     1822.916     2813.665     2832.823     80.44232     161.3995     322.6061      1.638     4.15     904.2538     56.92687     233.2245        17     1.396     0.752 -68.63   0
       662     90.6535     36.9236 307.9060979  +6.6663273     507.1502     323.5943     171.1185     81.08433     161.5279     322.9595      1.201     4.36     918.9181     56.92687     87.45752         7     0.909     0.594 -59.27   0
       663    999.6058     34.4756 307.5284678  +6.6978216     2111.757     2908.724     2568.323     80.57114     161.0135      322.799      1.518     3.81     889.6826     56.92687       350.24        17     1.409     0.736 -71.86   0
       664    718.8530     30.9516 307.6452572  +6.6898916     7844.916     11159.97      11043.4     81.08433     161.5279     322.9595      1.499     3.68     899.1508     56.92687     1136.547        30     1.386     0.964 -72.35   0
       665    639.0646     30.1582 307.6784405  +6.6875470     4023.574     5762.224     5652.087     80.95634     161.4637     323.0237      1.494     3.72     900.2293     56.92687     558.2817        25     1.306     0.968 -71.77   0
       666    341.4744     29.8806 307.8021128  +6.6776755     1032.834     1646.916     1707.555     81.21212     161.7845     323.0237      1.704     3.97     913.9743     56.92687     152.1548         9     0.951     0.718 -88.13   0
       667    439.2876     26.4697 307.7615824  +6.6823694      6736.72     9941.093     9855.216     81.08434     161.7845     322.9595      1.605     3.76     906.0455     56.92687     867.0725        31     1.433     1.015 -71.76   0
       668    394.9298     28.1529 307.7799583  +6.6801849     657.1562      959.226     464.7025     80.95634     161.4637     322.9595      1.678     3.64     909.1364     56.92687      102.726         5     1.003     0.380 -57.12   0
       669     40.2984     25.9709 307.9273925  +6.6691519     8948.304     13418.46     13815.26     81.08433     161.2709     322.9595      1.582     3.80     918.0931     56.92687     1182.968        33     1.477     1.020 -66.45   0
       670    686.1597     25.3197 307.6590328  +6.6911221     1057.088      1361.46     985.8253     80.95634     161.5279     322.8953      1.478     5.51     899.8267     56.92687     153.6828        11     1.137     0.753 -41.38   0
       671      2.6086   1022.1509 307.9093028  +6.2566131     662.7835     874.8494      482.495     80.44232     133.6315      216.406      1.370     2.91     939.8552     56.92687     112.2549         5     0.728     0.451 -70.98  16
       672    515.2838     23.1091 307.7301157  +6.6863074     950.5701     1307.566     1370.119     80.69974     161.8486      323.088      1.536     5.42     902.9563     56.92687     139.6527        11     1.207     0.688 -54.29   0
       673    430.8593     22.1295 307.7652313  +6.6838783     846.3254     1081.631      1027.86     81.08433     161.5279     323.0237      1.453     4.92     906.5514     56.92687     109.5897         9     1.001     0.686 -75.94   0
       674    109.3372     21.5759 307.8988543  +6.6732930     2684.653     4107.945     4120.259     80.57114     161.5279     322.8632      1.685     3.93     918.8092     56.92687     386.8614        19     1.360     0.823 -68.80   0
       675    965.9970     21.8092 307.5428600  +6.7019290     454.6391     813.7847     1316.007     80.31331     161.2066      322.799      2.213     3.84      892.344     56.92687     83.20715         5     0.827     0.512 -60.13   0
       676    804.2054     20.4869 307.6101400  +6.6970681     950.2316     1301.297     1376.662     80.44232     161.2066     322.7025      1.528     5.76     897.1537     56.92687     143.0229        11     1.378     0.677 -84.87   0
       677    100.5567     20.5586 307.9025373  +6.6734171     1772.161     2692.134     2756.139     80.69974     161.5279     322.8311      1.659     4.13     918.8465     56.92687     250.1384        18     1.263     1.034 -70.99   0
       678    277.0683   1018.8328 307.7954605  +6.2672170     972.4124     1460.386      1974.14     80.82814     161.5279      308.037      1.690     3.56     937.3342     56.92687     173.8625        10     1.100     0.617 -67.93  16
       679    997.0950     16.2627 307.5301227  +6.7052572     620.5014     767.2695      683.253     80.82814     161.6563     322.9916      1.332     4.36     888.7394     56.92687     97.80109         7     1.045     0.517 -65.20   0
       680    921.5417   1015.3999 307.5279758  +6.2902205     8524.975     14012.65     14799.08     80.18408     161.1423     322.6061      1.783     3.83     928.6384     56.92687     1026.815        41     1.579     1.165 -81.66  16
       681    639.6653   1017.3536 307.6449542  +6.2799893     645.4559     854.1374     1253.007     80.95634     161.4637     319.6351      1.724     4.41     933.9359     56.92687      92.4856         6     1.039     0.533 -53.98  16
       682    552.8978   1014.7099 307.6810712  +6.2781745     8741.916     13022.23     13560.87     80.95634     161.9767     322.9595      1.567     3.76     935.8854     56.92687     1222.773        33     1.424     1.011 -69.59  16
       683     51.3314   1014.5175 307.8893321  +6.2614056      646.612     928.6391     355.0196     81.21213     161.7845     322.9916      1.422     4.19     938.0858     56.92687     91.67749         6     1.092     0.458 -55.15   0
       684    895.1329   1011.5612 307.5390705  +6.2909235     12086.67     19641.43     20753.19     80.82814     161.4637     323.0237      1.756     3.83     928.3536     56.92687     1535.119        46     1.549     1.250 -66.86   0
       685      5.2225   1013.8259 307.9084994  +6.2601382     613.6119     612.4635    -125.0375     80.44232     161.3352     298.0794      1.182     4.23     939.5632     56.92687     119.5986         7     1.151     0.444 -62.99  16
       686   1016.9318   1010.9584 307.4885149  +6.2952377     4358.704     7506.871     7859.458     80.82814     161.4637     321.8337      1.786     3.90     923.9091     56.92687     519.9009        30     1.470     1.141 -66.98  16
       687    607.9498   1012.0951 307.6583003  +6.2810984     1414.063     2029.034     2204.585     80.82814     161.4637     323.1521      1.575     5.07     933.6572     56.92687     184.6093        14     1.300     0.776 -68.74   0
       688    539.2960   1010.5029 307.6868606  +6.2794556     4366.749     6604.195     7483.174     80.95634     162.1047      322.799      1.751     4.18     936.0427     56.92687     589.3112        30     1.481     1.238 -26.43   0
       689    648.8542   1009.7634 307.6413941  +6.2834307     1423.224     2272.306     2113.671     80.82814     161.5279     322.9916      1.702     4.02     933.8573     56.92687     200.9829        13     1.242     0.658 -74.10   0
       690    492.5211   1007.1237 307.7063964  +6.2792828     2255.913     3373.363     3637.258     81.21212     161.7845     323.0558      1.602     4.13     935.6852     56.92687     323.2242        19     1.420     0.885 -81.44   0
       691     74.0335   1009.0151 307.8800924  +6.2644416       712.45     1163.574     1297.902     80.57114     161.2709     322.8311      1.783     4.18     937.2914     56.92687     95.72229         7     0.950     0.524 -44.08   0
       692    804.4084   1008.0134 307.5768618  +6.2893570     605.8189     914.9623     643.4186     80.57114     161.2709     322.8632      1.638     5.61     930.2754     56.92687     106.0647         7     1.099     0.807 -62.55   0
       693    926.8863    999.1354 307.5263021  +6.2971141     42785.01     68789.05     72420.71     81.08433     161.7204     322.9916      1.723     3.76     928.0868     56.92687     5386.845        66     1.614     1.229 -73.11   0
       694    332.2504   1000.7206 307.7731597  +6.2765483     696.6647     1143.001      1377.45     80.95634     161.5921     322.9595      1.745     4.96     937.3312     56.92687     99.73828         7     1.034     0.673 -88.15   0
       695    234.2253    997.1615 307.8139811  +6.2747243     1895.371     2976.573     2910.714     80.57114     161.3352     322.7668      1.660     4.10     937.3281     56.92687     249.0949        20     1.318     0.972 -79.89   0
