#   1 NUMBER                 Running object number                                     
#   2 X_IMAGE                Object position along x                                    [pixel]
#   3 Y_IMAGE                Object position along y                                    [pixel]
#   4 ALPHA_J2000            Right ascension of barycenter (J2000)                      [deg]
#   5 DELTA_J2000            Declination of barycenter (J2000)                          [deg]
#   6 FLUX_APER              Flux vector within fixed circular aperture(s)              [count]
#   9 FLUXERR_APER           RMS error vector for aperture flux(es)                     [count]
#  12 FLUX_RADIUS            Fraction-of-light radii                                    [pixel]
#  13 FWHM_IMAGE             FWHM assuming a gaussian core                              [pixel]
#  14 BACKGROUND             Background at centroid position                            [count]
#  15 THRESHOLD              Detection threshold above background                       [count]
#  16 FLUX_MAX               Peak flux above background                                 [count]
#  17 ISOAREA_IMAGE          Isophotal area above Analysis threshold                    [pixel**2]
#  18 A_IMAGE                Profile RMS along major axis                               [pixel]
#  19 B_IMAGE                Profile RMS along minor axis                               [pixel]
#  20 THETA_IMAGE            Position angle (CCW/x)                                     [deg]
#  21 FLAGS                  Extraction flags                                          
         1    148.5875     23.4877 307.8649024  +6.6682572     7764.431     15453.23     17037.33     83.79041     167.7146     335.7634      2.114     5.75     994.4255     59.20142     978.0996        49     2.070     1.185 -34.20   0
         2    893.9458     21.1218 307.5551551  +6.6941257     3232.445     5954.029      6223.41     84.32411     167.9819     335.8636      1.923     6.31     972.6666     59.20142     432.0387        30     1.913     0.897 -34.92   0
         3    958.9353     17.6277 307.5282568  +6.6977296     1661.591     3132.606     3452.368     83.79041     167.9819     335.7968      2.025     7.11     969.6892     59.20142     226.4938        20     1.816     0.781 -38.63   0
         4    678.2646     13.8463 307.6450568  +6.6899468     5424.609     10541.83     10952.72       84.191     167.9151      335.897      2.067     6.12     977.0638     59.20142     672.3876        44     2.025     1.108 -33.77   0
         5    598.4081     13.1958 307.6782739  +6.6875518     2805.088      5208.99     5530.229     83.52228     167.6477     335.6966      1.968     5.70     978.2439     59.20142     328.3348        31     1.854     1.002 -29.07   0
         6    301.5277     12.6648 307.8016978  +6.6778491     629.4622     1006.606     577.8843       84.191     167.9819      335.897      1.810     5.97     994.8394     59.20142     103.0485         7     1.280     0.782 -29.40   0
         7    398.8589      9.3880 307.7613509  +6.6824583     4409.334       9021.8     10161.74     83.52228     167.9151      335.563      2.180     6.04     987.5966     59.20142     549.8956        41     2.095     1.107 -34.82  16
         8      1.7884      8.1647 307.9264392  +6.6696584     3627.103     4863.618     5269.663     78.39664      140.416     259.4509      1.384     3.75     991.6151     59.20142     670.3344        18     1.241     0.823 -73.85  24
         9    644.5150      9.4734 307.6592335  +6.6906269     621.5873     1142.209     1052.178     84.32411     168.3154      335.897      1.674     3.73     977.3518     59.20142     80.95471         6     0.991     0.402 -19.05   0
        10    295.3194      4.4001 307.8045580  +6.6810535     8909.891     18214.79     20057.72     83.38789     167.3129     299.8001      2.164     5.76     995.7645     59.20142     1113.888        54     2.161     1.197 -35.10  24
        11    474.7938      6.6748 307.7298782  +6.6861166     639.5731     1094.555     627.4967     83.79041     167.4469     324.8643      1.439     3.44     983.6819     59.20142     110.9744         5     1.246     0.275 -34.52  16
        12     68.9583      4.7886 307.8986345  +6.6733068     1867.776     3696.702      3716.95     83.52228     167.7815     304.6613      1.957     6.50      993.234     59.20142     245.1836        27     1.971     0.896 -35.36  16
        13    361.2505      2.6494 307.7772116  +6.6839827     1668.105     3024.495     3225.523       84.191     152.5146     274.7762      1.978     6.41     989.7723     59.20142     219.2285        23     1.745     0.915 -23.78  24
        14     60.7187      3.1963 307.9021134  +6.6736877     1137.733     2389.417      2807.83     83.65646     158.5007     282.8614      2.168     7.44     992.9202     59.20142     146.1954        19     1.565     0.991 -32.90  24
        15    763.5508      2.8770 307.6099738  +6.6973182     795.2669     1375.048       1628.9     84.05769     155.2839     278.3046      2.005     5.59     974.1017     59.20142     106.2137        10     1.436     0.614 -37.67  24
        16    512.3370    997.3928 307.6808428  +6.2783130     6916.779     12363.16     13554.17     83.52228     167.7146     335.6632      1.893     5.90     1012.463     59.20142     1135.557        38     2.023     0.864 -33.58   0
        17    854.5908    994.2489 307.5387905  +6.2910142     10861.65     19402.39     20438.46     83.65646     167.7815     335.5295      1.890     6.00     1006.983     59.20142     1721.378        41     1.902     0.946 -32.68   0
        18    976.4501    993.6284 307.4881949  +6.2953212     4295.761     7780.903     8517.118     83.79041     168.1154     335.7634      1.904     7.76     1001.751     59.20142     651.0902        31     1.919     0.877 -32.53   0
        19    567.2274    994.6060 307.6581378  +6.2812951     1265.502     2169.126     2424.553     83.65646     167.7815     335.6632      1.917     6.39     1011.635     59.20142     184.8965        16     1.763     0.651 -26.14   0
        20    498.7242    993.3936 307.6866317  +6.2795099     3281.864     6127.465     6679.949     83.79041     167.4469     335.6966      1.985     5.70     1012.355     59.20142     514.0214        30     1.830     1.001 -25.19   0
        21    608.2575    992.8647 307.6411545  +6.2833824     1141.609     2008.106     2185.763     84.32411     167.9151      335.897      1.949     5.28     1010.294     59.20142     202.2391        15     1.642     0.792 -38.65   0
        22     33.4003    992.2028 307.8799385  +6.2644343     768.7333     1486.847     1550.071     83.52228     167.5139     335.5964      1.885     6.24      1011.56     59.20142     118.1684        12     1.563     0.699 -22.39   0
        23    451.7954    989.6623 307.7062494  +6.2794837     1717.248     3218.073     2781.667     83.52228     167.7146     335.6298      1.904     6.57     1012.336     59.20142     258.2709        19     1.759     0.689 -30.36   0
        24    886.3680    981.7867 307.5260100  +6.2972167     38425.06     67336.55     72744.39     83.65646     167.7146     335.7968      1.864     6.00     1004.966     59.20142     5285.824        70     2.002     1.011 -34.55   0
        25    193.7452    979.9760 307.8137562  +6.2748549     1417.907     2562.202     2435.175     83.79041     168.0486     335.6632      1.943     6.42     1012.695     59.20142     204.7338        15     1.599     0.724 -40.48   0
        26     81.5226    979.3330 307.8603879  +6.2713612      526.674     802.6881     1080.601     84.32411     168.0486     335.8302      1.781     3.35     1011.899     59.20142     109.7568         5     1.055     0.308 -20.71   0
        27    591.2734    978.2925 307.6486998  +6.2888328     608.9546     1160.672     1208.442     84.05769     168.1154      335.897      1.930     3.49     1010.354     59.20142     80.84131         5     0.772     0.456  69.84   2
        28    784.0782    975.7302 307.5687017  +6.2963144     1818.304     3140.532     2783.561     84.45701     168.2487     335.8302      1.820     6.13     1006.754     59.20142     297.3406        17     1.735     0.609 -31.57   0
        29    732.4427    973.3699 307.5902288  +6.2955699      5805.85     10375.29     11926.46     83.79041     167.9151     335.6966      1.898     5.66     1006.939     59.20142     899.0491        35     1.970     0.877 -35.46   0
        30    201.8945    972.7328 307.8106165  +6.2781182     1223.951     2046.207     2343.629     84.05769     168.1821     335.8636      1.995     6.65     1012.689     59.20142     164.3346        16     1.618     0.767 -35.39   0
        31    519.0500    972.9104 307.6788799  +6.2886456     700.0984     1297.271     1519.243       84.191     167.7815     335.9972      1.793     5.84     1011.626     59.20142     114.4784         9     1.655     0.580 -17.00   0
        32    166.3059    971.8817 307.8254267  +6.2772781      806.843     1521.834     1470.045     83.92416     168.2487     335.9638      2.132     5.66     1012.549     59.20142     132.5966         9     1.431     0.631 -63.03   0
        33     26.8918    970.5415 307.8833755  +6.2731596     2354.417     4066.255     4537.188     84.05769     167.9151     335.9638      1.860     6.20     1011.482     59.20142     308.1057        24     1.996     0.762 -36.99   0
        34    920.6779    968.5446 307.5122033  +6.3038251     6187.398     10883.13     11069.64     84.32411     167.9819      335.897      1.884     5.82     1002.613     59.20142     877.0239        33     1.903     0.877 -32.71   0
        35    602.0513    963.2468 307.6447299  +6.2954045      582.007     922.7072     719.5929     84.32411     167.8483     335.9304      1.725     3.86     1009.567     59.20142     106.4908         5     1.181     0.361 -12.11   0
        36    894.3538    960.2178 307.5234174  +6.3063881     1840.712     3159.096     3294.576     83.65646     167.8483     335.5964      1.826     6.35     1003.527     59.20142     294.6348        19     1.725     0.720 -33.32   0
        37    615.2424    956.0868 307.6394920  +6.2988007     3841.945     6802.705     6840.047       84.191     167.8483      335.897      1.833     6.25     1009.022     59.20142     557.2806        28     1.858     0.818 -33.57   0
        38    227.5072    956.3804 307.8005314  +6.2857272     3434.542     6263.244     6953.687     84.05769     167.7815     335.6966      1.939     5.86     1012.754     59.20142     498.4108        28     1.912     0.840 -33.33   0
        39    964.5678    956.2567 307.4943848  +6.3103573     657.9641      1287.74     1565.499     84.05769     167.9819     335.8302      2.347     7.22     1000.311     59.20142      114.204        10     2.016     0.725 -28.07   0
        40    754.2084    956.6476 307.5817505  +6.3031992     1017.719     2038.657     2337.095     83.65646     167.8483     335.4961      1.928     6.34     1006.304     59.20142     183.4856        14     1.798     0.629 -29.18   0
        41    437.2500    954.7432 307.7134691  +6.2934157     932.0477     1706.795     1937.201       84.191     167.9819      335.897      1.911     5.98     1011.935     59.20142     135.4104        16     1.566     0.722 -30.57   0
        42    846.9418    952.9315 307.5433562  +6.3078198      882.959     1420.322     1715.806     84.32411     167.9151     335.8636      1.601     5.73     1004.753     59.20142     123.4285        13     1.764     0.525 -33.97   0
        43    937.6628    951.2846 307.5057276  +6.3115162     540.9932     855.5999     743.6746     84.32411     168.0486     335.8302      1.801     4.22     1001.372     59.20142      106.257         6     1.330     0.382 -39.91   0
        44    262.9192    950.3879 307.7860256  +6.2893864     763.1011     1475.352     2324.626     83.79041     167.6477     335.6966      2.318     5.56     1012.757     59.20142     132.3802         8     1.329     0.657 -32.81   0
        45    918.4152    949.9149 307.5137688  +6.3114421     801.5021     1237.496     1197.111     83.79041     167.7146     335.7634      1.542     4.58     1002.185     59.20142      129.784         9     1.098     0.600 -19.36   0
        46    539.4869    948.9694 307.6711982  +6.2992126     1393.567     2535.748     2413.692     84.32411     167.7146     335.7968      1.946     6.78      1010.75     59.20142     184.5613        18     1.716     0.752 -32.44   0
        47    970.6198    949.0706 307.4921122  +6.3135256     879.8065      1460.14     2259.683     83.79041     167.8483     335.7968      2.373     4.92     999.7075     59.20142     160.1755         8     1.343     0.511 -24.61   0
        48    579.1749    944.9406 307.6548489  +6.3022001     1157.308      2072.88     1898.423     83.79041     167.9819     335.6966      1.795     6.12     1009.655     59.20142     165.4988        15     1.563     0.717 -31.66   0
        49    257.6856    943.6467 307.7884273  +6.2919946     1120.891     2057.458     2608.357       84.191     167.9151     335.8636      2.081     4.66     1012.752     59.20142     183.7332         9     1.257     0.628 -53.11   2
        50    725.4567    939.2452 307.5942788  +6.3094272     796.3246     1268.227     1308.724       84.191     167.9819      335.897      1.587     5.41     1006.245     59.20142     157.2399         9     1.601     0.515 -36.24   0
        51    863.3765    935.4170 307.5371180  +6.3155982     6206.984        10769     11531.48     83.92416     167.8483     335.7634      1.850     6.24      1003.28     59.20142       1005.1        32     1.938     0.794 -32.31   0
        52    399.6404    932.4317 307.7298438  +6.3013715     1758.331     3244.792       2865.2     83.79041     167.7815       335.73      1.896     6.23     1012.339     59.20142      302.256        19     1.846     0.668 -27.96   0
        53    301.0199    930.9246 307.7708580  +6.2986970     7756.997     14599.63     15904.91     83.79041     167.7815     335.7968      2.006     5.68     1012.725     59.20142     1085.445        44     1.982     1.040 -34.29   0
        54    221.0480    929.9799 307.8041070  +6.2964114     5657.773      10213.2     11190.01     83.65646     167.9819     335.6632      1.957     6.02     1012.688     59.20142      782.726        36     1.954     0.902 -34.71   0
        55    548.6505    924.6336 307.6682123  +6.3095665     922.7241     1628.684     1785.538     84.05769     167.9819     335.7968      1.898     5.18      1009.79     59.20142     178.6324        11     1.545     0.596 -45.92   0
        56    879.1285    920.5710 307.5310736  +6.3222519     971.8333     1579.428     1320.629     84.05769     167.9819     335.8302      1.710     5.34     1002.251     59.20142     167.1802        11     1.579     0.511 -30.36   0
        57    834.2306    919.2053 307.5497697  +6.3213225     674.5367     1132.121      1551.83     83.65645     167.8483     335.6298      2.059     3.40     1003.494     59.20142     105.9344         5     0.962     0.348 -42.02   0
        58    379.6378    917.6893 307.7386499  +6.3067901     467.9436     772.3843     1326.794       84.191     167.9151      335.897      1.564     4.07     1012.218     59.20142     99.80206         5     1.232     0.385 -75.77   0
        59    945.9583    916.6633 307.5034442  +6.3260871     775.2819     1225.847     1588.151       84.191     167.9151     335.9304      1.625     4.65     1000.016     59.20142     129.8666         9     1.257     0.583 -16.90   0
        60    715.7479    913.4933 307.5991782  +6.3197367     1336.959     2353.927     2856.088     84.05769     167.9151     336.0973      1.905     6.66     1005.789     59.20142     179.8982        19     1.726     0.782 -34.30   0
        61    539.2366    914.1613 307.6724756  +6.3135763     644.5593     1058.502     1128.549     83.92416     167.8483       335.73      1.558     3.40     1009.562     59.20142     112.9659         5     0.970     0.345 -42.97   0
        62    579.2989    910.2734 307.6559656  +6.3165181     732.8009     1179.362     349.7276     83.79041     168.1154     335.8302      1.683     5.42     1008.401     59.20142     107.5378        10     1.692     0.490 -26.06   0
        63    946.3058    909.3874 307.5035442  +6.3291029     988.8262     1816.806     2367.395     83.92416     167.7146     335.6632      2.170     6.53     999.8558     59.20142     153.6479        13     1.818     0.658 -25.24   0
        64    500.4297    909.7427 307.6887442  +6.3141056     962.8902     1666.169     1848.002     83.92416     168.0486     335.7634      1.911     5.77     1009.929     59.20142     135.6505        12     1.490     0.630 -21.10   0
        65    634.0853    906.8829 307.6333223  +6.3197449     1910.764     3678.551     3845.489     83.92416     168.2487     335.9638      1.878     6.73     1007.037     59.20142     261.5696        20     1.888     0.720 -29.39   0
        66    984.6390    906.3600 307.4877222  +6.3316266     590.2856     948.5577     460.7139     83.92416     168.0486       335.73      2.119     4.76     997.7361     59.20142     112.4235         8     1.657     0.388 -34.00   0
        67    174.2381    902.0931 307.8244932  +6.3063582     1866.981     3388.127     3642.149     84.32411     167.9151     335.9304      1.982     5.42     1012.231     59.20142     311.7841        25     1.719     0.963 -34.82   0
        68     30.6401    903.0798 307.8841043  +6.3011387      2270.56     4387.586     4562.351     84.05769     167.9819     335.8302      1.964     6.42     1011.327     59.20142     329.6594        24     1.803     0.849 -34.25   0
        69    911.6023    902.7717 307.5181821  +6.3306810     768.9434     973.2462     340.1606     83.65646     167.7146     335.6632      1.422     4.21     1000.978     59.20142     129.5778         6     1.121     0.452 -33.12   0
        70    794.6619    903.2962 307.5667411  +6.3265746     639.5793     1107.072     1067.967     83.92416     168.0486     335.9304      1.762     5.70     1004.142     59.20142     99.56885         9     1.343     0.682 -18.29   0
        71     48.1076    902.5207 307.8768681  +6.3019552     1745.897     2951.055     2948.391     83.92416     168.2487     335.9304      1.792     6.42     1011.375     59.20142     229.6244        18     1.544     0.815 -27.21   0
        72    207.5398    899.0344 307.8107643  +6.3087361     714.7274     1009.759      959.043     84.05769     167.9819     335.8302      1.552     4.75     1012.469     59.20142     108.8325         8     1.344     0.477 -21.81   0
        73    765.8043    897.0280 307.5789392  +6.3282021     575.6808       923.58     523.1836     83.65646     167.7815     335.6966      1.616     4.86     1004.495     59.20142     114.3309         8     1.731     0.386 -39.62   0
        74    628.6566    896.0193 307.6359433  +6.3240495     5836.646     10512.83     10965.31     83.65645     167.9151     335.6632      1.879     5.71     1006.668     59.20142     804.7823        35     1.940     0.877 -32.12   0
        75    312.7225    898.1371 307.7671050  +6.3126259     681.2581     1256.024     1600.258     84.45701     168.0486     335.8302      1.989     3.87     1012.509     59.20142     129.6083         5     0.880     0.489 -37.55   0
        76    866.3600    892.4691 307.5373218  +6.3334306     2435.994     4078.202     4049.505     84.05769     167.9819     335.9638      1.796     6.42     1001.587     59.20142     418.4294        22     1.734     0.777 -32.83   0
        77      2.6241    892.4397 307.8961014  +6.3045921     887.5746     1430.743     1024.247     83.79041     152.0728     274.1633      1.720     5.12     1011.189     59.20142     152.3435        11     1.485     0.500 -39.39  24
        78    311.7482    889.2662 307.7678094  +6.3162560     13074.58     24165.02     26115.58     84.05769     167.9151     335.8302      1.972     5.70     1012.466     59.20142     1692.296        50     2.028     1.045 -33.20   0
        79     45.8955    890.4083 307.8781972  +6.3068820     1183.375     1793.033     1329.338     83.92416     167.5808     335.6298      1.620     5.22     1011.321     59.20142     180.7858        13     1.302     0.688 -30.38   0
        80    181.7435    889.3730 307.8218061  +6.3118615     914.5969     1611.148     1335.786     83.79041     168.0486       335.73      1.853     5.16      1012.27     59.20142     126.5139        10     1.143     0.658 -52.57   0
        81    388.9097    880.6490 307.7360492  +6.3223935     838.0386     1383.248     1306.976       84.191     167.7815     336.0305      1.831     6.74     1011.332     59.20142     129.8169        12     1.766     0.721 -34.13   0
        82    641.1017    881.3041 307.6312693  +6.3305402     540.2029     828.1091     1599.022       84.191     168.5817     335.6966      1.795     3.48     1005.868     59.20142     91.79749         5     1.011     0.347 -43.82   0
        83     75.1350    879.8916 307.8664085  +6.3122044     1266.304     2580.274     2937.834     84.05769     168.1821     335.8636      2.204     7.52      1011.39     59.20142       199.24        21     2.043     0.774 -32.01   0
        84    642.8088    876.0444 307.6307373  +6.3327688     678.8637     1296.065     1991.132     83.65646     167.8483     335.5964      2.156     6.04     1005.634     59.20142     99.91846        10     1.698     0.604 -33.91   0
        85    470.1530    876.7991 307.7024319  +6.3266969     655.7983     1021.449     1349.978     83.52228     167.5808     335.3958      1.605     6.32     1010.169     59.20142     103.2725         8     1.531     0.734 -26.79   0
        86    856.5941    874.0951 307.5419961  +6.3406924     1710.919     2827.346     2898.781     83.92416     167.6477     335.6632      1.787     6.01     1001.269     59.20142     270.2662        15     1.672     0.609 -35.67   0
        87    827.3824    873.6356 307.5541462  +6.3399103      1695.42     3182.631     3645.499     83.65646     167.7815     335.6298      1.886     6.29     1002.266     59.20142     289.8173        17     1.863     0.597 -29.55   0
        88     58.4940    873.4767 307.8735378  +6.3142951     2087.519     3665.679     3921.293     83.92416     168.1821     335.8636      1.978     5.30     1011.304     59.20142     262.5219        21     1.661     0.813 -36.89   0
        89    790.7670    872.9481 307.5693796  +6.3389756      2599.96     4850.497     4851.089     84.05769     167.9819     335.7634      2.010     6.05      1003.32     59.20142     370.0667        26     1.908     0.848 -31.00   0
        90    421.1387    870.8585 307.7229922  +6.3275128     565.4325     750.2418     1171.744     84.32411     167.9151      335.897      1.557     6.32     1010.395     59.20142     103.0599         6     1.561     0.719 -53.41   0
        91    526.8282    864.4475 307.6793060  +6.3336888     266659.5     491014.9     533057.6     83.79041     168.0486     335.7968      1.981     5.74     1008.323     59.20142     38115.16       169     2.154     1.227 -34.52   0
        92    314.3139    865.4122 307.7675497  +6.3261908     10243.85     18662.31     20495.66     83.79041     167.7146     335.6966      1.977     5.70     1012.315     59.20142     1406.477        49     2.036     1.042 -34.34   0
        93    614.6621    867.3608 307.6427219  +6.3354158     968.4267     1800.469     1773.652       84.191     167.9819     335.9304      1.963     6.08     1005.697     59.20142     156.1851        14     1.494     0.853 -36.51   0
        94    632.5984    861.7499 307.6354601  +6.3383306     2855.599     5213.399     5563.443     83.52228     167.5808     335.4292      1.905     5.33      1005.26     59.20142      366.653        25     1.857     0.840 -33.89   0
        95    865.0218    860.5123 307.5389516  +6.3465811     4521.919     8241.905     9096.547       84.191     167.7815       335.73      1.980     5.61     1000.636     59.20142     680.1206        29     1.857     0.872 -32.24   0
        96    703.6265    858.9750 307.6060483  +6.3418434     723.1107     990.7755     829.1443     83.65645     167.7815       335.73      1.426     4.38     1004.362     59.20142     104.4635         6     1.163     0.470 -19.73   0
        97    998.5202    854.8043 307.4836862  +6.3533752     4178.698      7219.89      7143.28     83.79041     167.4469     335.5964      1.840     5.83     996.4263     59.20142     574.2305        26     1.863     0.774 -32.91   0
        98    607.4330    855.7216 307.6461170  +6.3399806     2892.995     5166.165     5917.918     84.05769     167.9819     335.8636      1.942     5.83      1005.53     59.20142     415.0703        27     1.862     0.852 -32.46   0
        99    795.7768    854.8909 307.5679057  +6.3465982     1364.116     2231.613     1675.695       84.191     167.7815     335.6966      1.677     5.82     1002.577     59.20142     225.4163        14     1.489     0.641 -35.70   0
       100    597.3660    854.9209 307.6503258  +6.3399755     976.3105     1717.213     2196.473     84.05769     167.9819      335.897      1.925     5.10     1005.773     59.20142      152.553        10     1.584     0.464 -29.83   2
       101    600.0970    850.2946 307.6493472  +6.3419767     1695.866     2896.058     3548.914       84.191     168.5817     335.6966      1.871     5.52     1005.544     59.20142     242.2681        19     1.696     0.708 -35.26   2
       102    922.1406    854.3033 307.5154323  +6.3510440     769.2416     1150.526     1241.381     83.92416     167.9819     335.9638      1.508     4.36     999.3786     59.20142      121.268         7     0.911     0.594 -31.43   0
       103    371.1032    867.0737 307.7439041  +6.3274035     6208.863      11470.8     12468.05     83.92416     168.1821     335.8636      1.956     5.46     1011.498     59.20142     854.9513        40     1.988     0.999 -32.94   0
       104    883.8953    848.4094 307.5315180  +6.3522061     2644.024     4836.498     5275.448     83.92416     167.5808     335.6298      1.907     6.16     1000.004     59.20142     392.0076        23     1.891     0.748 -33.52   0
       105    294.4738    849.3341 307.7763343  +6.3321657     890.7391     1540.204      1239.72     84.32411     167.9819     335.8636      1.696     5.89     1012.365     59.20142     126.5602        12     1.581     0.618 -32.89   0
       106    342.1296    844.3779 307.7567060  +6.3358058     2109.643     4100.251     4518.083     83.79041     167.9151     335.8636      2.117     6.08     1011.561     59.20142     278.0872        27     1.966     0.904 -38.49   0
       107    478.4075    834.2272 307.7004391  +6.3445502     2429.378     4314.268     4466.106     83.79041     167.7815     335.6632      1.926     5.65     1009.047     59.20142     323.8939        22     1.831     0.776 -32.97   0
       108    822.6990    833.2451 307.5574497  +6.3564317     887.0513     1508.276     1679.995       84.191     167.9151     336.0973      1.740     3.84     1001.103     59.20142     211.3094         9     1.520     0.610 -38.19   0
       109    526.1586    830.1511 307.6807406  +6.3478272     4275.918     8929.796     11337.22       84.191     167.9151     335.7968      2.510     9.04      1006.72     59.20142     743.7505        49     2.932     1.094 -14.69   0
       110    443.1243    829.1806 307.7152662  +6.3454556      1201.37     2037.756     2403.196     83.79041     167.6477     335.7968      1.960     6.40     1009.637     59.20142     166.7361        16     1.697     0.677 -30.24   0
       111    860.6921    828.3125 307.5418324  +6.3597324     1258.053      2084.59     2002.224       84.191     168.4486     335.9638      1.800     5.87     1000.172     59.20142     205.9508        13     1.635     0.604 -29.51   0
       112     84.8982    828.4971 307.8640937  +6.3337514     1256.393      2102.36     2411.113       84.191     168.4486     335.6966      1.867     5.92     1011.127     59.20142     166.9401        14     1.438     0.686 -35.47   0
       113    495.9590    824.1257 307.6934889  +6.3493070      15497.1     28648.17     31299.58     84.05769     168.0486      335.897      1.978     5.81     1007.911     59.20142     2098.639        52     2.056     1.014 -33.41   0
       114    909.4311    822.3642 307.5217849  +6.3638092     3308.228      5642.11     6546.933     83.79041     167.7146     335.5964      1.865     5.91     998.6613     59.20142     533.0471        24     1.886     0.734 -33.85   0
       115      6.1249    814.8083 307.8972784  +6.3367618      1217.96     2082.843     1863.729     83.79041     167.4469     319.6789      1.841     5.64     1010.961     59.20142     173.9374        16     1.608     0.754 -33.46  16
       116    288.5372    812.9249 307.7800309  +6.3470000     2699.979     4909.693     5131.065     84.45701     167.9819     335.8636      1.922     5.76     1012.188     59.20142     319.9357        27     1.789     0.915 -30.92   0
       117    754.0400    808.6850 307.5867981  +6.3642871     44354.01     81243.56     87726.16       84.191     167.9151     335.8302      1.950     6.18     1002.012     59.20142     6373.642        78     2.059     1.063 -32.54   0
       118    211.3273    806.5911 307.8123179  +6.3470313     3941.793     8111.014     10507.03     83.65646     167.5139     335.6966      2.481     5.66     1012.152     59.20142      513.593        39     2.013     1.138 -34.11   0
       119    397.2671    807.3298 307.7350531  +6.3529455      653.447     1118.471     1056.122       84.191     168.0486     335.8636      1.773     5.31     1010.244     59.20142     95.94702         8     1.370     0.580 -39.87   0
       120    879.2866    803.9144 307.5349276  +6.3704248      7097.62     12552.78     13272.07     83.92416     168.1821     335.9304      1.835     6.00     999.1906     59.20142     1028.469        34     1.914     0.824 -32.76   0
       121    682.2563    803.3382 307.6167987  +6.3641037     17238.94     31571.87     34732.13     84.32411     167.9819      335.897      1.980     6.03     1002.855     59.20142     2505.651        59     2.077     1.065 -32.73   3
       122    675.9938    799.7729 307.6195204  +6.3653671     69805.05     129058.5     140278.6     83.65646     167.7815     335.6632      1.981     5.83     1002.825     59.20142     9789.256        87     2.086     1.099 -33.97   3
       123    320.9384    800.6956 307.7669846  +6.3531331     16275.97     30453.55     32572.68     83.92416     168.0486     335.9304      1.997     5.29     1011.166     59.20142      2227.33        56     2.009     1.114 -33.88   0
       124    370.0449    800.8004 307.7465819  +6.3547316     1066.877     1959.739      2517.98     83.38789     167.6477     335.4292      1.962     6.56     1010.213     59.20142     125.8634        16     1.725     0.701 -33.89   0
       125    382.8163    798.4918 307.7413545  +6.3561117     17059.27     32125.03     34728.87     83.92416     167.7815     335.7634      2.011     5.45     1010.056     59.20142     2355.986        58     2.053     1.114 -33.76   0
       126    609.2521    800.1801 307.6472326  +6.3629741     572.6381     1018.623     1164.703     83.65646     168.0486     335.6632      1.486     3.47     1004.026     59.20142     110.2603         5     0.996     0.350 -43.59   0
       127    210.9636    784.9909 307.8131997  +6.3559375     753859.1      2018803      2356938     83.65646     167.7146     335.6298      2.546    11.84     1011.302     59.20142     63675.18       553     2.651     1.951 -36.72   4
       128    919.7963    797.4313 307.5183164  +6.3744487     1885.216     3449.712     3425.306     83.65646     167.8483     335.6298      1.904     6.77     997.5182     59.20142      259.805        22     1.745     0.807 -34.26   0
       129    876.1564    795.4210 307.5365134  +6.3738277     5610.671     10032.05     11389.54     83.65646     167.8483     335.6632      1.906     6.51      999.027     59.20142      916.662        33     1.925     0.839 -33.53   0
       130    616.8152    794.3917 307.6442858  +6.3656162     5008.672     9051.776     9590.962     83.79041     167.7146     335.6966      1.938     5.69     1003.643     59.20142     710.3533        34     1.946     0.883 -35.40   0
       131    405.3188    792.3522 307.7322141  +6.3593987     1541.444     2718.184     3043.212       84.191     167.9819      335.897      1.933     5.57     1009.667     59.20142     192.6885        24     1.723     0.966 -28.67   0
       132    130.5459    791.8502 307.8463731  +6.3504120     660.2825     1163.574     1161.301     84.32411     167.9819      335.897      2.083     5.08     1011.304     59.20142     97.54913         8     1.508     0.485 -49.60   0
       133    999.5743    786.8820 307.4855279  +6.3814555     742.4642     1137.927     1904.289     84.05769     167.7146     335.8636      2.028     6.21     993.9319     59.20142     102.9347        11     1.421     0.762 -52.01   0
       134    844.2659    786.5581 307.5500598  +6.3764263     666.2366     1070.522     766.1351       84.191     167.9151     335.9304      1.849     4.91     999.3453     59.20142     120.9952         8     1.380     0.494 -31.21   0
       135    568.9673    786.7792 307.6644195  +6.3671636     682.9427     1051.129     1433.313     83.65645     167.7815     335.6966      1.439     4.07     1003.827     59.20142     102.9252         8     0.971     0.611  66.05   0
       136    651.7264    784.6893 307.6301096  +6.3707862     2019.805     3629.762     3254.435       84.191     168.2487      335.897      1.834     5.96     1002.728     59.20142      307.874        23     1.897     0.755 -32.78   0
       137    120.5076    785.6593 307.8507526  +6.3526318     849.3315     1337.378     1384.368     84.05769     167.9151     335.9972      1.728     5.21     1010.997     59.20142      122.264         7     1.317     0.583 -23.82   0
       138     96.1100    784.7996 307.8609164  +6.3521691     746.2007     1668.089     1921.682     83.38789     167.4469     335.5295      2.366     7.30     1010.646     59.20142     136.7812        13     1.804     0.828 -33.87   0
       139    385.7819    781.1666 307.7407077  +6.3633642     40707.52     77261.75     84904.29     83.65645     167.7815     335.6966      2.045     5.56     1009.203     59.20142     5328.857        78     2.138     1.153 -33.41   0
       140    255.3229    784.4982 307.7947892  +6.3576257      688.861     1669.968     3695.141     83.79041     168.2487     335.8636      2.673     3.38     1011.112     59.20142      133.359         5     0.789     0.419 -24.08   0
       141    503.5303    780.1666 307.6918265  +6.3677102     5731.456     10497.74     11309.78     84.05769     167.9819     335.9304      1.962     5.70     1005.686     59.20142      735.292        39     2.012     0.983 -35.12   0
       142    420.3225    778.7802 307.7264395  +6.3655037     3480.036     6615.796     7356.779     83.79041     167.7146     335.8302      2.050     5.58     1008.707     59.20142     458.7285        35     2.021     0.971 -35.73   0
       143    748.6586    776.7789 307.5901073  +6.3772819     9475.149     17029.35      18862.1     83.79041     167.8483     335.6632      1.923     5.85     1000.571     59.20142     1275.621        41     2.013     0.898 -33.57   0
       144    416.9501    772.1544 307.7280641  +6.3681268     1756.038     3252.589     4461.004       84.191     167.8483      335.897      2.021     6.24     1008.376     59.20142     216.4464        24     1.970     0.786 -34.33   0
       145    769.8960    770.9297 307.5814813  +6.3804042     901.3066     1386.044     1487.247     84.05769     168.0486     335.8636      1.763     5.82     999.8384     59.20142     146.4915        11     1.555     0.703 -33.34   0
       146     98.6290    766.2428 307.8604984  +6.3599153     2263.011      4388.23     5098.101     83.79041     167.9819       335.73      2.118     6.28     1010.315     59.20142     322.1301        30     1.950     1.048 -28.94   3
       147    106.4972    768.8604 307.8571413  +6.3590982     9199.319     17548.43     19763.34     83.92416     167.9819     335.9638      2.036     5.29     1010.434     59.20142     1078.851        51     1.990     1.156 -32.68   3
       148    114.3693    769.2476 307.8538581  +6.3592022     2237.641     4363.803     5270.188     83.79041     167.9819     335.7634      2.012     6.15     1010.507     59.20142     292.8106        25     1.812     0.882 -33.81   3
       149    943.1960    765.5228 307.5096670  +6.3884015     1265.424     2067.686     2319.702     83.79041     167.4469     335.6966      1.985     6.15     996.0245     59.20142     210.8284        15     1.751     0.607 -31.57   2
       150    894.0742    765.3796 307.5300792  +6.3868276     5458.984     9761.186     10727.05     83.79041     167.8483     335.7968      1.898     6.72     997.4742     59.20142     869.3975        31     1.875     0.838 -30.16   0
       151    649.6292    762.8459 307.6317166  +6.3797354     1162.813     2379.009     2641.556     83.65646     168.0486       335.73      2.307     6.57     1002.002     59.20142     166.4205        16     1.777     0.682 -30.04   0
       152    536.4961    762.3121 307.6787338  +6.3761825     1845.605     3550.651     4200.633       84.191      168.382      335.897      2.066     6.14     1003.914     59.20142     227.1965        22     1.734     0.863 -37.11   0
       153    384.1180    761.7936 307.7420531  +6.3713075     898.2352     2057.689     2376.875     83.79041     167.5139     335.6632      2.298     7.27      1008.29     59.20142     108.5701        15     1.890     0.783 -71.68   0
       154     98.5686    759.8535 307.8607399  +6.3625513      1456.42      2780.17     3181.379     84.05769     168.0486     335.7634      1.989     6.03     1010.202     59.20142     194.4547        20     1.750     0.782 -36.95   0
       155    948.7094    756.4886 307.5076798  +6.3923150     1594.491     2799.918     3300.356       84.191     168.5152     335.9638      1.868     6.41     995.6577     59.20142       254.21        18     1.718     0.747 -37.37   0
       156    917.8238    756.9111 307.5204970  +6.3911140     2612.393     4530.576     4611.948       84.191     167.7815       335.73      1.817     5.69     996.6183     59.20142     387.3976        23     1.809     0.728 -31.78   0
       157    888.3317    757.3708 307.5327340  +6.3899435     2635.697      4638.46     4944.156     83.92416     167.9819     335.7968      1.862     6.53     997.3828     59.20142     415.8829        21     1.739     0.753 -31.09   0
       158    640.3543    756.7949 307.6357735  +6.3819247     1293.256     2123.288     1886.819     83.52228     167.6477     335.5295      1.644     6.43     1001.913     59.20142     160.2119        16     1.569     0.772 -35.80   0
       159    787.9403    754.6439 307.5745328  +6.3877293     795.7205     1563.875     1701.451     84.05769     167.9151     335.9972      2.382     6.00      998.837     59.20142      161.436        11     1.817     0.558 -39.95   0
       160    862.4963    753.1082 307.5436105  +6.3908443     604.2643     947.4276     1121.057       84.191     168.5152     335.8302      1.902     5.41     997.8526     59.20142     104.0219         7     1.378     0.599 -36.01   0
       161    213.0240    751.7321 307.8134689  +6.3697385     1266.525       2669.4     4145.123     83.79041     167.9151     335.8302      2.613     6.19     1009.567     59.20142     184.3632        18     1.774     0.910 -41.70   0
       162    128.5618    747.3580 307.8487036  +6.3687155     764.1469     909.9457     134.3297     83.92416     167.9819       335.73      1.550     5.25      1010.04     59.20142      113.223         9     1.118     0.696 -66.85   0
       163    932.8389    744.5912 307.5146728  +6.3967000      2083.15     3851.068     4504.227     83.52228     167.7815      335.563      1.987     6.69     995.9633     59.20142     341.3283        27     1.933     0.855 -37.86   0
       164    905.0959    747.4723 307.5261019  +6.3945881     819.0807     1180.426     1777.008     83.92416     168.1154     335.8302      1.482     3.48     996.6729     59.20142          151         7     0.943     0.467 -11.91   2
       165    651.7490    744.4687 307.6314549  +6.3873939     812.0336      1610.35     1702.953     84.05769     167.8483     335.7968      2.605     8.54     1001.328     59.20142     109.2374        16     1.980     1.029 -50.53   0
       166    879.8967    745.7779 307.5366278  +6.3944497     867.4761     1614.131     1721.914     84.05769     167.7815     335.6632      1.912     5.64     997.2106     59.20142     169.4993        12     1.605     0.559 -33.12   0
       167   1006.6590    738.6539 307.4842033  +6.4016044     6267.437     10868.14     11229.17     84.32411     167.9151     335.8636      1.813     6.16     993.8097     59.20142     888.1018        29     1.881     0.795 -32.66   0
       168    974.5483    737.9347 307.4975680  +6.4008346     1502.646     2572.253     2653.129       84.191     167.9151     335.8636      1.736     5.96     994.6821     59.20142     228.5192        15     1.669     0.599 -34.48   0
       169    599.9539    737.4650 307.6532088  +6.3885588      579.991     1120.573     1089.572       84.191     167.9151     335.8636      1.959     4.16     1001.714     59.20142     78.10846         5     1.126     0.438 -64.42   0
       170    775.9252    736.3195 307.5801408  +6.3948954     837.9058     1497.717     1451.334     84.45701     168.2487     335.9304      1.819     4.82     998.1576     59.20142      178.666         8     1.696     0.387 -32.36   0
       171    861.9357    733.9946 307.5444858  +6.3987177     1247.119     2021.179     2357.289     83.52228     167.7146     335.6298      1.718     5.32     997.1714     59.20142     194.3475        15     1.610     0.656 -34.92   0
       172    838.3074    727.3001 307.5545273  +6.4006958     631.8953      1133.93     1147.326       84.191     168.5152     335.8302      2.174     3.61     997.2673     59.20142     107.7408         5     0.769     0.488 -26.20   2
       173    818.8875    725.3581 307.5626607  +6.4008514     1272.394     2418.608     2603.309       84.191     167.9819      335.897      2.027     6.87     997.4178     59.20142     189.7598        19     1.891     0.699 -27.20   0
       174     18.3505    724.1954 307.8952712  +6.3745839     1909.412     3638.903     4020.999     83.52228     167.7815     335.4961      1.957     6.18     1010.379     59.20142     330.8912        22     1.869     0.823 -34.91   0
       175    430.5468    723.6495 307.7240531  +6.3886083      456.201     817.9467     1450.629     84.32411     167.9151      335.897      1.854     3.72     1005.423     59.20142     70.80627         5     1.413     0.281 -44.70   0
       176     81.3693    722.2128 307.8691596  +6.3775159     591.3922     1105.212     923.8854     83.65646     167.7815     335.7968      1.362     3.40     1009.665     59.20142     92.27655         5     1.186     0.282 -34.77   0
       177    630.7058    712.6387 307.6412695  +6.3998349     4988.047     9453.705     10702.07     84.32411     167.8483     335.9638      2.081     5.71     1000.381     59.20142     719.8291        40     1.963     1.065 -32.61   0
       178    577.3788    711.9160 307.6634486  +6.3983548     1153.968     2334.856     2349.811     83.92416     167.6477       335.73      2.121     6.27     1001.497     59.20142     176.7863        17     1.760     0.749 -36.06   0
       179    488.5793    711.5806 307.7003513  +6.3955297     665.6593     1311.022     1357.518     83.92416     167.9151     335.7968      1.992     7.29     1003.662     59.20142     101.0958         9     1.602     0.928  -9.34   0
       180    604.6152    708.4022 307.6522516  +6.4007141     1579.472     3264.932     3865.033     83.79041     167.5808     335.6966      2.281     6.30     1000.617     59.20142     218.3363        22     1.880     0.796 -35.97   0
       181     93.8159    708.7110 307.8644463  +6.3835077     2944.384     5613.386     5506.566     83.92416     167.7146     335.6966      1.976     5.41      1009.28     59.20142     353.0021        31     1.823     0.991 -33.94   0
       182    967.5211    708.0840 307.5014899  +6.4129265     2241.092      3620.96     3862.867     84.32411     168.3154     335.9972      1.810     6.19     993.9568     59.20142     362.0905        20     1.786     0.677 -33.12   0
       183    281.1448    708.6067 307.7866282  +6.3898243     581.7701     1024.241     944.7159     83.65646     167.7815      335.563      1.655     5.83     1007.734     59.20142     86.81812         6     1.137     0.842 -66.14   0
       184    747.6644    704.7883 307.5929428  +6.4069736     15805.26     29495.98     31646.54     83.65646     167.7815     335.6966      1.979     5.92     997.6078     59.20142     2106.645        55     2.067     1.040 -34.83   0
       185    877.7430    704.5421 307.5389085  +6.4114044     3025.898     5432.371     5416.466     84.32411     167.9819      335.897      1.891     5.74     996.1582     59.20142     446.7362        26     1.907     0.816 -34.50   0
       186    446.1271    705.4243 307.7181956  +6.3966538      893.205     1717.954     1917.582     83.79041     167.8483     335.7968      2.104     5.82     1004.553     59.20142     118.7299        12     1.752     0.544 -20.88   0
       187    221.1621    698.5283 307.8118879  +6.3919780     4740.475     9257.476     10369.01     84.05769     167.9819     335.9304      2.121     5.83     1008.152     59.20142     592.5009        42     1.916     1.156 -33.47   0
       188    628.2283    697.6508 307.6428038  +6.4059407     5273.954      10013.5     11217.33     83.79041     168.1154     335.7634      2.063     5.81     999.8723     59.20142     728.0087        39     2.041     0.994 -34.00   0
       189    610.3430    698.9503 307.6501905  +6.4048078     755.4073     1335.072     1940.052       84.191     167.9819     335.9304      2.270     6.51     1000.199     59.20142     127.7478        10     1.420     0.837 -26.88   0
       190    886.6598    690.6825 307.5356696  +6.4174236     909.1957     1265.328     1276.276     84.32411     168.0486      335.897      1.565     3.25     995.6136     59.20142      155.198        10     0.919     0.813 -44.80   2
       191    889.3209    689.3161 307.5346100  +6.4180763     750.6371     1102.429     1015.697     84.32411     168.3154     335.9972      1.544     4.24     995.5189     59.20142       122.05         5     0.828     0.762  84.48   3
       192    700.0118    685.8958 307.6133766  +6.4131870     2806.121     5437.551      6077.15     83.79041     167.7146     335.6298      2.040     5.89     998.0536     59.20142     363.3062        30     1.841     0.979 -35.68   0
       193    654.1814    686.9135 307.6323831  +6.4112394     799.8896     1393.617     1998.505     83.92416     167.7146       335.73      2.180     3.50     998.9904     59.20142     145.3833         8     0.957     0.678 -42.72   2
       194    966.1606    682.6437 307.5029094  +6.4233857     7591.623     13285.25     13830.34     83.92416     167.9819       335.73      1.861     6.23     993.2411     59.20142      1123.61        34     1.951     0.821 -33.01   0
       195    904.6105    683.1523 307.5284647  +6.4211297     2149.725     3982.418     4164.419     83.65646     167.8483     335.5295      1.960     5.66     995.0056     59.20142     314.6944        24     1.809     0.840 -33.34   0
       196    504.5553    678.4756 307.6948310  +6.4097319     1493.405     2884.486     2998.586     84.05769     168.0486      335.897      1.972     6.29     1002.502     59.20142     176.2203        20     1.645     0.869 -32.71   0
       197     43.6761    677.5361 307.8863319  +6.3946980     19318.24     36709.18     40162.94     84.45702     167.9819     335.8302      2.062     5.48     1009.615     59.20142      2503.58        63     2.054     1.199 -35.82   0
       198    473.2782    675.9457 307.7079106  +6.4097321     1004.581     1845.564     2225.311     84.32411     167.9819     335.8636      1.948     6.48     1003.411     59.20142     129.8881        14     1.785     0.661 -29.29   0
       199    894.3602    674.6011 307.5330108  +6.4243197     876.7907     1600.848     1629.283     83.25329     167.7146     335.5295      2.066     5.22     995.0532     59.20142      150.175         9     1.344     0.573 -40.82   0
       200    513.0413    672.7591 307.6914983  +6.4123755     718.9037     1129.852     1789.697     83.92416     167.9819       335.73      1.778     2.66     1002.104     59.20142     148.3648         5     0.789     0.469 -53.34   0
       201    689.4073    669.8417 307.6183229  +6.4194623     2616.238     4920.213     5115.021     83.52228     167.7815      335.563      2.025     5.77     997.6583     59.20142     340.3325        27     1.732     0.951 -37.30   0
       202    711.6182    667.9173 307.6091598  +6.4209969     3068.732     5786.211     5817.132     83.79041     167.6477     335.8302      1.933     6.14     997.2364     59.20142     401.3293        31     1.972     0.921 -31.45   0
       203    542.9391    665.9865 307.6793053  +6.4161697      2591.48     4663.504     5019.281     83.65646     167.8483     335.5629      1.944     5.64     1000.864     59.20142      326.122        26     1.845     0.861 -31.57   0
       204    378.4681    666.9415 307.7476039  +6.4102822     883.6313     1632.209     2219.026     84.32411     167.9151     335.8636      1.952     5.34     1004.759     59.20142     129.7838        10     1.148     0.701 -16.23   0
       205    203.9169    665.3672 307.8201742  +6.4050923     1310.185     2643.553     2985.645       84.191     167.7815     335.7968      2.170     7.41     1007.866     59.20142     197.5348        20     1.859     0.826 -43.44   0
       206    287.4504    664.9464 307.7854847  +6.4080620     1169.108     2257.939     2371.289     84.32411     167.9151      335.897      2.141     7.93     1006.928     59.20142     148.8984        19     1.914     0.918 -15.33   0
       207    984.4570    664.0491 307.4959320  +6.4316714     4168.285     7222.953     7194.333       84.191     167.9819     335.9972      1.894     6.14      991.776     59.20142       695.21        29     1.972     0.773 -30.66   0
       208    949.7998    663.0163 307.5103661  +6.4309462     6714.925     11971.08      12521.7     83.79041     167.5139     335.5295      1.888     6.06     992.8989     59.20142     1042.947        33     1.925     0.847 -33.02   0
       209    669.2838    662.1893 307.6269414  +6.4219513     836.3926     1147.675     1628.005     83.79041     167.7146     335.6966      1.555     5.53     997.7184     59.20142     124.6992         9     1.322     0.799 -21.50   0
       210    999.3095    661.6115 307.4898429  +6.4331713     616.0958     1245.812     1024.929     83.92416     167.6477     335.6632      1.799     6.05     991.1328     59.20142     102.5522         9     1.733     0.593 -21.07   0
       211     60.5534    660.4579 307.8798992  +6.4023153     640.7965     1199.098     1055.502     84.19101     167.9819     335.9972      1.717     4.53     1008.751     59.20142     104.8865         7     1.062     0.550 -45.02   0
       212    395.2360    657.5145 307.7409560  +6.4147349     2201.222     4428.036     5607.951       84.191     167.9151     335.8636      2.387     5.76       1004.3     59.20142      241.342        28     1.805     0.993 -34.97   0
       213    108.4225    656.4493 307.8601484  +6.4055752      18241.1     34953.52     38521.79     83.79041     168.0486     335.7634      2.061     5.58      1008.18     59.20142     2202.532        60     2.090     1.172 -35.03   0
       214    776.9083    656.8530 307.5824059  +6.4277398     768.0366     1064.883     1174.537     84.05769     167.7815     336.0305      1.611     5.54     995.9566     59.20142     111.1915        11     1.640     0.528 -28.22   0
       215    944.7139    645.9631 307.5130520  +6.4378185     5392.692     10540.78     11595.98       84.191     167.9151     335.8636      2.033     6.13     992.0969     59.20142     782.6488        42     1.914     1.122 -27.52   0
       216    538.3549    641.1999 307.6820458  +6.4262510     35183.27     68861.16     76239.62     83.38789     167.5808     335.3958      2.085     5.68      1000.36     59.20142     4181.245        79     2.147     1.209 -32.55   0
       217    180.5405    643.3507 307.8306309  +6.4133997     487.5927     809.2695     1096.134       84.191     167.9819     335.9304      1.427     3.41     1007.676     59.20142     88.70758         5     1.059     0.318  20.65   0
       218    145.9327    637.8428 307.8451951  +6.4145145     2015.394     3745.888     2970.333       84.191     167.9151     335.9304      1.838     5.84     1007.781     59.20142     275.2382        27     1.943     0.925 -27.60   0
       219   1000.0798    641.0620 307.4902127  +6.4416818     76684.79       137332     147011.4     84.32411     168.0486     335.8302      1.912     6.57     989.8126     59.20142     10942.93        91     2.037     1.040 -33.63   0
       220     39.0298    631.7272 307.8898146  +6.4134557     941.1612     1989.343     1870.141     84.05769     167.9819     335.8302      2.043     7.31     1007.721     59.20142     139.6466        17     1.865     0.803 -44.44   0
       221    435.6328    625.0363 307.7252693  +6.4294947     45049.45     89087.73     99354.08     83.79041     167.7146     335.5964      2.120     5.72     1002.908     59.20142     5395.184        88     2.186     1.271 -33.19   0
       222   1013.9738    624.2386 307.4850046  +6.4490898     2779.727     5145.719     5596.946     83.79041     167.7815     335.6966      1.909     6.27     988.2471     59.20142     429.8297        25     1.922     0.756 -34.19  16
       223    621.0775    622.3277 307.6483129  +6.4368029     655.8342     1095.814     938.7817     84.45701     168.2487     335.8636      1.580     3.41      997.197     59.20142      103.932         5     0.972     0.347 -44.03   0
       224    110.1803    620.1072 307.8606490  +6.4206391       1164.2      2662.65     2687.188     84.05769     167.7815     335.6966      2.314     6.87     1007.398     59.20142     147.7737        21     1.838     0.955 -42.97   0
       225    904.6158    617.9094 307.5306549  +6.4480688      586.364     976.1109     316.7713     83.92416     167.7815     335.6966      1.665     5.66     992.1045     59.20142     106.5055         6     1.574     0.572 -18.14   0
       226    581.2984    616.9579 307.6650213  +6.4376933     794.9635     1283.542     1358.081       84.191     167.8483     336.0973      1.769     5.66     998.2233     59.20142     123.0991        10     1.078     0.836 -35.02   0
       227    281.0906    614.2808 307.7898400  +6.4287684     1501.668     3261.932     3588.109     83.92416     168.2487      335.897      2.197     6.10     1005.432     59.20142     184.9103        25     1.786     1.090 -31.40   0
       228    707.6519    608.5203 307.6128076  +6.4453897      3968.82     7162.701     7733.104       84.191     167.9819     335.8636      1.940     5.56     995.3257     59.20142     520.6533        33     1.904     0.963 -30.33   0
       229    761.1337    603.8348 307.5907441  +6.4491057     10584.56     19923.92      21709.7     84.05769     168.0486     335.9304      2.003     5.77     994.7587     59.20142     1299.447        47     2.029     1.028 -32.63   0
       230    978.6439    604.2737 307.5003545  +6.4561596     861.8073      1730.88     1819.095     84.05769     168.0486      335.897      2.370     6.48     988.5781     59.20142     105.4042        15     1.719     0.686 -35.08   0
       231    585.0746    602.0052 307.6639564  +6.4439931     2190.391     4084.201     4671.553     83.79041     167.4469     335.7634      2.037     5.94      997.566     59.20142     271.2117        27     1.859     0.954 -38.47   0
       232    503.2920    603.7254 307.6978778  +6.4405535     872.7734     1679.591     1430.882       84.191     168.1154     335.8636      1.954     4.71     1000.191     59.20142     144.8875        10     1.414     0.855 -82.43   0
       233   1000.7492    602.7754 307.4912200  +6.4575127     1643.584      2914.73     2855.629     83.79041     167.9819     335.7634      1.993     6.24     987.7213     59.20142      253.743        20     1.927     0.640 -38.02   0
       234    902.2750    597.8318 307.5323022  +6.4562810     925.0091     1861.621      2532.91     84.05769     168.0486     335.8302      2.418     6.56     991.4819     59.20142     132.9686        14     1.771     0.681 -36.40   0
       235    343.6154    595.7322 307.7644898  +6.4385184     871.0485     1307.441     1437.403     83.65646     167.8483     335.7634      1.736     4.61     1003.019     59.20142     113.7673         8     1.032     0.585 -23.42   0
       236    197.4048    595.7810 307.8252344  +6.4336053     886.9227     1832.278      1900.06     83.79041     167.5808     335.6632      2.159     6.46      1006.35     59.20142     132.1677        12     1.607     0.729 -28.97   0
       237    837.3588    587.0198 307.5596384  +6.4585860     2032.456     4021.257     4719.789     83.79041     167.7815     335.6632      2.124     6.33     993.3062     59.20142     276.5469        23     1.895     0.851 -35.31   0
       238    158.0548    588.7797 307.8418200  +6.4351779     4382.422     4267.967     4984.339     83.65645     167.9819     335.6632      0.601     0.89      1007.05     59.20142     2503.996         7     0.488     0.451  16.96   0
       239    795.9622    584.4078 307.5769267  +6.4582867      1785.53     3372.792     3934.053     83.38789     167.7146     335.5964      1.965     6.47      994.241     59.20142     274.5656        21     1.909     0.704 -36.79   0
       240    776.4539    575.7329 307.5853243  +6.4612191     119682.3     223674.4     246055.4       84.191     167.9151     335.7634      2.027     5.62     994.1185     59.20142     15761.24       142     2.486     1.225 -31.03   0
       241    224.1185    579.5115 307.8146862  +6.4412172     5725.239     11482.42     12729.33     83.92416     168.1821     335.9638      2.125     5.72     1004.803     59.20142     778.7142        42     2.069     1.093 -31.43   0
       242    158.2917    574.0513 307.8422202  +6.4412669     41657.61     83554.12      92896.6     84.05769     167.8483     336.0639      2.154     5.57     1006.964     59.20142     4931.255        88     2.177     1.318 -36.00   0
       243     82.3042    570.2729 307.8739186  +6.4402801      4609.54     9065.309     10258.69     84.05769     168.1154     335.8302      2.100     5.41     1006.735     59.20142     549.7148        43     2.123     1.088 -33.95   0
       244    947.4883    567.1675 307.5145461  +6.4704455     982.6998     1877.035     1946.899     84.32411     167.7815     335.8636      1.963     5.95      989.105     59.20142     143.1129        14     1.682     0.592 -36.11   0
       245    197.2924    565.7053 307.8262990  +6.4460193     605.4324     1473.073     2561.336       84.191     168.5152     335.8636      2.867     5.39     1005.217     59.20142     100.6125         7     1.604     0.510 -27.29   0
       246    812.9231    563.0605 307.5705975  +6.4676655     3522.692      6509.46     7394.532     84.32411     168.0486     335.8302      2.000     6.07     993.3034     59.20142     431.2877        32     1.946     0.955 -32.42   0
       247    331.6426    561.1527 307.7706330  +6.4523955     11967.15     24336.72      27261.9       84.191     167.9151     335.7634      2.183     5.67     1001.763     59.20142     1561.129        62     2.149     1.272 -33.98   0
       248    421.2937    561.8414 307.7333607  +6.4551082     592.9509     915.5932     965.9844     84.32411     167.9151     335.9638      1.761     4.35     1000.238     59.20142     89.23962         6     1.275     0.423 -56.39   0
       249    134.4024    559.6532 307.8526331  +6.4464112     1178.329     2803.609     3247.465     83.52228     167.7146     335.4292      2.666     9.32     1006.818     59.20142     170.2097        27     2.524     0.960 -30.96   0
       250    767.0297    556.3781 307.5898914  +6.4688969     4392.945     7975.028     8998.246     83.52228     167.7815       335.73      1.950     5.59     993.7188     59.20142     612.9057        33     1.914     0.936 -34.86   0
       251    498.0064    556.0439 307.7016828  +6.4600644     4587.598     9162.606     10219.62     83.65646     167.7146     335.5295      2.107     5.89     998.3152     59.20142      541.442        41     2.086     1.078 -34.97   0
       252     70.9243    557.3799 307.8790835  +6.4452218     724.2137     1456.576     1375.086     83.79041     167.7146     335.7968      2.053     6.06     1006.603     59.20142     89.97974        13     1.720     0.601 -50.26   0
       253    208.9301    557.8935 307.8217281  +6.4496344     693.1096     1286.252     1913.225       84.191     168.1154     335.8636      3.279     5.52     1004.259     59.20142     119.6196         9     1.460     0.589 -17.60   0
       254    356.2204    552.6185 307.7607096  +6.4567410     1126.864     2066.922      2075.07     83.92416     167.9151     335.7634      2.053     7.64     1001.238     59.20142     136.9387        17     1.735     0.941 -38.72   0
       255    145.0461    549.3391 307.8485602  +6.4510264     4902.507     9662.989     10675.44     84.05769     167.8483      335.897      2.132     5.46     1006.778     59.20142     653.6111        40     2.013     1.101 -37.01   0
       256    542.8654    549.0886 307.6832785  +6.4644337     1833.545     3561.181     4207.167       84.191     168.1821      335.897      2.098     6.53     996.3162     59.20142     204.9978        27     1.937     0.943 -35.05   0
       257    783.2945    548.8000 307.5833882  +6.4725674     1049.139     2006.707     1901.634     83.65646     167.5808     335.4292      2.017     6.92     993.4794     59.20142     163.6218        15     1.787     0.752 -40.82   0
       258    240.2760    545.6864 307.8091175  +6.4557240     60567.19     121887.9     136796.3       84.191     168.3154     335.9304      2.180     5.54     1002.293     59.20142     6963.848        95     2.205     1.348 -35.53   0
       259     16.6832    547.7729 307.9019447  +6.4473689     3695.031     7415.045     8151.752     84.05769     167.7146     335.7968      2.139     5.59     1006.424     59.20142      499.761        40     2.000     1.166 -38.06   0
       260    529.5679    543.9034 307.6889786  +6.4661308     724.6191     1355.771     1796.868     84.32411     167.8483     335.9638      2.209     5.19     996.5919     59.20142     101.7087         9     1.328     0.574 -20.95   0
       261    224.2364    541.3696 307.8159278  +6.4569694     1052.191     1815.925     2063.491     83.79041     167.7146     335.6966      1.811     5.71     1002.539     59.20142     124.5086        10     1.122     0.819 -46.48   0
       262    842.8192    541.0640 307.5589151  +6.4777428     4634.597     4878.539     4721.735     83.79041     167.9819     335.6966      1.316     4.51     991.4962     59.20142     1460.189        10     1.246     0.463 -35.89   0
       263    939.7101    539.4391 307.5187096  +6.4816361     1359.425     2513.532      2612.85       84.191     167.9151      335.897      2.155     6.54     988.7345     59.20142     216.8958        17     1.624     0.804 -32.37   0
       264    763.2873    538.0647 307.5920628  +6.4763338     12139.37     22890.56     25112.75       84.191     168.1821     335.8636      2.011     5.94     993.3048     59.20142     1535.363        49     1.984     1.102 -33.33   0
       265    466.9850    536.4704 307.7152328  +6.4671101     28110.89     60370.46     69977.52     83.65645     167.9151     335.7634      2.306     5.70     998.2155     59.20142     3231.042        87     2.288     1.427 -31.43   0
       266    179.1827    532.9979 307.8349303  +6.4589170     1325.594     2684.201     3010.643     83.79041     167.5139     335.5964      2.260     8.16      1004.88     59.20142      167.354        24     2.032     0.915 -36.04   0
       267     15.3401    533.1413 307.9029988  +6.4533649     884.2623     1812.102     1896.022       84.191     167.9151      335.897      2.230     6.75     1006.444     59.20142     158.7346        14     1.905     0.671 -35.94   0
       268    636.9867    531.8209 307.6447527  +6.4747032      1033.47     1980.137     2139.478     83.92416     167.6477     335.7634      2.054     6.64     994.5811     59.20142     146.0334        14     1.654     0.747 -26.19   0
       269    626.7719    531.6309 307.6490035  +6.4744411     2103.008     4087.301     4895.202     83.65646     167.7146     335.6298      2.245     6.67     994.6979     59.20142      247.592        28     1.983     0.940 -31.19   0
       270    689.1328    530.4501 307.6231315  +6.4770075      967.952     2094.469     2358.373     84.05769     167.8483     335.8302      2.133     7.59     993.9155     59.20142      133.397        16     1.802     0.895 -25.23   0
       271     45.5224    529.9541 307.8905668  +6.4556934     570.3417     875.2673     1401.938     84.05769     168.0486     335.8636      1.660     4.50     1006.458     59.20142     111.8517         5     0.862     0.667 -43.90   0
       272    364.7237    527.2995 307.7580321  +6.4674793     1182.785     2238.238     2208.201     83.65646     168.1154     335.8636      2.082     7.01     999.8143     59.20142     132.4362        18     1.675     0.821 -34.19   0
       273    476.0192    525.0983 307.7118629  +6.4721073     1468.194     3120.818     3792.113       84.191     167.8483     335.5964      2.406     6.63     997.5255     59.20142     178.8045        25     1.891     0.916 -30.99   0
       274    296.0914    525.5951 307.7866063  +6.4658875     2518.815     5039.901     5296.354     83.79041     167.6477     335.5964      2.166     5.72     1000.328     59.20142     336.7902        32     1.936     1.004 -34.41   0
       275    111.3965    524.0786 307.8633965  +6.4603282     17949.22     36511.75     40796.25     83.65645     167.4469     335.6632      2.152     5.69     1006.158     59.20142      2105.12        64     2.121     1.254 -35.74   0
       276   1014.6091    524.6390 307.4880843  +6.4902358     1041.014     1813.591      1965.13     83.52228     167.7815      335.563      1.968     5.36     985.1927     59.20142     178.5488        15     1.759     0.632 -31.75  16
       277    839.5300    523.7620 307.5608637  +6.4847774     1155.036     2304.462     2535.969     84.05769     167.9819     335.9304      2.196     7.26     991.1187     59.20142     151.0625        18     2.045     0.721 -29.81   0
       278     76.4570    522.3001 307.8779735  +6.4598911     1838.276     3787.158     4015.085     83.92416     167.9819     336.0973      2.189     6.57     1006.425     59.20142     206.6891        27     1.948     0.980 -37.29   0
       279    313.1570    520.3813 307.7796918  +6.4686111     708.9789     1608.371     1940.786     83.65646     167.8483     335.6298      2.655     7.95     999.9886     59.20142     86.38519        12     1.768     0.999 -60.05   0
       280    936.9208    518.5134 307.5205718  +6.4901836     3874.701     7282.184     7464.974     83.92416     168.3154     335.9972      1.973     6.61     988.1968     59.20142     548.3342        32     2.029     0.874 -32.95   0
       281    509.9074    510.9904 307.6982581  +6.4790640     1003.961     1903.049     2352.998     83.79041     167.5808     335.6298      1.963     5.97     996.1693     59.20142     129.2958        15     1.501     0.827 -47.25   0
       282    408.3275    505.1658 307.7406623  +6.4780757      29346.9     59536.95      66684.8     84.05769     167.9151     335.8302      2.171     5.60     997.7098     59.20142     3443.636        77     2.176     1.307 -34.21   0
       283    616.2275    504.8909 307.6542861  +6.4851302     8539.403     16669.64     18886.99     84.32411     167.7146       335.73      2.112     5.90     993.9976     59.20142     1036.059        53     2.094     1.165 -31.19   0
       284    256.6590    505.4581 307.8036714  +6.4728821     700.8079     1113.157     1052.513       84.191     167.9151      335.897      1.792     6.08      1000.58     59.20142     100.6178         8     1.128     0.921 -26.02   0
       285    173.5945    502.8265 307.8382736  +6.4711871      13140.9     27975.58     31702.63     83.65646     167.7815     335.6632      2.279     5.71     1003.193     59.20142     1554.901        68     2.129     1.423 -31.86   0
       286    139.0428    503.9940 307.8525900  +6.4695473     1351.224     2484.077     2211.516     83.52228     167.6477     335.5629      1.909     6.12      1004.57     59.20142     195.0516        16     1.429     0.903 -24.46   0
       287    950.1051    503.2926 307.5156046  +6.4969065     1116.399     2019.071     2371.288       84.191     168.5152     335.8302      1.940     6.00     987.0567     59.20142     152.3824        14     1.629     0.622 -31.19   0
       288    789.6706    503.3269 307.5822690  +6.4915555     871.8594     1488.505     1293.744     84.32411     168.1154     335.8636      1.804     5.57     991.8095     59.20142     121.3049        11     1.197     0.730 -39.61   0
       289    538.0499    501.5513 307.6868830  +6.4839008     1930.975     3974.123     4191.713       84.191     167.8483     335.7968      2.148     6.55     995.4698     59.20142     234.3771        27     1.823     1.118 -35.85   0
       290    911.9061    498.7185 307.5316313  +6.4975252     3809.779     7005.995      7088.17     83.92416     168.2487     335.9638      1.950     6.27     988.4128     59.20142     520.4858        32     1.924     0.891 -33.27   0
       291    585.0900    497.2418 307.6674823  +6.4872499     4486.946     9068.196     9910.361       84.191     167.9819      335.897      2.144     6.11     994.3736     59.20142     528.9131        40     2.108     1.072 -33.75   0
       292     72.3649    498.4104 307.8804833  +6.4696174      812.456     1837.328     1716.856     83.65646     167.7146     335.6298      2.269     7.80      1006.32     59.20142      111.428        11     1.681     1.014 -20.72   0
       293    934.4852    490.9825 307.5225089  +6.5014701     2586.001     4399.244     4644.547     83.79041     167.7146     335.7968      1.891     5.82     987.4447     59.20142     341.4478        24     1.823     0.796 -33.88   0
       294    497.3168    488.4581 307.7042501  +6.4879470     5064.894     10168.61      11756.6       84.191     167.9819     335.9304      2.192     5.79     995.4113     59.20142     586.8029        45     2.086     1.150 -32.26   0
       295    343.6408    488.3324 307.7681091  +6.4828633      1705.51     3751.022     4314.482     84.05769     167.9151     335.9304      2.337     7.04     998.2563     59.20142     216.4015        31     1.998     1.141 -40.40   0
       296    853.7099    484.2849 307.5562991  +6.5015492     2328.083     4290.662     5743.299     83.92416     168.3154     335.9972      2.049     5.72     989.6358     59.20142     337.4011        26     1.860     0.875 -33.67   0
       297    861.1127    478.9428 307.5534027  +6.5040012     1564.963     2961.969     3603.738       84.191     167.9151     335.9972      2.129     5.93     989.3452     59.20142       255.72        21     1.926     0.788 -39.10   1
       298    900.0798    478.1048 307.5372385  +6.5056434     996.1193     1798.191     1613.386     83.92416     168.2487     335.9304      1.837     6.41     988.1992     59.20142     152.5878        14     1.803     0.640 -32.17   0
       299    685.0543    474.6675 307.6267052  +6.4999040     2019.797     4038.572     4481.991       84.191     167.9151     335.7634      2.079     5.94     992.4395     59.20142     264.7798        28     1.947     0.936 -36.01   0
       300    356.0639    473.1551 307.7634601  +6.4895453     2612.641     5389.867     6310.465       84.191     167.9151      335.897      2.256     6.20     997.3074     59.20142     289.3332        34     2.003     1.106 -35.03   0
       301     48.0000    473.9861 307.8914346  +6.4788844      1254.04      2830.29     3636.066     83.65646     167.5808     335.6298      2.378     6.36      1006.21     59.20142     177.2456        15     1.624     0.837 -71.10   2
       302    396.3174    473.2908 307.7467294  +6.4908351     796.7946     1470.106     2260.021     83.92416     168.2487     335.9638      2.427     6.26     996.4426     59.20142     98.39819        12     1.533     0.718 -43.14   0
       303    583.8271    469.4340 307.6689447  +6.4986894      7014.34     14069.43     16362.05     83.65646     167.7146     335.6298      2.188     6.00     993.5015     59.20142      816.731        53     2.189     1.191 -35.17   0
       304    746.7538    465.6746 307.6013696  +6.5056729     11597.82     23477.06     27037.07     84.05769     168.0486     335.8636      2.262     7.11     991.2371     59.20142     1430.775        67     2.573     1.121 -40.69   0
       305    266.4266    466.6303 307.8009263  +6.4892404      1811.66     3700.126     4455.151     83.65646     167.7146     335.6966      2.237     6.24     998.7029     59.20142     214.2193        34     1.992     1.170 -32.51   0
       306    775.3177    463.3411 307.5895787  +6.5075876     780.7722     1441.881     1501.591       84.191     168.0486      335.897      2.111     5.31     990.5742     59.20142     103.5134         9     1.303     0.611 -39.50   0
       307    348.1148    463.7639 307.7670805  +6.4931570     954.2723     2023.677     3392.872       84.191     167.9151     335.8636      2.908     4.33     996.9354     59.20142     153.1236        11     1.234     0.801  -2.09   2
       308    931.6930    460.8706 307.5246810  +6.5138105     1632.985     3026.033     2911.273       84.191     168.1154     335.8636      1.981     6.88     986.8553     59.20142      213.436        19     1.697     0.782 -35.53   0
       309    679.8889    460.4114 307.6293319  +6.5056181     492.8325     688.3345     764.4323     83.92416     167.6477     335.6966      1.338     3.48      991.882     59.20142     97.36481         5     0.812     0.431 -20.19   0
       310     84.1571    457.9010 307.8769565  +6.4867383     3254.492     6451.603     7682.978       84.191     167.8483     336.0973      2.215     5.43      1004.93     59.20142     383.2918        40     1.983     1.135 -29.93   0
       311    721.5389    457.1631 307.6121340  +6.5083473     1568.414     2982.106     3436.812       84.191     168.0486     335.8636      2.042     7.07     991.1222     59.20142     189.6169        23     1.877     0.816 -30.92   0
       312    985.6574    455.8150 307.5024260  +6.5176915      3196.81     6588.828     7329.369     83.52228     167.9151     335.5629      2.119     5.68     983.6096     59.20142     351.4617        33     1.857     1.103 -26.63   0
       313    337.5530    458.6318 307.7716426  +6.4949227     560.4299     951.4213     1447.286     83.79041     167.9819     335.7634      2.007     4.25     996.7723     59.20142     78.07635         5     1.067     0.482   1.48   0
       314    241.7195    455.2969 307.8115759  +6.4930928     1103.173     2226.543     2614.332     83.92416     168.3154      335.897      2.249     7.70     999.0528     59.20142     128.5767        18     1.697     0.977 -34.56   0
       315    320.0901    452.8424 307.7790945  +6.4967289     2329.161     4582.917      4682.75       84.191     167.9819      335.897      2.086     6.14     996.6407     59.20142     245.0361        31     1.932     1.041 -35.61   0
       316    675.3264    450.4195 307.6315643  +6.5095917     1078.022     2220.398      2768.87     83.79041     167.9151     335.7968      2.327     7.41     991.5671     59.20142     144.6788        17     1.723     0.891 -24.91   0
       317    207.8483    449.1632 307.8258575  +6.4944911     507.7752     995.0801     687.1473     84.05769     167.9151     335.7634      1.575     4.46     999.9027     59.20142     96.98004         6     1.635     0.346 -51.94   0
       318    516.9973    443.8961 307.6975761  +6.5070033     664.4746     1314.345     1157.158     83.92416     167.6477     335.5295      2.208     4.91     993.4246     59.20142     109.2137         8     1.003     0.681 -25.51   0
       319    801.5126    440.4931 307.5794625  +6.5178936     1112.278     2056.073       2240.3     84.19101     168.4486     335.9638      1.980     6.22     989.3016     59.20142     145.2158        15     1.741     0.624 -42.31   0
       320    439.4957    441.1132 307.7298746  +6.5055639     946.9821     1751.514     1864.794       84.191      168.382     335.9304      2.187     6.46     994.0072     59.20142     151.6305        12     1.552     0.756 -44.40   0
       321    787.4851    439.5872 307.5853221  +6.5178007     1356.079      2915.78     2848.486     83.79041     167.8483     335.6966      2.105     7.33     989.4451     59.20142     172.6833        20     1.750     0.859 -35.69   0
       322    684.9576    437.6831 307.6279913  +6.5151715     10405.36     20358.97     22816.14       84.191     167.9819     335.7968      2.101     6.08     990.8888     59.20142     1245.148        51     2.125     1.098 -33.84   0
       323    605.8143    433.6378 307.6610152  +6.5142029     1883.034     3837.385     4964.686     83.92416     167.7815     335.5964      2.411     6.43     991.7357     59.20142     217.0637        27     1.737     1.201 -12.98   0
       324    578.4718    428.8175 307.6725397  +6.5152810     8544.745     23257.39     30333.89     83.65646     167.9151     335.7968      2.868     7.04     991.9281     59.20142     1195.566        85     2.511     1.859   6.48   0
       325    910.2018    427.6454 307.5347284  +6.5268147     3029.247     5488.381     5640.065     83.52228     167.5808     335.4626      1.881     5.80     986.8017     59.20142     400.8077        27     1.834     0.861 -32.87   0
       326    349.4474    423.5783 307.7678850  +6.5097936     19499.04        40136     45588.57     83.79041     167.9819     335.6966      2.210     5.82     994.7305     59.20142     2362.687        69     2.195     1.303 -33.84   0
       327     95.5306    422.9785 307.8734141  +6.5015384     1781.047     3550.317     4016.201     83.79041     167.9151     335.8302      2.198     6.11     1002.365     59.20142     236.6232        26     1.853     1.057 -34.99   0
       328    865.5679    423.2085 307.5534255  +6.5271621     1177.695     2172.339     2844.232     83.65646     167.7815     335.6966      1.985     5.89     987.5632     59.20142     174.0846        12     1.421     0.687 -30.09   0
       329    879.0731    418.0573 307.5479865  +6.5297383     3674.934     6997.759     7369.144       84.191     167.9819     335.8302      2.059     5.98     987.1682     59.20142     492.1945        37     2.003     0.982 -32.21   0
       330     28.4855    418.6935 307.9014176  +6.5010588     1036.947       1895.2     2094.341     84.05769     168.4486     335.9638      2.004     5.93     1006.105     59.20142     121.1038        12     1.203     0.823 -33.35   0
       331    206.9718    414.1283 307.8274076  +6.5089270     9382.422     19351.97     21509.68     83.92416     167.9819     335.7634      2.213     5.56     998.4124     59.20142     1183.255        59     2.146     1.293 -36.15   0
       332     43.2369    407.6782 307.8956616  +6.5061017     577.3175     1010.725     1103.137     84.05769     168.0486     335.8636      2.085     4.96     1004.821     59.20142      108.911         7     1.939     0.359 -36.73   0
       333    701.5435    408.2257 307.6220913  +6.5278871     523.8353     516.0189     1223.784     83.79041     167.9819     335.6632      1.315     5.16     989.2625     59.20142     80.83923         5     1.060     0.709 -16.19   0
       334    930.0599    406.4034 307.5271901  +6.5362458     927.9146      1766.44     1618.114     83.52228     167.7146     335.5629      1.900     6.44     985.6096     59.20142     130.6019        13     1.510     0.770 -26.12   0
       335   1011.6727    404.6896 307.4933320  +6.5396656     7104.321      12785.2     13989.87       84.191     168.2487     335.8636      1.938     6.01     980.7515     59.20142     969.7656        33     1.908     0.889 -33.83  16
       336    319.6065    404.2934 307.7809369  +6.5167580     901.3194     1766.999     1666.588     83.79041     167.6477     335.6966      2.139     6.17     994.2319     59.20142     144.4892        11     1.386     0.771 -49.21   0
       337    107.2702    402.7698 307.8692208  +6.5102758     3651.317     7353.089     8046.774     84.05769     167.9819     335.8302      2.153     5.69     1001.427     59.20142     381.5762        40     2.032     1.153 -32.73   0
       338    211.7507    401.8645 307.8258369  +6.5141506     808.2939      1628.27     1823.615     84.05769     167.8483      335.897      2.197     6.90      997.716     59.20142     114.5984        11     1.553     0.860  -7.15   0
       339    792.4339    400.1760 307.5845920  +6.5342382     604.7454     847.8669     1233.284     83.65646     167.7815     335.6298      1.418     4.46     987.9689     59.20142     96.76477         5     1.117     0.507 -28.55   0
       340    129.0581    398.7244 307.8603044  +6.5126764     1762.852     3608.043     4339.734     84.32411     168.0486     335.8302      2.181     6.98      1000.75     59.20142     181.6281        26     1.794     1.007 -42.91   0
       341    524.2549    398.4522 307.6960937  +6.5260090     661.7062     1212.548     1076.526     84.32411     167.9819     335.8302      1.770     3.44     990.8318     59.20142      97.3197         5     0.745     0.461  18.81   0
       342    352.8329    393.4777 307.7674957  +6.5223350     1382.527     2722.611     2909.661     84.05769     167.9819     335.8302      2.167     7.27     992.9783     59.20142     180.7176        22     1.792     0.928 -26.36   0
       343    941.1245    392.3918 307.5230629  +6.5423990     623.4037     1261.358     1505.984     83.79041     167.4469     335.6632      2.202     4.57     984.3556     59.20142     97.76794         7     1.690     0.352 -43.81   0
       344    406.5983    386.9958 307.7453727  +6.5268089     4726.594     10144.73     11399.01     83.52228     167.5139     335.5964      2.244     6.47     991.9055     59.20142     520.3171        47     2.198     1.198 -36.92   0
       345      3.2364    387.7435 307.9129586  +6.5129900     2247.394     4359.347     4262.455     84.05769     159.3475     283.7719      2.079     6.98     1005.904     59.20142     265.1543        27     1.966     0.963 -40.07  24
       346    747.1143    384.2856 307.6039601  +6.5392901     9195.839     18277.05      20334.3     83.92416     168.1154      335.897      2.112     5.82     987.8776     59.20142     1083.343        50     2.070     1.127 -33.80   2
       347    739.0663    386.1460 307.6072419  +6.5382539     1467.347     2992.735     3449.874       84.191     167.9151     335.8302      2.331     6.60     987.9899     59.20142     189.1454        26     2.131     0.909 -29.72   3
       348    310.3222    382.9338 307.7855172  +6.5252664     790.4133      1380.22     790.5409     84.32411     168.0486     335.8302      1.661     5.14      993.899     59.20142     91.68591        10     1.334     0.559 -24.74   0
       349    990.7874    379.4071 307.5028605  +6.5494109     2809.954     5072.854     4901.232     83.79041     167.7815     335.7634      1.909     5.26     981.4429     59.20142     416.9802        30     1.891     0.915 -35.36   0
       350    154.9024    375.7025 307.8503451  +6.5230479     567.6609     999.0643     462.0146       84.191     168.5152     335.6966      1.778     4.77     999.4146     59.20142     86.93719         6     0.940     0.687  69.54   0
       351    454.6439    371.0440 307.7259461  +6.5350008     1988.432     4421.851      4389.67       84.191     167.9819       335.73      2.239     9.34     990.2819     59.20142     370.0204        34     2.105     1.157 -49.58   0
       352    427.0295    371.2592 307.7374141  +6.5339892     1696.617     3209.833     3916.401     83.92416     167.9819     335.8302      2.100     7.15     990.9644     59.20142     185.0912        24     1.778     0.974 -21.30   0
       353    812.4806    367.1936 307.5773711  +6.5485239     23888.36     47519.61     52594.04     83.79041     167.5139     335.5964      2.126     6.13     986.7008     59.20142     2934.241        70     2.139     1.207 -38.84   0
       354    304.7043    362.9612 307.7885271  +6.5333248     605.0312     1049.106     384.0208       84.191     167.8483     335.9972      1.730     3.43     993.6371     59.20142     111.1346         5     1.024     0.332 -47.20   0
       355    584.2986    359.7498 307.6724477  +6.5439929     2032.408     3813.578     4446.711       84.191     167.9819     336.0639      2.062     6.29     987.9746     59.20142     222.7332        26     1.886     0.963 -37.96   0
       356    668.9791    353.2242 307.6374770  +6.5495115     54606.13     109884.5     122953.1     83.79041     167.7815     335.8636      2.137     5.82     987.8112     59.20142     6640.596        92     2.200     1.276 -35.30   0
       357    827.2206    354.6896 307.5716662  +6.5541774     904.4782      1754.88     1918.843     84.05769     167.7146     335.6966      1.921     5.68      986.289     59.20142     128.0095        12     1.657     0.549 -33.24   0
       358     48.2363    353.2106 307.8954310  +6.5287578     1081.803     2133.928     1975.839     83.65646     167.7815     335.5964      2.006     6.75     1002.438     59.20142      121.761        15     1.455     0.879 -48.98   0
       359    531.2167    350.0041 307.6948355  +6.5462453     1862.996     4066.812      5087.15     83.79041     167.5808     335.6966      2.430     7.37      987.608     59.20142     204.6262        30     1.931     1.144 -34.43   0
       360     68.6988    348.9135 307.8870737  +6.5312183     4319.077     8752.463     9664.748       84.191     168.4486     335.9304      2.183     5.73     1001.707     59.20142     573.7634        42     2.080     1.140 -38.87   0
       361    909.3884    350.8120 307.5376493  +6.5585121     601.1211     1110.903     1119.831     84.05769     167.7815     335.7968      2.230     4.62     983.9877     59.20142     85.36414         7     1.046     0.580 -16.39   0
       362    514.7750    346.1462 307.7017984  +6.5472892     5052.009     10380.21     11594.63     83.79041     168.0486     335.6966      2.184     5.57     987.6138     59.20142     590.7621        44     2.033     1.145 -33.03   0
       363    243.6819    343.8159 307.8145328  +6.5391871     1854.415     3645.901     4261.934     83.79041     167.6477       335.73      2.047     6.52     994.5682     59.20142     289.8197        26     1.993     0.938 -35.96   0
       364    377.6353    341.3305 307.7589515  +6.5446953      17547.4     36233.69     41240.87     84.05769     167.9819     335.9638      2.231     5.82     990.1295     59.20142     2088.454        72     2.199     1.358 -33.53   0
       365    485.5673    339.7592 307.7141518  +6.5489509     851.0228     1806.164     2319.198     83.92416     167.8483     335.6966      2.287     5.73     987.6257     59.20142     111.4956        10     1.423     0.650 -28.88   0
       366    357.3188    338.8357 307.7674786  +6.5450459     729.2631     1750.998     3316.836     84.05769     168.0486     335.8636      2.937     5.72     990.2355     59.20142     116.0699         9     1.585     0.807 -31.80   0
       367    466.6710    331.7439 307.7222751  +6.5516292     5798.194     11884.98     13530.14       84.191     167.9151     335.8302      2.235     5.95     987.6624     59.20142     656.7073        51     2.169     1.246 -34.09   0
       368    456.6216    336.6699 307.7262850  +6.5492595      864.222     1813.275     2040.461     83.79041     167.9151     335.8302      2.337     6.11      988.269     59.20142     124.6727        10     1.334     0.785 -62.92   0
       369    735.6689    330.5291 307.6105267  +6.5611047     2321.582     4289.038     4532.011       84.191     168.1154     335.8302      1.956     5.67     986.9159     59.20142     297.8303        27     1.913     0.875 -38.44   0
       370    773.5049    332.6260 307.5947321  +6.5614991     613.7833     1031.924     908.6876     84.32411     167.7146       335.73      1.484     3.88     986.4348     59.20142      102.368         5     1.050     0.411  15.31   0
       371    890.6293    331.0482 307.5461098  +6.5660486       664.17     1166.862     1509.984     83.79041     168.0486     335.7634      2.601     4.57     983.9805     59.20142     119.3032         6     1.083     0.547 -30.00   0
       372    683.2108    330.2448 307.6323370  +6.5594740     473.8792     981.9655     897.2603     83.65646     167.8483      335.563      2.342     4.69     987.0898     59.20142     123.5865         6     1.956     0.319 -40.57   0
       373    292.4622    328.8924 307.7947667  +6.5469816     730.0652      1091.97     833.1422       84.191     168.0486     335.9304      1.512     3.69     992.7673     59.20142     110.3502         6     0.875     0.663   6.90   0
       374    128.6887    322.3929 307.8630439  +6.5441797     813.6502     1572.618     1742.743     83.65646     167.6477     335.5964      2.081     5.83     998.8649     59.20142      127.447         9     1.252     0.763 -12.06   0
       375    356.6508    316.0055 307.7685279  +6.5544498     5015.142     10268.47     11845.88     83.52228     167.7815     335.4626      2.216     5.85      989.381     59.20142     624.8847        47     2.163     1.157 -32.82   0
       376    212.9557    316.2485 307.8282343  +6.5495402      1382.26     2840.347     3795.265       84.191     167.9151     335.8302      2.380     8.20      995.137     59.20142     158.3805        22     1.828     1.027 -39.71   0
       377    724.4631    311.7711 307.6158154  +6.5684764     38475.73     75713.11     83607.02     83.92416     167.9819     335.7968      2.115     5.94     986.4717     59.20142     4802.843        80     2.149     1.232 -34.69   0
       378    396.2373    311.2524 307.7522376  +6.5577360      1560.17     3286.844     3618.136     84.05769     167.9819     335.8636      2.211     6.81     988.3122     59.20142     196.4865        23     1.794     0.986 -29.24   0
       379    959.0468    309.1342 307.5184125  +6.5773717     1387.757     2325.919     2493.946       84.191     167.9151     335.8636      1.809     6.02     980.8079     59.20142     190.8123        17     1.594     0.823 -24.37   0
       380    900.2167    308.0317 307.5428992  +6.5758709     1888.053      3525.29     3485.044     83.79041     167.7146       335.73      1.909     6.40     982.6147     59.20142      239.246        21     1.704     0.817 -36.08   0
       381    542.1544    308.6018 307.6916872  +6.5637050     767.7337     1364.546     1505.012     83.52228     167.6477     335.4626      1.929     5.06     985.6869     59.20142     105.9588         7     1.272     0.570 -36.48   0
       382    433.1461    307.6520 307.7370208  +6.5604563     728.1171     1655.612     2430.695     84.32411     167.9151      335.897      2.218     5.94     987.2015     59.20142     111.4327         9     1.494     0.664 -41.15   0
       383    382.8857    306.9598 307.7579312  +6.5590620     1247.083     2715.218     2599.138       84.191     167.9151     335.8636      2.102     7.70     988.4092     59.20142     153.9295        21     1.844     0.956 -23.53   0
       384    803.9268    301.3862 307.5831406  +6.5754108     851.1005     1601.783      1876.66     83.65645     167.7146     335.6298      1.947     5.84     985.6328     59.20142     139.0443        11     1.520     0.631 -42.26   0
       385    413.3457    298.9005 307.7455451  +6.5634079     787.8939     1716.767     2260.184     83.92416     167.9819      336.164      2.827     6.17     987.1666     59.20142     88.70758        12     1.718     0.624 -38.21   0
       386    159.0256    298.4026 307.8512499  +6.5551016     1638.392      3392.18     3615.285     83.79041     167.6477     335.6632      2.193     6.70     996.5698     59.20142     188.0822        27     1.929     1.044 -34.18   0
       387    722.8650    296.4088 307.6169971  +6.5747661     4346.027     8370.975     9298.874     83.65646     167.7815       335.73      2.037     5.72     986.0595     59.20142     542.8472        35     1.948     0.996 -34.73   0
       388    739.1666    294.4160 307.6102893  +6.5761321       1859.1     3511.685     3228.365     83.79041     167.7146       335.73      1.987     6.28     985.9906     59.20142     240.5143        26     1.803     0.963 -35.95   0
       389     54.8115    296.1991 307.8946317  +6.5525170     690.3488     1400.051       1099.8     83.79041     167.6477     335.6632      2.132     4.78     1001.204     59.20142     100.4915         7     1.106     0.585  16.10   2
       390    328.8982    289.0887 307.7809712  +6.5646351      1195.59     2789.355     3282.799       84.191     168.4486     335.8636      2.286     8.84     989.2853     59.20142     137.6162        25     2.003     1.096 -27.74   0
       391     41.6305    290.4636 307.9003036  +6.5544428     804.9857     1466.805     1852.759     83.92416     168.0486     335.7968      2.020     4.30     1001.507     59.20142     120.0748         8     0.977     0.800 -78.03   2
       392    977.3880    285.1823 307.5115946  +6.5878710     4773.583     8691.775     9263.896     83.92416     167.6477     335.7634      1.960     5.93     979.8318     59.20142     642.4752        33     1.943     0.900 -36.33   0
       393    455.6531    285.3769 307.7284197  +6.5704054     1342.255     2612.403     2447.499     83.65646     167.9819     335.6632      2.070     5.61     985.3091     59.20142     171.4144        16     1.466     0.883 -39.50   0
       394    218.2308    280.7209 307.8272449  +6.5643855     4107.956     8241.365     9605.154     84.05769     167.9819     335.8302      2.167     5.84     994.6049     59.20142     492.2358        39     2.037     1.095 -32.62   0
       395    737.4637    274.0120 307.6116842  +6.5845000     695.9122      1093.08      1064.73     83.65645     167.7815     335.6632      1.639     4.81     985.5331     59.20142     90.87024         5     1.021     0.641  -0.51   0
       396    351.8026    272.0309 307.7720293  +6.5724441     1100.882     2878.828     3524.538     83.52228     167.7815     335.6298      2.798     5.67     988.3886     59.20142     154.0438        16     1.318     1.188 -19.53   2
       397    939.0463    270.5868 307.5280203  +6.5926230     831.3044     1377.565     1199.809     83.52228     167.7815     335.6298      1.734     5.65     980.2387     59.20142     121.0413        11     1.604     0.561 -28.75   0
       398    274.9352    267.4740 307.8041282  +6.5717536     924.3029     1536.663     874.5703     84.32411     167.9819     335.8636      1.810     6.83      991.228     59.20142       124.87        14     1.510     0.866 -31.36   0
       399    122.2195    267.6945 307.8675856  +6.5665465     1274.145     2392.511     2666.376     84.05769     167.7815     335.6632      2.024     6.52     998.1269     59.20142     162.5532        17     1.622     0.838 -26.42   0
       400    531.5937    263.2601 307.6976062  +6.5820735      1519.84     3125.672     3042.482     83.52228     167.8483     335.6298      2.098     7.22     983.9225     59.20142     176.9797        20     1.719     0.849 -41.31   0
       401    875.2278    262.4110 307.5548189  +6.5938764     1461.556      2464.65     2946.611     83.79041     167.7815       335.73      1.821     5.48     981.7587     59.20142     192.3182        17     1.589     0.706 -35.74   0
       402    695.3923    260.4633 307.6296257  +6.5886923     3668.828     7052.941     7039.691     83.52229     167.7146     335.6632      2.039     5.70      985.211     59.20142     425.8486        36     1.871     1.123 -33.96   0
       403    635.8490    260.5869 307.6543679  +6.5866561     1652.331      3043.68     3097.511     83.52228     167.9151      335.563      1.939     6.07     984.7263     59.20142      200.932        24     1.700     1.053 -29.17   0
       404    890.9054    253.1311 307.5486152  +6.5982295     843.4453     1397.839     1448.005     84.05769     168.0486      335.897      1.672     4.66     981.0533     59.20142     126.2389         8     1.319     0.468 -28.53   0
       405    194.8856    246.1012 307.8381187  +6.5778973      1588.88     2993.619     3329.295       84.191     168.4486     335.9304      2.190     5.87     994.8182     59.20142     201.7911        22     1.714     0.873 -35.29   0
       406    837.4891    244.7861 307.5710966  +6.5998979     1251.517     2513.688     3088.975     83.92416     167.7815       335.73      2.195     7.11     982.0482     59.20142     158.3854        19     1.835     0.772 -36.44   0
       407    727.9373    244.4578 307.6166389  +6.5963854     1254.505     2389.773     2337.242     84.32411     167.9151      335.897      1.959     6.89     984.8428     59.20142     166.0004        17     1.773     0.760 -34.26   0
       408    754.8077    234.8269 307.6057956  +6.6012571      9451.87     19113.89     21593.02     83.79041     167.7815     335.6632      2.171     6.22      983.988     59.20142     1116.915        52     2.094     1.173 -33.20   0
       409    429.1825    235.3720 307.7411099  +6.5901672     14966.46     31619.14     37516.29     83.79041     167.7815     335.7634      2.352     6.54     984.5475     59.20142     1629.874        83     2.830     1.279 -37.48   0
       410    691.9926    230.7314 307.6320405  +6.6008550     536.2394     738.2423      690.626     83.65645     167.6477     335.7634      1.470     4.75     984.5438     59.20142     87.35059         5     0.925     0.692  20.82   0
       411    117.0837    228.9193 307.8710339  +6.5823837     1631.909     3363.172     3624.291     84.05769     168.2487     335.9304      2.151     7.43     998.0967     59.20142     224.1308        25     1.914     0.977 -26.02   0
       412     91.8220    228.6331 307.8815419  +6.5816548     800.7123     1537.483     1539.109     83.65646     167.7815     335.6298      2.156     4.82     999.6197     59.20142     101.6655         9     0.935     0.705 -65.65   0
       413    890.9444    225.2331 307.5495372  +6.6097498     1109.752     1894.093     1951.821     84.05769     167.9819     335.8636      1.967     6.41     980.2032     59.20142     171.7703        15     1.679     0.688 -35.86   0
       414    273.1553    223.1228 307.8063686  +6.5900057     614.5609     976.8025     676.5923     84.05769     168.0486     335.8636      1.991     4.16     991.0608     59.20142     106.6447         6     1.162     0.425 -61.24   0
       415    552.8803    221.3913 307.6901724  +6.6000713     3180.125     6477.062     6839.767     83.79041     167.5808     335.6966      2.145     5.88     982.6387     59.20142      384.213        33     1.944     1.077 -34.96   0
       416    515.5396    221.4868 307.7056884  +6.5987852     1349.721     2521.601     2375.853     84.32411     168.1154     335.9972      2.003     7.11     982.5359     59.20142     208.4099        19     1.709     0.828 -32.44   0
       417    357.3388    220.7868 307.7714611  +6.5937871     1122.788     2035.081     2126.022     83.65646     167.7815     335.5629      1.927     5.53     987.7201     59.20142     150.6494        14     1.527     0.791 -33.26   0
       418    859.8666    217.9825 307.5626978  +6.6117096      8202.82     15976.83     17494.81     83.65646     167.9151       335.73      2.055     6.04     980.4341     59.20142     1084.988        44     2.015     1.054 -32.33   0
       419    913.5754    218.5200 307.5403569  +6.6132743     2002.915     3732.427     3777.854     83.92416     167.7815     335.8302      1.933     6.20     979.6036     59.20142     286.1302        21     1.760     0.807 -28.14   0
       420    946.4907    215.8334 307.5267666  +6.6154780     7692.492     14046.91     15002.94     84.32411     167.8483     335.8636      1.945     5.95     978.6518     59.20142     1017.613        40     1.987     0.948 -32.95   0
       421    534.7776    217.5631 307.6978252  +6.6010476     728.5839     1181.274     607.9401     83.79041     167.7146     335.6298      1.834     5.71     982.4769     59.20142     87.69379         7     1.030     0.892 -31.43   0
       422    657.9951    215.7091 307.6466767  +6.6059242      2027.95     3966.653     4836.445     83.79041     167.6477     335.5629      2.156     6.13     983.9268     59.20142     238.5692        29     1.928     0.974 -36.79   0
       423    232.6776    215.7610 307.8234401  +6.5916900     876.1909     1612.033     1035.752     84.05769     168.0486     335.8636      2.040     5.69     993.8029     59.20142     119.5762        10     1.454     0.628 -41.43   0
       424    465.6978    211.5801 307.7267376  +6.6012108     1195.333     2155.471     1777.844     84.05769     167.7815     335.5964      1.849     6.68     982.7961     59.20142     191.5182        13     1.631     0.767 -71.12   3
       425    468.3102    210.3505 307.7256934  +6.6018057     921.7997     1295.705     1555.598       84.191     167.7815     335.9972      1.586     4.80     982.6935     59.20142     132.7393         9     1.137     0.576 -60.27   3
       426    798.0368    207.7025 307.5887419  +6.6138962     1395.008     2755.811     2646.003       84.191     167.8483     336.0305      1.968     7.13     981.4671     59.20142     157.1136        20     1.774     0.803 -25.70   0
       427    478.4829    206.6994 307.7215888  +6.6036530     1888.434     3782.014     3784.932       84.191     168.5152     335.9638      2.114     5.48     982.3452     59.20142     253.4507        27     1.757     1.067 -41.35   0
       428    850.8402    206.4798 307.5668364  +6.6161587     1526.171     2938.044     3539.485     84.05769     167.9819     335.8302      2.171     7.57     980.2496     59.20142     211.5327        22     2.211     0.725 -32.64   0
       429    710.0355    203.9572 307.6254437  +6.6125112     28280.02     56486.68     62506.28     83.92416     167.9819     335.6632      2.128     5.68     983.6031     59.20142     3328.997        77     2.146     1.238 -34.40   0
       430    313.0569    203.4323 307.7904517  +6.5994711      4287.55     10495.62     13149.59     84.05769     168.0486     335.8302      2.644     6.98     989.8037     59.20142     498.0741        62     2.467     1.442 -51.13   0
       431    943.8038    202.7272 307.5283240  +6.6208002     2251.094     3935.451     3971.675     83.65646     167.5139     335.6966      1.770     5.22     978.0408     59.20142     300.9952        23     1.750     0.784 -30.38   0
       432    981.8732    201.6148 307.5125384  +6.6225248     1319.326     2487.967     2393.808     83.65646     167.7146     335.7634      1.951     7.18     976.7064     59.20142       195.98        17     1.782     0.809 -26.76   0
       433    877.8928    201.0699 307.5557745  +6.6192925     5791.727     10622.09     11363.95       84.191     168.1154     335.8636      1.938     5.58     979.5167     59.20142     722.1923        35     1.890     0.967 -31.80   0
       434    421.4261    200.0854 307.7455257  +6.6044773     3440.778     7163.238     7997.364     84.32411     167.7146       335.73      2.232     5.70     983.7338     59.20142     435.7573        44     2.037     1.252 -38.17   0
       435     78.8326    191.5570 307.8881971  +6.5965268     3225.667     6745.538     7475.043     83.79041     167.9151     335.6966      2.241     5.98     998.1632     59.20142     424.3524        37     1.959     1.168 -35.63   0
       436    224.5634    189.2971 307.8277082  +6.6023446     4445.595      9103.99     10213.78       84.191     167.8483     336.0305      2.196     5.57     994.1655     59.20142     571.5377        47     2.175     1.176 -33.15   0
       437    897.8434    190.5514 307.5478361  +6.6242992     736.0571     1495.468      1711.39       84.191     167.9151     335.7968      2.021     4.91     978.6747     59.20142     106.4069         8     1.209     0.566 -36.59   0
       438    249.1854    188.1487 307.8175141  +6.6036433     22721.83     48224.49     54772.95     83.52228     167.9819     335.5964      2.236     5.85     993.2166     59.20142     2642.076        72     2.191     1.351 -34.85   0
       439    129.2820    185.0898 307.8674498  +6.6008888     2801.532     5891.753     6497.269     83.92416     168.1821     335.9304      2.331     5.79     995.9182     59.20142     348.5787        41     1.982     1.347 -40.29   0
       440    373.2602    183.6012 307.7661012  +6.6096730     33372.94      69905.1     79068.72     83.52228     167.7815     335.5295      2.231     5.74     986.4954     59.20142     3841.481        80     2.219     1.368 -35.25   0
       441    390.9489    184.0477 307.7587345  +6.6100801     957.4185     1981.661     1886.617     84.32411     167.8483     335.8636      2.114     7.19     985.2007     59.20142     125.5542        15     1.782     0.813 -45.52   0
       442    277.2882    181.3723 307.8060637  +6.6073821     12584.82     26020.66     30142.73     84.32411     167.7146     335.7634      2.240     5.80      992.381     59.20142     1472.296        72     2.400     1.334 -31.83   2
       443    284.3741    181.9811 307.8030981  +6.6073679     1508.833     2669.474     3397.969     83.79041     167.7815     335.7634      2.541     7.53     992.1025     59.20142     203.6573        21     1.968     0.806 -42.53   3
       444    712.5160    179.8157 307.6252261  +6.6225617     23517.02     46443.31     51103.87     83.79041     167.6477     335.7634      2.117     6.05     982.6602     59.20142     2963.484        67     2.110     1.208 -33.81   0
       445    660.9415    181.7055 307.6465984  +6.6200622     655.4146     1138.516     930.1319     84.05769     167.9819     335.9972      1.939     5.10     983.0043     59.20142     98.96405         6     1.149     0.639 -19.86   0
       446    760.8588    180.4000 307.6051135  +6.6239311     885.8881     1799.233     2662.536     83.38789     167.5808     335.4961      2.215     6.17     981.8171     59.20142     150.3418        11     1.704     0.628 -25.93   0
       447     29.3651    177.1213 307.9092450  +6.6008272     6465.491     12952.41     14903.56     84.05769     168.0486      335.897      2.155     5.69     1000.069     59.20142     845.5435        49     2.069     1.236 -36.75   0
       448     63.4047    175.2065 307.8951632  +6.6027600     1065.901     2423.795     2752.458     83.52228     167.6477       335.73      2.294     7.86     998.1573     59.20142     124.3823        18     1.652     1.130 -28.80   0
       449    970.5148    174.6734 307.5181647  +6.6332714        845.3     1362.667     1953.595     84.32411     168.3154      335.897      1.943     4.78     975.6385     59.20142     129.7323         9     1.409     0.459 -32.67   0
       450    971.4948    160.5675 307.5182315  +6.6391282     1735.611     3156.524     3782.497     84.32411     167.8483     335.9638      1.851     5.73     974.8923     59.20142     265.1729        19     1.857     0.670 -32.86   0
       451    554.3651    159.1694 307.6916550  +6.6258115     745.1825     1536.792     2445.311     83.79041     167.7146     335.6298      3.044     4.14     981.4838     59.20142     114.0953         7     1.082     0.731 -16.27   2
       452    563.0786    156.2955 307.6881304  +6.6272889     1535.513     2864.549     3441.509     83.92416     168.2487      335.897      2.154     6.18     981.5898     59.20142      181.962        24     1.726     0.954 -39.83   0
       453    248.1013    154.4301 307.8191060  +6.6175287      20916.1      43672.7     49956.79       84.191     167.7146      335.897      2.258     5.84     993.6604     59.20142     2386.471        75     2.249     1.358 -34.16   0
       454    308.1371    155.9939 307.7941011  +6.6188928      692.151     1368.269      903.845     83.52228     167.7146     335.6298      1.830     4.86     991.5106     59.20142      119.496         7     1.249     0.535 -35.53   0
       455    679.6119    151.0838 307.6398705  +6.6333281     5505.401     11143.87        12722     83.79041     167.7815     335.6966      2.169     5.87     981.9769     59.20142     694.9775        47     2.076     1.156 -33.51   0
       456    157.5924    152.7789 307.8567786  +6.6151782     604.4006     1307.315     1393.077     83.65646     167.7815     335.6632      2.010     3.49     994.8748     59.20142     108.6539         5     1.255     0.281 -35.85   0
       457     90.5619    148.1916 307.8847926  +6.6148247     3636.092     7295.392     7806.511     83.38789     167.7146     335.5964      2.180     5.63     995.5923     59.20142     477.6367        41     2.038     1.175 -37.78   0
       458    429.4765    145.6757 307.7440183  +6.6272113     1001.471     1820.397     1441.463     84.45702     168.2487     335.9638      1.943     7.05     982.3771     59.20142     132.9578        14     1.380     1.010 -47.17   0
       459    361.1950    144.2630 307.7724458  +6.6255115     2549.006     5885.685     6740.186     83.52228     167.7815     335.6298      2.373     6.78     987.7954     59.20142     277.2078        44     2.097     1.446 -27.76   0
       460    325.7989    142.9557 307.7872015  +6.6248671     2287.168     4747.596     5327.909     83.52228     167.6477     335.4292      2.245     6.48     990.4268     59.20142     293.0476        32     2.049     1.016 -29.24   0
       461    536.6560    143.6433 307.6995395  +6.6316308     629.5015     974.1075     1542.474     84.05769     167.9819     335.8636      2.363     4.12     981.2303     59.20142     80.98511         6     0.896     0.541 -45.93   0
       462     78.9912    144.2264 307.8897359  +6.6160737     995.0184     2163.426     2178.742     83.79041     167.7815       335.73      2.361     5.25      996.314     59.20142      133.839        12     1.275     0.880 -44.26   2
       463    972.2986    137.2412 307.5186813  +6.6487862     1141.774     2266.837     1748.475       84.191     167.8483     336.0973      1.950     6.26     974.0445     59.20142     150.3834        14     1.759     0.626 -33.85   0
       464    177.5182    131.9691 307.8492022  +6.6244378     3779.327     7646.135     8299.996     84.05769     167.7815     335.8636      2.166     5.93     994.5739     59.20142     449.8281        41     2.184     1.101 -32.23   0
       465    639.3745    130.7470 307.6572806  +6.6403832      4290.57     8915.327     10069.14     83.65646     168.0486     335.7634      2.211     6.47     981.5495     59.20142      504.296        43     2.083     1.141 -33.93   0
       466     60.3773    131.6777 307.8978976  +6.6206302     1582.086     3205.108     3894.415     83.79041     167.7815     335.7968      2.424     7.13     997.3861     59.20142     199.0781        25     1.847     1.031 -37.17   0
       467    787.0656    130.6128 307.5958973  +6.6453606     832.9445     1490.309      1565.76     83.65645     167.7815     335.7634      1.827     6.65     979.6564     59.20142     130.2015        13     1.913     0.648 -33.33   0
       468    591.4459    128.0347 307.6772934  +6.6399042     6605.929     13654.32     15436.02     83.79041     167.9151       335.73      2.183     5.78     981.4618     59.20142     774.1063        48     2.079     1.196 -35.06   3
       469    594.9681    119.5258 307.6761164  +6.6435349     36965.66     74808.27      84184.4     84.05769     167.9819     335.8302      2.169     5.85     981.3275     59.20142     4155.846        85     2.192     1.302 -34.80   3
       470    528.9178    128.2420 307.7032757  +6.6377314     491.8738     909.0864     612.7342       84.191     167.9819     335.7968      1.684     4.54     981.1292     59.20142     85.36011         5     1.365     0.428   0.68   0
       471   1014.0121    125.4367 307.5017393  +6.6550463     697.0573     1329.748       1973.4     83.65645     167.7815     335.5629      2.367     4.81      972.407     59.20142     113.8848         8     1.182     0.555 -37.03   0
       472    318.5724    123.7320 307.7908553  +6.6325624      2704.39      5857.62     6842.169     83.79041     167.9151     335.7634      2.345     6.25     991.2435     59.20142     298.4794        40     2.071     1.179 -35.07   0
       473    500.3775    123.0523 307.7153134  +6.6389211      1266.21      2479.82     2782.586     83.65645     167.9819     335.6632      2.136     7.50     981.1666     59.20142     155.5026        20     1.778     0.885 -27.11   0
       474    274.2477    113.2726 307.8096319  +6.6353972     2349.725     5144.052     6035.059       84.191     168.0486      335.897      2.279     6.44      993.324     59.20142     316.2405        33     2.050     1.072 -33.55   0
       475    674.3860    108.2520 307.6434864  +6.6508386     681.6137     1142.583     1265.274     83.52228     167.9151     335.5964      1.796     3.79     980.6097     59.20142     114.5615         6     0.953     0.433   2.35   0
       476    644.8217    106.9824 307.6558178  +6.6503770     898.2822     1615.083     1621.217     83.92416     167.7815     335.7968      1.985     5.62     980.8146     59.20142     129.2162        12     1.365     0.720 -24.10   0
       477    659.1075    103.7218 307.6499897  +6.6521997     2246.412     4446.336     4474.836     83.92416     168.1821      335.897      2.056     6.06     980.6115     59.20142     283.6357        27     1.930     0.931 -32.73   0
       478    401.0399     94.7122 307.7575600  +6.6473025     2852.008     6009.288     7037.821       84.191     167.9151      335.897      2.273     6.00     984.6541     59.20142     320.1304        36     1.946     1.134 -32.50   0
       479    873.5403     89.8491 307.5613251  +6.6650700     3060.354     5998.736     6375.859       84.191     167.9819     335.9304      2.089     6.04     974.4998     59.20142     381.7363        34     1.956     1.141 -29.86   0
       480    855.5195     90.8677 307.5687816  +6.6640498     1644.348     3106.433      2908.08     84.32411     168.2487     335.8636      2.064     7.25     975.1406     59.20142      203.074        23     1.694     0.961 -31.27   0
       481    565.5311     88.7865 307.6893891  +6.6552444      1303.16      2731.35     3485.957     83.65646     167.8483       335.73      2.182     7.36     980.6519     59.20142     174.3276        20     1.800     0.930 -42.26   0
       482    364.4005     86.5877 307.7730636  +6.6494317     1365.595      2975.62     3548.692     83.79041     167.6477     335.6632      2.427     6.14     988.9821     59.20142     207.4684        26     1.928     1.141 -40.38   0
       483    112.6041     83.3248 307.8778305  +6.6423457     2265.921     4661.411     5448.198     83.79041     167.4469     335.7634      2.322     6.04     994.4422     59.20142     261.9359        31     1.951     1.055 -35.35   0
       484    261.1658     81.6630 307.8161391  +6.6480101     894.1618      1993.96     2266.291     84.05769     168.0486     335.8636      2.344     5.98     994.0251     59.20142      135.004        13     1.700     0.591 -28.37   0
       485    385.5807     76.7043 307.7645943  +6.6542207     754.7272     1407.333     1767.574     84.05769     167.7815     335.6632      2.091     6.58     986.7914     59.20142     84.43005        10     1.495     0.812 -62.46   0
       486    863.0825     77.1387 307.5660998  +6.6699700     443.5498     918.9388     696.1785     84.32411     167.9819     335.8636      1.537     4.37     974.4061     59.20142     104.3211         7     1.549     0.351 -22.02   0
       487    796.0383     75.7290 307.5940157  +6.6683204     4447.666     8754.565     9787.714     84.05769     167.9819     335.9304      2.123     6.05      976.917     59.20142     550.3196        37     1.947     1.016 -31.42   0
       488    741.0975     76.0916 307.6168408  +6.6663407     2524.256     4851.293     5213.299       84.191     168.5152     335.8302      2.072     5.78     978.1476     59.20142     327.8989        28     1.881     0.952 -30.17   0
       489     34.8117     73.0187 307.9105128  +6.6439909     2201.347     4172.906     4388.691     83.79041     167.6477     335.7634      2.038     6.33      996.922     59.20142     308.8849        29     2.010     0.924 -34.37   0
       490     18.5922     74.1848 307.9172145  +6.6429650     970.2659     2107.197     2376.594     83.79041     167.7146     335.6966      2.409     7.45     997.6642     59.20142     119.3295        14     1.516     1.067   1.29   0
       491    503.1100     74.1582 307.7158288  +6.6591999     697.7826     1305.399     1497.159       84.191     167.9819      335.897      1.721     5.06     981.2405     59.20142     99.88965         8     1.412     0.514 -15.34   0
       492    395.3416     72.7170 307.7606720  +6.6561934     798.2224     1215.217     1825.967     84.32411     167.9819     335.9304      1.841     5.28     985.9796     59.20142     112.3313        10     1.210     0.651  -9.73   0
       493    558.2842     69.5572 307.6930503  +6.6629419     829.3094     1573.439     1797.116       84.191     167.9151     335.8302      2.232     6.53     980.2255     59.20142     120.6541        13     1.765     0.679 -23.95   0
       494    735.8494     63.5413 307.6194451  +6.6713477     1595.729     2949.005     3057.208       84.191     167.9819     335.9304      1.974     6.73     977.9574     59.20142      195.873        21     1.706     0.854 -35.86   0
       495     62.4434     57.2346 307.8995636  +6.6514349      6670.45     14034.65     15460.75     83.92416     167.9819     335.6966      2.199     6.02     995.1588     59.20142      797.041        49     2.076     1.244 -38.02   0
       496    391.1610     57.3016 307.7629308  +6.6624183     1642.882     3144.558     3538.861       84.191     167.8483     336.0973      2.152     6.32     986.7974     59.20142     230.6141        23     1.705     0.984 -32.38   0
       497    605.1469     49.2656 307.6742558  +6.6728840     12872.41     26492.19     29926.07       84.191     167.9151     335.8302      2.185     6.02     979.2941     59.20142     1519.839        60     2.161     1.211 -34.60   0
       498    229.0661     51.3636 307.8305070  +6.6594449     944.7387     1902.552     2783.695     84.05769     167.9819     335.9304      2.257     7.29     995.0247     59.20142     118.7569        16     1.598     0.932 -32.25   0
       499    504.8817     45.4751 307.7160610  +6.6711018     3539.008     7203.273     7610.247     84.45701     168.2487     335.9304      2.165     6.41     981.4305     59.20142     431.7145        36     2.031     1.070 -32.85   0
       500    223.0993     45.8270 307.8331746  +6.6615310     1224.751     2476.836     3475.484       84.191     167.7146     335.7634      2.197     6.10     995.1035     59.20142     166.2788        14     1.569     0.666 -29.34   3
       501    231.1343     41.3523 307.8299864  +6.6636476     6311.816     12992.16     15085.66     84.05769     167.9151      335.897      2.230     5.92     995.1841     59.20142     733.6052        51     2.225     1.158 -36.24   2
       502    591.3180     39.5064 307.6803334  +6.6764520      2163.14     4894.807     6698.886     83.92416     168.2487     335.9638      2.682     6.97     979.1603     59.20142     272.4017        37     1.972     1.602 -30.97   0
       503    410.4911     40.9698 307.7554481  +6.6698077      16008.6     32400.85     36263.03     84.32411     167.7146     335.8302      2.181     5.86      985.726     59.20142     1877.763        67     2.174     1.284 -34.52   0
       504    290.9563     42.3355 307.8050878  +6.6652449     800.5911     1518.218     2206.457       84.191     167.9151     335.8636      2.479     5.90     994.8535     59.20142     93.66827         9     1.215     0.911 -34.58   0
       505    888.0706     41.0675 307.5569264  +6.6856949     1485.733     2639.333     3151.598       84.191     168.1154     335.8302      2.075     6.43     973.1742     59.20142      242.622        18     1.735     0.681 -31.51   0
       506    218.9947     38.0926 307.8351426  +6.6645868     1994.905     4214.011     5005.443     83.79041     167.6477     335.5964      2.124     6.07     995.1743     59.20142     266.3898        30     1.988     1.023 -35.50   0
       507    271.3610     36.9144 307.8134162  +6.6668271     721.1202     1310.174     2373.528       84.191     167.9819     335.8636      2.999     5.32     995.2023     59.20142     87.22546         8     1.282     0.623 -30.85   0
       508    908.0969     31.4996 307.5489236  +6.6903116     878.9214     1348.898      1350.41       84.191     168.5152     335.6966      1.848     5.04     972.7351     59.20142     117.8114         9     1.140     0.631 -32.34   0
       509    660.1006     30.7332 307.6520379  +6.6823688     1325.633     2792.915      3483.68       84.191     168.1154     335.8302      2.275     7.82      977.929     59.20142     159.2998        25     1.991     1.038 -28.87   0
       510    170.8221     27.0761 307.8555389  +6.6675210     588.1489      983.676     1064.471     83.79041     167.7815     335.7968      1.931     4.95     994.6375     59.20142     87.44342         6     1.047     0.662  86.89   0
       511    926.4896   1019.4742 307.5080791  +6.2829893     5954.003     10458.17     11091.06     84.19101     168.2487     313.5508      1.871     5.98     1003.636     59.20142     881.9498        31     1.876     0.843 -32.64  16
       512    210.7224   1019.5839 307.8053656  +6.2590697     1180.411     2087.174     2398.114     83.79041     167.7146       312.44      1.835     5.77     1012.856     59.20142     173.9229        13     1.529     0.614 -28.97  16
       513    491.7414     22.6332 307.7222945  +6.6800939     1736.451      2692.34     2654.311     84.05769     168.0486     335.8302      1.702     4.71     982.3456     59.20142       265.11        16     1.375     0.874 -63.45   3
       514    494.3124     21.0366 307.7212797  +6.6808390     1215.158     1973.063     1678.426       84.191     167.8483     335.8636      1.501     4.99     982.2634     59.20142     207.1154        10     1.267     0.591 -67.40   3
       515    431.2151     20.0379 307.7475413  +6.6791429      1290.05      2706.99     2006.553     83.92416     167.7815     335.5964      2.173     7.63     985.4313     59.20142     163.7441        21     1.894     0.892 -31.40   0
       516    694.8610     19.9269 307.6379529  +6.6879896      1498.57     2756.964     2788.726     84.32411     167.9819      335.897      1.969     6.95      977.162     59.20142     168.3505        22     1.669     0.925 -28.00   0
       517    408.3023   1018.5233 307.7233402  +6.2661146     658.5736     861.3997     562.7417     83.79041     168.2487     323.3764      1.038     2.77     1012.509     59.20142     123.8078         5     0.716     0.457  21.52  17
       518    701.6390   1017.0077 307.6015552  +6.2765260     961.7562     1448.106      1763.48     83.52228     167.7146     333.9884      1.794     5.52     1008.401     59.20142     157.8163        11     1.232     0.699 -33.87  16
       519    332.9454   1014.9159 307.7547604  +6.2650857     1596.133     2672.153     2691.214       84.191     167.9819     336.0305      1.706     5.02     1012.815     59.20142     272.7185        18     1.570     0.770 -43.38  16
       520    685.0541   1018.0643 307.6084082  +6.2755372     2403.709     4306.022     6164.031       84.191     167.9151     327.2377      2.455     8.90     1008.619     59.20142     341.2263        30     2.941     0.752 -27.69  16
       521    265.4091   1003.9532 307.7831810  +6.2673534     12286.48     22593.25     25140.73     83.65645     167.9151     335.4961      1.985     6.37      1012.78     59.20142     1826.293        51     2.169     0.965 -35.05   0
       522    515.1484   1005.2772 307.6794092  +6.2751515     3652.607     6638.072     6759.136       84.191     168.0486     335.8636      1.887     5.99      1012.73     59.20142     579.6564        30     1.904     0.857 -34.54   0
       523    485.1976   1006.4898 307.6918083  +6.2736511     868.5754     1608.196     1873.734     83.52228     167.6477     335.5964      1.924     5.50     1012.827     59.20142     134.6384        11     1.584     0.540 -35.26   0
       524    719.6238   1004.6264 307.5945017  +6.2822372      6815.66     12132.21     13255.56     83.65646     167.8483       335.73      1.898     6.22     1007.909     59.20142     1028.111        34     1.925     0.844 -32.79   0
       525    780.4999   1004.1939 307.5692309  +6.2844427     1044.285     1436.621     1073.578     83.92416     167.5808      335.563      1.663     6.16     1007.744     59.20142     159.6245        16     1.796     0.594 -34.90   0
       526    389.6443   1004.7750 307.7315536  +6.2711678     961.6675     1510.985     1736.042     83.65646     168.0486       335.73      1.788     5.02     1012.583     59.20142     167.8147        10     1.162     0.614 -19.11   0
       527    236.4821   1001.9124 307.7952643  +6.2672281     753.5115     1068.249     1114.671     83.92416     168.1821     335.9304      1.596     4.45     1012.797     59.20142     103.9081         7     1.238     0.455 -21.44   0
       528    880.9530    998.1194 307.5277105  +6.2902929     7853.597     13622.45     13919.49       84.191     167.9819     335.8636      1.824     6.21     1006.093     59.20142     1119.809        36     1.856     0.869 -34.98   0
