#   1 NUMBER                 Running object number                                     
#   2 X_IMAGE                Object position along x                                    [pixel]
#   3 Y_IMAGE                Object position along y                                    [pixel]
#   4 ALPHA_J2000            Right ascension of barycenter (J2000)                      [deg]
#   5 DELTA_J2000            Declination of barycenter (J2000)                          [deg]
#   6 FLUX_APER              Flux vector within fixed circular aperture(s)              [count]
#   9 FLUXERR_APER           RMS error vector for aperture flux(es)                     [count]
#  12 FLUX_RADIUS            Fraction-of-light radii                                    [pixel]
#  13 FWHM_IMAGE             FWHM assuming a gaussian core                              [pixel]
#  14 BACKGROUND             Background at centroid position                            [count]
#  15 THRESHOLD              Detection threshold above background                       [count]
#  16 FLUX_MAX               Peak flux above background                                 [count]
#  17 ISOAREA_IMAGE          Isophotal area above Analysis threshold                    [pixel**2]
#  18 A_IMAGE                Profile RMS along major axis                               [pixel]
#  19 B_IMAGE                Profile RMS along minor axis                               [pixel]
#  20 THETA_IMAGE            Position angle (CCW/x)                                     [deg]
#  21 FLAGS                  Extraction flags                                          
         1    678.1994     22.9657 307.6589519  +6.6987219     15078.27     20990.15     21697.33     79.01543     159.2408     318.5451      1.433     3.41     868.4291     56.18788     2336.744        34     1.445     0.867  60.75   3
         2     61.1377     19.2538 307.9154694  +6.6794978     3716.221     4938.458     5295.541     79.90541     159.3677     318.7354      1.411     3.37     889.6236     56.18788      551.343        22     1.285     0.857  57.60   0
         3    151.8735     16.6484 307.8778578  +6.6836338     5781.367     8255.504     8807.624     79.90541     159.4944     318.7988      1.528     3.53     889.0482     56.18788     826.0977        28     1.398     0.896  63.57   0
         4    779.2266     15.1884 307.6172335  +6.7053184     1475.326     2138.193     2423.322     79.52521     159.2408     318.7037      1.577     3.03     866.2394     56.18788     272.3433        13     1.076     0.752  77.61   0
         5    886.0516     13.1130 307.5729136  +6.7097513     2363.493     3111.384     3393.679     79.90541     159.3043     318.8621      1.347     3.37     866.0204     56.18788     416.0696        13     1.168     0.614  66.39   0
         6    632.0707     12.2897 307.6784782  +6.7015824      1380.12     1682.438     1900.755     79.77888     159.6843     318.7671      1.308     3.57      868.592     56.18788     204.1114        12     1.097     0.726  58.95   0
         7    223.2659     12.8658 307.8483222  +6.6876014     1069.443      1249.32     1076.995     79.90541     159.4311     318.7988      1.339     3.69     888.9321     56.18788     190.6456        10     1.115     0.596  47.72   0
         8    971.4230     10.3995 307.5375294  +6.7137267     928.3383     1301.785     921.8433     79.52521     159.1139     318.5451      1.600     3.20     862.1576     56.18788     191.1349         9     1.095     0.573  57.13   0
         9    838.3746     10.8028 307.5928027  +6.7091095     945.3057     1328.543     1496.051     79.52521     159.1139     318.5768      1.513     3.53     865.5634     56.18788     154.2668         8     0.928     0.602 -81.58   0
        10    738.3961     10.5354 307.6343560  +6.7058715     1649.957     2201.094     2014.944     79.14318     159.1774     318.5451      1.426     3.79     867.8157     56.18788     260.7952        15     1.240     0.767  45.98   0
        11    794.9746      4.1128 307.6110614  +6.7104184     3428.186     4692.432     4772.183     80.03174     157.7109     280.8585      1.399     3.46     864.7658     56.18788     592.4575        16     1.208     0.705  57.97  16
        12    222.4826      2.8974 307.8489842  +6.6916903     993.8483     1180.362     1183.633     79.90541     147.7901      264.482      1.323     3.51     888.8068     56.18788     145.7834        10     0.913     0.817 -82.62  24
        13    102.8537      3.6329 307.8986648  +6.6873540     596.4557     840.0754     707.5884     79.77888     154.7362      274.749      1.332     2.30     889.1602     56.18788     137.4965         5     0.731     0.422  23.02  16
        14    620.8232      1.1921 307.6835250  +6.7057867     1858.094     2288.505     2425.806     67.12511     124.3264      237.387      0.979     2.22     868.3613     56.18788     631.3333        10     1.180     0.384   4.53  24
        15    925.5377    993.5551 307.5236688  +6.3062803      2313.85     3314.115     3244.536     79.77888     159.3677     318.8621      1.579     3.57     897.7095     56.18788      330.693        18     1.396     0.812  63.15   0
        16    529.4484   1023.6672 307.6871146  +6.2805832     564.7106     688.2995     1024.952     69.34595     126.5812     239.7584      1.282     3.89     905.8452     56.18788     142.7463         6     0.987     0.611 -18.80  24
        17    483.0196   1022.6807 307.7064241  +6.2794323     2360.897     2981.481     2972.662     78.88746     140.2853     255.6641      1.415     3.65     905.7549     56.18788     331.5784        16     1.175     0.856  58.49  24
        18     64.4561   1023.8276 307.8801593  +6.2648793     468.8491     539.9187     448.1796     67.12512     124.0824     237.0036      0.955     3.52     908.4062     56.18788     145.3722         5     0.985     0.363  -6.47  24
        19    785.1552    990.2116 307.5820690  +6.3029652     1332.666     1984.222     1613.321     79.39806     159.3043     318.4817      1.591     3.91     901.3275     56.18788     193.2759        13     1.231     0.751  50.59   0
        20    646.1696    989.3525 307.6398051  +6.2986647     5191.274     7288.368     7058.172     79.52521     159.4311      318.672      1.477     3.41     905.1762     56.18788     798.3069        24     1.391     0.848  54.67   0
        21    258.4185    989.5599 307.8007884  +6.2855583     4818.795     6728.686     6803.331     79.52521     159.2408     318.5134      1.493     3.39      909.856     56.18788     676.0366        22     1.314     0.854  65.12   0
        22    995.4496    988.4965 307.4948097  +6.3107048     746.9771     1223.005     1482.073     79.77888     159.3677     318.9255      1.874     6.35     895.1057     56.18788      103.197        10     1.422     0.797  86.48   0
        23    468.3317    987.7645 307.7136960  +6.2933546     1369.286     2050.677     2379.667     79.77888     159.4944     318.8621      1.653     3.68     906.1642     56.18788     191.9093        14     1.237     0.732  67.22   0
        24     27.0288    986.9009 307.8969440  +6.2788626     2430.556     3669.931     3899.976     79.90541     159.1774     318.7671      1.581     3.61     908.2946     56.18788     326.8862        19     1.329     0.865  66.13   0
        25    877.9044    985.8122 307.5437060  +6.3078846     1075.496     1678.476     1444.321     79.65214     159.1774     318.5451      1.696     5.11     899.2127     56.18788     147.0932        12     1.320     0.653  79.30   0
        26    969.4951    983.4937 307.5057538  +6.3119033     663.7748     1054.603     310.5764     79.90541     160.0004     318.7037      1.657     5.45     895.8837     56.18788     78.72034         8     1.448     0.579  73.73   0
        27    294.5711    983.2585 307.7859907  +6.2893760     959.5096     1044.579     587.2336     79.52521     159.4944      318.672      1.425     5.00     909.6445     56.18788     142.0328         9     1.004     0.714  82.37   0
        28   1002.1956    981.7264 307.4922351  +6.3137254     827.6869     1706.792     1917.739     79.52521     158.9869     318.6403      2.149     6.42     894.5204     56.18788     123.7601         9     1.427     0.812  87.55   0
        29    949.7479    983.2307 307.5139619  +6.3113521     691.0296     943.1086     351.0845     79.77888     159.5578     318.7037      1.502     4.71     896.6371     56.18788     115.2545         8     1.248     0.505  31.39   0
        30    570.8653    982.0750 307.6713157  +6.2991445     2005.314     2711.881     2762.917     80.03174     159.4311     318.7354      1.406     3.57     905.8018     56.18788     296.0649        14     1.207     0.722  62.55   0
        31     59.8251    978.8010 307.8836016  +6.2833123     692.7615     1149.225     1227.666     79.52521     159.1139     318.5451      2.287     5.66     908.2446     56.18788     108.2708         9     1.531     0.589  45.63   0
        32    609.8792    978.1091 307.6552503  +6.3020902     1348.708     1709.932     995.0862     79.65215      159.621     318.8304      1.406     4.51     905.6049     56.18788     184.7986        14     1.293     0.712  56.88   0
        33    289.9190    976.1326 307.7881622  +6.2921615     1679.393     2440.456     2754.066     80.03174     159.6843     318.7987      1.382     3.62      909.699     56.18788     281.3872        14     1.267     0.712  80.35   0
        34    558.2806    974.3332 307.6768009  +6.3019186     707.3425      924.883     1086.656     80.03174     159.6843     318.7671      1.509     3.77     905.8122     56.18788     127.3743         5     0.849     0.479  46.18   0
        35    757.2535    972.2637 307.5942556  +6.3094413     963.7684     1428.058     1094.258     79.90541     159.3677     318.7354      1.616     4.14     901.9462     56.18788     166.7147        11     1.265     0.647  63.47   0
        36    894.4439    968.7016 307.5374114  +6.3155021     7717.081     11435.08     12057.15     79.90541     159.3677     318.9888      1.619     3.52       898.25     56.18788      1000.72        35     1.515     1.027  57.64   0
        37    132.3913    969.8766 307.8537754  +6.2894419     614.3768     941.0608     1203.631     79.52521     158.9233     318.5768      1.779     4.47     908.2208     56.18788     129.1304         7     1.110     0.512  62.90   0
        38    103.7983    967.3816 307.8657306  +6.2895087     556.4972     608.1901     503.9629     79.52521     158.9869     318.4817      1.403     3.92     908.1116     56.18788     111.8143         7     1.250     0.617  44.17   0
        39    430.3221    965.7023 307.7302192  +6.3011868     2257.685     3053.814     3082.872     79.52521     159.6843     318.7671      1.501     3.54     906.9575     56.18788     335.2536        19     1.346     0.816  62.11   0
        40    331.9584    964.1847 307.7711103  +6.2985079     10620.22     15023.38     15835.27     79.39806     159.1774     318.5134      1.475     3.38     908.5601     56.18788     1517.541        33     1.390     0.936  63.43   0
        41    252.0149    963.0233 307.8043410  +6.2962986     7891.724     11387.12     12072.11     79.65215     159.2408      318.672      1.504     3.59     909.4712     56.18788     1073.975        30     1.407     0.940  58.22   0
        42    764.5524    957.4492 307.5917216  +6.3158021     766.9778     862.4222     262.6772     79.90541     159.3043     318.7988      1.415     5.28     901.4647     56.18788     114.7261        10     1.139     0.693  64.91   0
        43    580.0930    957.7042 307.6683028  +6.3095158     1407.857     1835.392     1921.638     79.90541     159.9372     318.7037      1.487     4.28     905.5515     56.18788     182.1053        12     1.082     0.745  58.82   0
        44    910.1165    953.6215 307.5314086  +6.3222522     1098.714      1638.24      1586.45     79.65214     159.1139     318.6403      1.592     3.32      897.532     56.18788     197.1846        10     1.098     0.668  51.47   0
        45    142.9140    953.4100 307.8499619  +6.2965946     673.8028     901.3504     457.8154     79.52521     159.1139     318.6086      1.427     3.89     908.1445     56.18788     120.6368         7     1.036     0.515  66.51   0
        46    866.7815    952.5525 307.5494381  +6.3212445     890.3706     1351.593      1025.97     79.39807     159.4311     318.5768      1.589     4.41     898.4135     56.18788     128.4442         7     1.153     0.479  51.52   0
        47    408.6377    952.0177 307.7396828  +6.3061082     723.3126      996.552      963.461     79.52521     159.3043     318.5134      1.434     3.86     907.2985     56.18788     110.2924         6     1.014     0.421  75.47   0
        48    214.2040    952.8644 307.8203819  +6.2992203     646.2173     628.3277     744.4634     79.14317     159.1139     318.5451      1.193     4.60     909.0397     56.18788     109.5864         9     1.065     0.671  16.69   0
        49    977.7171    949.5196 307.5034763  +6.3262050     786.9478     1243.054     1705.542     79.90541     159.6843     318.8304      1.751     4.34     894.1868     56.18788     114.9108         7     0.990     0.543  53.80   0
        50    773.1796    950.1454 307.5883842  +6.3191064     465.7722     358.5891     -299.787     79.39806     159.4311     318.5768      1.276     4.38     901.1049     56.18788     77.96588         5     0.864     0.632  46.77   0
        51    839.2813    947.4763 307.5610268  +6.3224205     787.3976     1029.924     824.7726     80.15788     159.6843     318.8938      1.468     4.64     899.0238     56.18788     109.4893        10     0.996     0.834 -61.12   0
        52    746.6054    946.9489 307.5995255  +6.3195364     1801.848     2592.844     2529.803     79.27072     159.3043     318.4182      1.467     3.53      901.884     56.18788     279.4653        17     1.314     0.783  68.66   0
        53    570.4427    948.0068 307.6726354  +6.3131958     843.5096     1256.388     1136.045     79.39806     159.1774     318.4817      1.635     3.73     905.5782     56.18788     133.7551         8     0.981     0.581  48.06   0
        54    610.6406    943.9501 307.6560810  +6.3162187     901.5694     1195.542     797.8389     80.03174     159.4311     318.7037      1.409     4.19     905.0065     56.18788     137.1418        12     1.246     0.701  68.87   0
        55    977.9352    942.5957 307.5036173  +6.3290709     1354.589     2156.904     2435.286     79.14317     159.1139     318.5451      1.731     4.75     893.9026     56.18788     185.1853        15     1.275     0.829  57.39   0
        56    622.4716    943.3342 307.6511893  +6.3168697     684.3189     937.4892     576.9318     79.90541     159.4944     318.8304      1.404     4.50     904.7927     56.18788     100.1973         7     1.221     0.470  50.87   0
        57    531.6373    942.5953 307.6889296  +6.3141281     1276.629     1817.535     1695.414     79.01543     159.1774     318.5768      1.602     4.84     905.9211     56.18788     169.0926        12     1.217     0.718  70.64   0
        58    665.2068    940.1431 307.6335520  +6.3196196     2871.199     4005.451      3528.56     79.39806     159.3043     318.4817      1.439     3.31       903.97     56.18788      457.319        18     1.293     0.780  67.74   0
        59   1016.0214    939.3948 307.4879098  +6.3316646     567.1245     797.2834     754.7754     79.52521     159.1774     318.5768      1.548     3.63     891.2513     56.18788     118.2855         6     1.056     0.762  82.92   0
        60    955.7399    938.0189 307.5129866  +6.3302189     671.7584     899.9044     1210.549     79.52521     159.3043     318.6086      1.472     3.80     895.1534     56.18788     110.5928         5     0.817     0.508  35.82   0
        61     61.6755    936.0956 307.8842749  +6.3010054     3104.057     4430.126     4674.444     79.52521      159.621     318.8304      1.552     3.62     908.0906     56.18788     442.9265        19     1.315     0.829  71.28   0
        62    825.7116    936.3372 307.5670344  +6.3265655      899.794     1418.321     1507.838     79.77888      159.621     318.7988      1.636     3.04     899.1604     56.18788     143.9728         8     0.955     0.546  65.55   0
        63    205.1136    935.1768 307.8247523  +6.3062167     2494.729     3534.002     3267.227     79.90541     159.2408     318.6403      1.477     3.69      908.653     56.18788     339.3223        18     1.315     0.809  62.15   0
        64     79.0389    935.3899 307.8770897  +6.3018820      2071.18     2838.603     3167.474     79.27072     159.2408     318.4817      1.417     3.95     907.9681     56.18788     320.5409        15     1.272     0.703  70.05   0
        65    943.6434    935.7546 307.5180852  +6.3307496     929.0504      1575.46     1069.554     79.90541     159.4311     318.7037      1.769     5.16     895.9051     56.18788     150.5151        11     1.264     0.691  33.53   0
        66    369.7361    934.1600 307.7564357  +6.3121737     309.3397     313.5716     841.7227     79.90541     159.3677     318.8304      1.717     4.48     907.6639     56.18788      75.5929         5     1.264     0.452  60.67   0
        67   1007.7930    933.2465 307.4915321  +6.3339283     463.7021     622.5753     434.3905     79.39806     159.2408     318.4182      1.662     3.86      891.426     56.18788     71.18079         5     0.935     0.458 -45.93   0
        68    239.2947    932.2358 307.8106597  +6.3085813     842.1327     1234.959     1143.872     80.03174     159.3043     318.8621      1.601     3.59     908.9456     56.18788     141.9532         7     1.026     0.461  59.33   0
        69    659.7729    929.3056 307.6361719  +6.3239119     7942.065      11016.3     11714.97     80.03175     159.1774     318.6086      1.487     3.23     903.8627     56.18788     1245.401        29     1.347     0.948  59.71   0
        70    344.1951    931.2170 307.7671394  +6.3125302     972.7302     1431.352     2029.714     79.52521     159.1139     318.6086      1.742     4.14     908.0134     56.18788      176.997        12     1.302     0.630  74.13   0
        71    797.0910    930.2096 307.5791238  +6.3281376     806.7599     919.0121     939.6351     79.65214     159.1139     318.5134      1.255     3.60     900.0426     56.18788     133.1418         9     1.089     0.610  80.36   0
        72     19.7660    927.6173 307.9019611  +6.3030926     1278.849     1716.762     1742.065     79.52521     159.2408     318.6086      1.463     4.50     908.3727     56.18788     171.2722        10     0.993     0.710  84.56   0
        73    897.4205    925.5874 307.5376187  +6.3334022     2952.771     4028.832     4427.943     79.65215     159.1139      318.672      1.507     3.53     897.1749     56.18788     395.3835        18     1.309     0.788  63.00   0
        74    449.4364    926.6104 307.7235976  +6.3179682     603.6659     991.4821     553.1858     79.39807     159.2408     318.5134      1.600     3.41     906.6564     56.18788     102.6414         5     1.034     0.325  67.57   0
        75     32.7765    925.5569 307.8966290  +6.3043819     1318.366     2024.405     2296.888     79.52521     159.3043     318.6086      1.702     4.47     908.2411     56.18788      186.938        16     1.337     0.808  79.66   0
        76    342.7023    922.3680 307.7680571  +6.3161334     18573.88     25605.76     26164.42     79.90541     159.3043     318.8621      1.485     3.47     907.9752     56.18788     2886.737        35     1.393     0.926  59.15   0
        77     77.3130    923.4960 307.8782077  +6.3067342     1596.032     2118.641     2551.339     79.90541     159.8108     318.7988      1.416     3.51     907.8839     56.18788      259.407        12     1.061     0.727  48.02   0
        78    213.6354    921.8278 307.8216640  +6.3120147     1465.388     2089.183     2239.355     79.52521     159.1774     318.5768      1.676     4.21     908.6658     56.18788       212.81        15     1.335     0.716  61.80   0
        79    392.9513    921.7028 307.7472158  +6.3180968     712.2061     998.0826     1196.591     79.90541     159.3677     318.9255      1.477     4.39     907.3422     56.18788     104.3816         8     1.054     0.726  68.79   0
        80    420.3483    913.1787 307.7361270  +6.3225366     1251.224     1558.244      1401.38     79.39806     159.4311     318.5768      1.332     4.53     906.9321     56.18788     241.0762        11     1.179     0.648  72.00   0
        81    105.9240    912.9547 307.8666844  +6.3120504     1815.724     2721.432     2747.044     79.77888     159.4944     318.7987      1.518     3.91     907.6975     56.18788     291.5296        15     1.321     0.680  66.38   0
        82    501.2241    909.9376 307.7026551  +6.3265905     751.8479     1033.898     849.4759     79.52521     159.4311      318.672      1.415     4.96     905.8854     56.18788     94.16412         9     1.285     0.542  61.85   0
        83    673.8821    909.3618 307.6309826  +6.3326188     943.9614      1456.06     2194.259     79.90541     159.4944     318.7354      1.806     5.04     903.0687     56.18788     148.7925        10     1.324     0.542  61.99   0
        84    887.7136    907.3749 307.5422592  +6.3405970      2197.01     2995.424     3347.793     80.03175     159.2408     318.6086      1.538     4.34     897.1034     56.18788     341.0771        18     1.410     0.851  69.22   0
        85    858.7964    906.8865 307.5542831  +6.3398316     2156.585     3306.611     3401.077     79.39806     159.0504     318.5134      1.625     3.79     897.6654     56.18788     320.1138        20     1.303     0.930  52.91   0
        86    821.8798    906.2888 307.5696322  +6.3388433     3410.635     4720.619     4950.052     79.65215     159.6843     318.8621      1.498     3.60     898.7729     56.18788     502.3861        22     1.327     0.843  57.18   0
        87     89.4386    906.5953 307.8737437  +6.3141203     2882.115     3935.996     4037.851     79.01543     159.1774     318.5134      1.486     3.44     907.6462     56.18788     425.2402        17     1.209     0.851  65.68   0
        88    337.0458    904.3415 307.7710126  +6.3233855     604.3421     899.6884     1194.929     79.90541     159.4311     318.8621      1.606     4.16     908.0126     56.18788     99.93152         7     1.174     0.421  58.50   0
        89    557.8010    897.6624 307.6795755  +6.3335570       378784     520702.5     539693.4     79.27072     159.2408       318.45      1.480     3.63     905.1078     56.18788      60526.6       149     1.550     1.131  62.79   4
        90    645.4827    900.6711 307.6430666  +6.3352551     1380.605     1922.185     1773.841     80.15788     159.7476     318.7988      1.488     3.68     903.4941     56.18788     206.7053        14     1.161     0.806  69.07   0
        91    402.0233    900.2013 307.7441724  +6.3272788     8690.983     11968.47     12071.47     79.52521     159.1139     318.5451      1.452     3.50     906.9725     56.18788      1251.04        28     1.334     0.901  60.10   0
        92    345.2242    898.5756 307.7678110  +6.3260410     14384.43     20003.39     21225.39     79.39807     159.2408      318.672      1.504     3.55     907.7734     56.18788     2010.519        39     1.466     0.939  64.84   0
        93    663.6758    894.9982 307.6357026  +6.3382071     3945.466     5505.481     5320.719     79.27072     158.8597     318.6403      1.434     3.22     902.9274     56.18788     641.6694        22     1.322     0.822  66.98   0
        94    896.1670    893.8463 307.5392020  +6.3464653     5735.351     8412.324     8896.823     79.65214     159.4311     318.7037      1.529     3.46     896.8234     56.18788     813.3399        27     1.382     0.920  60.01   0
        95    735.4838    891.7093 307.6059958  +6.3419706     907.2094     1131.589     1134.484     79.65215     159.7476     318.8938      1.509     4.89     900.9164     56.18788     133.5509         9     1.044     0.650  61.12   0
        96    638.4530    888.9598 307.6463786  +6.3398547     3889.937     5355.972     5258.534     79.77888     159.4311     318.7671      1.485     3.36     903.3834     56.18788     608.6144        20     1.293     0.818  59.30   0
        97    826.8229    887.8845 307.5681963  +6.3466072     1768.489     2625.973      2440.94     79.77888     159.1774      318.672      1.478     4.31     898.3572     56.18788      282.558        17     1.532     0.682  58.74   0
        98    628.8839    888.1281 307.6503800  +6.3398773     1008.263     1737.761     1484.594     80.03174     159.7476     318.7988      1.376     3.79     903.5732     56.18788       171.95         9     1.147     0.524  44.34   0
        99    953.9357    886.9124 307.5154458  +6.3512591     802.2925       1046.1     932.2543     79.90541      159.621     318.7987      1.234     4.68     894.4093     56.18788     125.2437         9     1.206     0.516  57.99   0
       100    631.3893    883.6132 307.6494912  +6.3418253     2493.241     3428.744     3700.635     79.65215     159.1774     318.7354      1.419     3.55     903.4421     56.18788     379.1204        14     1.198     0.694  56.53   0
       101    914.9650    881.7007 307.5318028  +6.3521083     3587.132     5104.376     4925.592     79.90541     159.3043     318.9255      1.515     3.39     896.2719     56.18788     550.2533        22     1.332     0.870  62.14   0
       102    325.1890    882.5005 307.7766711  +6.3320040     1283.363     1716.977      1339.26     79.65215     159.0504     318.5451      1.459     5.63     908.2301     56.18788      155.858        12     1.184     0.753  65.21   0
       103    373.1911    877.4358 307.7569102  +6.3357087     2867.663     3862.552     4241.557     79.39807     159.1774     318.5451      1.458     3.71     907.1024     56.18788     432.6453        18     1.299     0.763  62.89   0
       104    342.2305    870.4244 307.7700017  +6.3375627      491.036     516.5291     461.1003     79.39807     159.3043     318.5768      1.503     4.46     907.6677     56.18788     74.39893         5     1.196     0.472  58.51   0
       105    509.4697    867.4576 307.7006590  +6.3444056     3531.762     4746.127     4462.004     80.03175     159.4311     318.7354      1.443     3.41     905.3543     56.18788     544.4325        19     1.376     0.726  58.87   0
       106    854.1047    866.4608 307.5575853  +6.3563652     1249.925     1438.451     1841.533     79.77888     159.4311     318.8621      1.324     4.01     897.5036     56.18788     182.2244        12     1.226     0.653  55.74   0
       107    574.3224    864.7838 307.6738197  +6.3476856     876.1645     1298.419      1528.14     79.52521     159.1774     318.6403      1.629     4.09     904.2427     56.18788     153.5504        11     1.180     0.641  53.95   0
       108    556.2683    863.4660 307.6813607  +6.3476240     7135.684     9441.457     10175.72     79.90541     159.4944     318.7988      1.401     3.27      904.434     56.18788     1083.325        23     1.280     0.815  63.13   0
       109    563.0956    862.8324 307.6785470  +6.3481146     1431.812     1815.896      2568.46     80.03174     159.3043     318.8621      1.352     4.38     904.3141     56.18788     202.7423        12     1.201     0.689  59.65   0
       110    474.0522    862.5480 307.7155306  +6.3452435      1770.58     2307.399     2047.533     80.15788     159.3043     318.7671      1.367     4.14     905.7662     56.18788     253.3604        12     1.261     0.609  64.68   0
       111    267.9882    863.8186 307.8010511  +6.3377930      791.724     1050.147     739.0174     79.52521     159.1139      318.672      1.394     4.53     909.0776     56.18788      121.754         8     1.041     0.559  62.36   0
       112    891.9392    861.7831 307.5420311  +6.3595618     1506.353     2039.917     1718.966     79.39806     159.3677     318.5768      1.430     4.13     896.5091     56.18788     222.3105        15     1.322     0.732  71.20   0
       113    115.6760    861.4011 307.8643749  +6.3336627     1500.447     2111.477     1717.067     79.14318     158.8597     318.6086      1.482     4.28     907.3209     56.18788     218.3813        14     1.235     0.738  57.32   0
       114    691.7670    860.5869 307.6251927  +6.3533556     860.4956     1135.661     980.0067     79.39807     159.1774      318.672      1.426     4.36     901.1933     56.18788     133.7936         7     0.994     0.545  54.66   0
       115    526.9377    857.3682 307.6937448  +6.3491574     22694.13     30740.43     31674.65     79.65214     159.4944     318.7037      1.434     3.48     904.5792     56.18788     3573.612        40     1.384     0.934  59.51   0
       116    368.5160    859.3080 307.7594615  +6.3430358     758.8202     1247.877     1077.655     79.65215     159.8108     318.8938      1.503     4.01     906.9296     56.18788     142.0483         7     1.148     0.401  73.93   0
       117    940.5455    855.7782 307.5220480  +6.3636660     4166.461     6035.033     5859.273     79.39807     159.4311     318.5768      1.555     3.39     894.6324     56.18788     599.7661        22     1.381     0.853  65.99   0
       118    412.6235    853.2017 307.7413522  +6.3470390      559.145      773.798     583.9202     79.52521     159.1139     318.5451      1.446     5.10     906.2424     56.18788     95.61157         7     1.148     0.642  51.37   0
       119     61.5416    853.8874 307.8871056  +6.3349402     628.8696     1178.027     912.5281     79.90541     159.4944     318.8938      1.740     6.31     907.1941     56.18788     118.9991         8     1.558     0.718  34.15   0
       120    319.5082    846.0322 307.7802579  +6.3468691     3723.466     5388.888     5586.591     80.03174     159.2408     318.7988      1.536     3.34     907.8636     56.18788     586.9549        20     1.338     0.789  63.11   0
       121     37.4215    847.7806 307.8973267  +6.3366481     1628.999     2207.032     1744.381     79.65215     159.3677     318.7037      1.405     3.48     907.1675     56.18788     263.5862        13     1.130     0.716  43.19   0
       122    785.0729    841.9355 307.5870728  +6.3641809     61693.01     85468.48     88615.61     79.90541     159.4311     318.7671      1.454     3.47     898.1633     56.18788     9366.952        62     1.481     1.001  60.03   0
       123    723.6440    843.7205 307.6125216  +6.3613870      690.163     790.6089     289.8529     79.90541     159.4311     318.7671      1.258     3.76     899.8107     56.18788     137.9777         6     1.262     0.321  73.09   0
       124     19.5289    844.1162 307.9048796  +6.3375575       2451.8     3402.517     3244.121     80.15788     159.6843     318.7988      1.410     3.27     907.1498     56.18788     415.7695        18     1.199     0.797  66.24   0
       125    242.2202    839.7108 307.8125629  +6.3468789     5800.631     8528.485     10150.96     79.77888     159.1774     318.6086      1.640     3.57     908.3616     56.18788     800.0355        32     1.488     0.950  61.55   0
       126    428.5369    840.4393 307.7351737  +6.3528427     1050.664     1484.616     1202.714     79.90541     159.3677     318.8304      1.304     3.85     905.8409     56.18788      166.289         8     1.033     0.494  85.84   0
       127    910.3498    837.2443 307.5352075  +6.3703087     9532.227     13639.19     14426.82     80.03174     159.3043     318.7988      1.511     3.53     895.2691     56.18788     1350.374        29     1.422     0.888  61.41   0
       128    713.3744    836.5034 307.6170282  +6.3640227     24430.99     33530.24     35378.46     80.03175     159.1774      318.672      1.515     3.34     899.7607     56.18788      3570.18        47     1.577     0.937  62.21   3
       129    707.0302    833.0178 307.6197795  +6.3652493     99504.05       137196     142614.5     79.52521     159.2408     318.7037      1.447     3.38     899.6945     56.18788     15579.61        76     1.510     0.993  61.82   3
       130    530.1189    838.3047 307.6930645  +6.3571347      376.006     557.5653     974.2592     79.65214     159.6843     318.8621      1.567     4.84     903.3985     56.18788     83.86749         6     1.769     0.375  56.06   0
       131    401.1773    834.1225 307.7467470  +6.3545315     1612.211     2257.725     2136.254     79.52521     159.2408     318.7037      1.433     4.06     906.1674     56.18788     252.6382        14     1.368     0.652  67.79   0
       132    351.9071    833.8367 307.7672154  +6.3529935     23129.42     32284.98     33942.06     80.03174     159.3043     318.8304      1.460     3.44     906.5972     56.18788     3559.878        39     1.417     0.931  60.02   0
       133    640.7538    833.4120 307.6472878  +6.3628655     974.0737     1141.223     1427.959     79.39807     159.2408     318.4817      1.286     2.78     901.0715     56.18788     176.5074         8     0.935     0.555  67.51   0
       134    413.8147    831.6642 307.7415822  +6.3559710     25204.72     34652.48      35849.4     79.39806     159.3043     318.6403      1.475     3.36     906.0414     56.18788     3957.359        44     1.409     0.971  60.70   0
       135    951.0545    830.8465 307.5185184  +6.3743108     2249.478     3471.064     3773.408     79.90541     159.4311     318.7988      1.654     3.77     893.3849     56.18788     292.1327        19     1.300     0.899  46.76   0
       136    241.8252    818.0276 307.8134577  +6.3558176     749178.6      1591956      1741422     79.39806     159.2408     318.6403      2.177     7.66     907.8704     56.18788      63690.3       586     2.559     1.953  77.08   4
       137    907.2308    828.5740 307.5367930  +6.3737842     7342.253     10271.57     10997.35     79.39807     159.2408     318.6086      1.517     3.79     895.1108     56.18788     1016.688        28     1.428     0.866  55.46   0
       138    880.4170    829.5508 307.5478951  +6.3724842     836.1476     1114.384     1029.471     79.39807     159.4944     318.5134      1.543     4.07     895.9451     56.18788     145.0677        10     1.343     0.635  62.24   0
       139    647.8574    827.6619 307.6445311  +6.3654776     7257.453     9786.604     10025.44     80.03174     159.3677     318.7988      1.434     3.43     900.5982     56.18788     1144.844        26     1.359     0.815  60.51   0
       140    388.0192    827.4446 307.7524355  +6.3568463     597.3974     756.5474     1098.098     79.52521     159.3043     318.5768      1.543     4.68     906.1687     56.18788     72.39539         7     0.990     0.628  54.66   0
       141    436.5893    825.6181 307.7323286  +6.3592323      2003.87     2552.283     2308.588     79.52521     159.1139     318.6403      1.410     3.48     905.4255     56.18788     323.0598        15     1.116     0.818  55.69   0
       142    161.8956    824.9432 307.8464136  +6.3502714     789.2049     1300.874     989.4706     79.77888     159.4311     318.9888      1.594     4.81      907.298     56.18788     128.6547        10     1.331     0.638  66.75   0
       143    600.8623    819.8140 307.6643095  +6.3671421     1112.528     1525.252     1411.565     79.39806     159.2408     318.5768      1.341     3.88     901.4046     56.18788     201.4464         9     1.294     0.516  60.68   0
       144    875.6732    819.2863 307.5502088  +6.3765635     778.3646     124.5552     39.13181     80.03175     159.7476     318.7671      1.597     4.42     895.7692     56.18788     137.6526        10     1.394     0.620  58.19   0
       145    682.9938    817.7482 307.6302731  +6.3707482     2733.815     3725.348     3764.872     79.39806     159.2408     318.4182      1.412     3.52     899.2441     56.18788     470.0654        19     1.258     0.766  60.09   0
       146    152.1230    818.5312 307.8506878  +6.3525894     1147.655     1517.334     1654.346     80.03174     159.5578     318.7671      1.462     3.36      907.216     56.18788     203.8365        11     1.122     0.700  50.14   0
       147    127.1026    818.1419 307.8610900  +6.3519072      1036.51     1545.628     1596.918     79.65214     159.3677     318.9255      1.523     5.01     907.1299     56.18788     154.5265        13     1.321     0.700  55.74   0
       148    416.7307    814.3611 307.7409535  +6.3632127     60858.54     84387.02     87251.56     79.77888     159.4311     318.8621      1.497     3.40     905.8698     56.18788     9669.258        62     1.467     1.032  62.30   0
       149    959.6955    816.1414 307.5154222  +6.3806709     789.6987     895.1863     1074.122     79.77888     159.4311     318.8938      1.279     4.56     892.5782     56.18788     153.2615         8     1.241     0.477  66.15   0
       150     68.9840    815.6433 307.8853065  +6.3509800     497.7693     658.1111     521.5955     79.39806     159.3043     318.5451      1.464     4.17      907.026     56.18788     86.46356         5     0.793     0.626  87.52   0
       151    534.4815    813.3796 307.6920905  +6.3675717     8166.375     11327.46     11625.99     79.65215     159.1139     318.7037      1.464     3.42     901.7747     56.18788     1298.198        26     1.373     0.824  60.60   0
       152    451.1793    812.0167 307.7267276  +6.3653378     5083.261     7148.516      7773.55     79.65215     159.2408      318.672      1.503     3.35     904.6954     56.18788      712.446        26     1.395     0.878  58.37   0
       153    779.6403    810.0518 307.5903976  +6.3771628     12812.63     18005.83     18518.42     79.90541     159.4944     318.7671      1.459     3.34     897.2906     56.18788     1999.762        34     1.402     0.917  58.04   0
       154      8.8214    806.2186 307.9106055  +6.3528422     1296.039     1735.906     1521.562     79.65214     159.3677     318.7037      1.376     4.05     906.9818     56.18788     203.4014        13     1.283     0.671  64.74   0
       155    447.8139    805.3240 307.7283502  +6.3679879     2528.806      3516.35     3528.398     79.39806     159.1774     318.5768      1.467     4.04     904.6328     56.18788     389.3296        13     1.245     0.630  57.25   1
       156    137.4278    801.9635 307.8573485  +6.3589343     13042.51     18311.51     19663.33     79.39806     159.1774     318.5768      1.490     3.35     907.0629     56.18788     1864.164        38     1.501     0.957  58.48   0
       157    801.4126    804.2805 307.5815497  +6.3802744     1514.807     2156.801     2547.493     79.52521     159.1139     318.6086      1.487     3.79     896.3708     56.18788     255.1749        13     1.322     0.681  54.01   0
       158    968.7930    803.2128 307.5120768  +6.3863127     661.7733     914.4595     881.5076     79.52521     159.2408      318.672      1.340     3.82     891.9026     56.18788      107.751         6     0.782     0.536 -54.43   0
       159    145.4943    802.1519 307.8539927  +6.3591283     3368.554     4539.779     4881.003     79.77888     159.3043     318.8938      1.460     3.51     907.0827     56.18788     512.6326        17     1.234     0.766  64.86   0
       160    129.5824    799.2659 307.8606972  +6.3597837     3165.095     4635.377     4431.154     79.39807     159.3677     318.6403      1.603     3.77     907.0201     56.18788     447.3906        19     1.314     0.819  59.70   1
       161    974.4008    798.7281 307.5098981  +6.3883517      1690.26     2041.172     2170.511     79.27073     158.9869     318.5768      1.417     3.74     891.5973     56.18788     220.8876        14     1.193     0.743  52.60   0
       162    925.2234    798.6243 307.5303238  +6.3867510     6998.505     9839.771     10645.07     79.39807     159.2408     318.7354      1.499     3.36     893.5933     56.18788     1043.462        28     1.375     0.906  58.71   0
       163    680.5845    796.0168 307.6320029  +6.3796396     2057.892     2849.127     3142.529     79.65214     159.1139     318.7037      1.431     3.34      898.308     56.18788     325.1329        15     1.262     0.665  61.24   0
       164    567.6293    795.6040 307.6789229  +6.3760228      2724.82     3445.651     3637.813     79.39807     159.2408     318.6086      1.355     3.12     900.3523     56.18788      438.037        17     1.185     0.827  56.11   0
       165    415.5519    794.7680 307.7421022  +6.3712623     1273.059     1951.556     2220.365     79.65215     159.4311     318.7037      1.692     4.57     905.5048     56.18788     201.1327        14     1.355     0.711  63.67   0
       166    699.0637    794.1161 307.6243928  +6.3810436     809.6536     1275.853     1621.295     80.03174     159.5578     318.7671      1.589     4.37     898.2508     56.18788     138.4303         8     1.104     0.491  54.62   0
       167    129.6672    792.9557 307.8608749  +6.3623917     2243.904     3202.195     3354.437     79.90541     159.3677     318.7988      1.478     3.68     906.9609     56.18788     350.4323        15     1.231     0.687  56.93   0
       168    919.3243    790.6508 307.5330406  +6.3898458     3247.489     4530.272     4777.901     79.90541     159.4944     318.7671      1.510     3.36     893.5499     56.18788     484.2024        20     1.316     0.818  63.09   0
       169    979.7294    789.8660 307.5079818  +6.3921886     2025.224     2915.249     2885.947     79.90541     159.4944     318.7671      1.524     3.58     891.0855     56.18788     308.7667        14     1.239     0.707  49.64   0
       170    948.9083    790.0345 307.5207756  +6.3910892       3344.2     4678.435     4598.958     80.03174     159.3043     318.7988      1.461     3.42     892.3661     56.18788     519.1671        21     1.300     0.838  53.28   0
       171    671.7924    789.8531 307.6358608  +6.3818898     1739.043     2584.045     3263.983     79.39806     159.2408     318.4817      1.645     4.13     898.2916     56.18788     285.7216        16     1.436     0.730  53.72   0
       172    818.9664    788.0895 307.5748027  +6.3875466      1253.01     1598.734     2329.213     80.03174     159.3043     318.7671      1.398     3.52     895.7149     56.18788     216.8096        10     1.105     0.585  32.80   0
       173    244.3637    785.0545 307.8135149  +6.3695160      2433.49     4312.451     6861.101     79.77888     159.4311     318.7988      3.226     4.13     906.9617     56.18788     347.1891        28     1.571     1.170  71.53   0
       174    894.5405    785.9322 307.5434907  +6.3909654     874.0341     1041.108     1274.256     80.03174     159.3677     318.7671      1.266     4.31     894.1782     56.18788     132.8677         9     1.232     0.532  60.92   0
       175    681.6009    781.6545 307.6320628  +6.3856034     735.2542     1319.554     1782.588     79.27073     159.1139     318.4182      1.792     4.27     898.1177     56.18788     112.0877         9     1.111     0.602  75.33   0
       176    937.2387    780.5080 307.5259406  +6.3946323     1189.255     1359.841     1612.441     80.03175     159.3677     318.8304      1.264     3.47     892.5945     56.18788      190.056        12     1.102     0.710  62.00   0
       177    264.7459    780.8040 307.8051945  +6.3719568     758.8796     1063.173     1425.599     79.27072     159.1774     318.4182      1.558     3.79     906.8771     56.18788     130.2499         6     0.797     0.516  45.82   0
       178    963.8769    777.8824 307.5149660  +6.3966066      2969.46     4335.862     4390.208     80.03174     159.6843     318.8938      1.547     3.76     891.3934     56.18788      420.948        20     1.280     0.930  63.20   0
       179    911.0840    779.2275 307.5368450  +6.3942867     1209.186     1638.382     1495.073     79.90541     159.1774     318.6403      1.431     3.54     893.4427     56.18788     199.0606        11     1.137     0.638  49.18   0
       180    159.9036    779.9974 307.8487568  +6.3687601     981.9792     1016.169     612.2814     79.52521     159.1139       318.45      1.228     4.04     906.8998     56.18788     170.4723         7     0.904     0.516  52.71   0
       181    971.8926    777.6068 307.5116464  +6.3969883     495.6497     564.5989     975.3884     79.52521     159.1139     318.5768      1.212     4.51     891.0638     56.18788     92.73157         5     1.166     0.495  54.69   0
       182    683.2563    777.1153 307.6315276  +6.3875330     1123.384     1516.606      2016.71     79.90541     159.4311     318.8938      1.345     4.03     898.0375     56.18788     153.1594         9     1.013     0.610  59.98   0
       183    474.8874    772.3135 307.7182180  +6.3825258      660.851     1062.772     654.3033     79.65214      159.621     318.8621      1.636     4.54     902.2697     56.18788     92.46008         7     1.111     0.527  67.64   0
       184    404.3357    772.4380 307.7475111  +6.3801045     714.6724      949.309     461.4331     79.90541     159.3677     318.8621      1.619     4.05     904.5705     56.18788     114.5892         6     0.993     0.471  87.94   0
       185   1005.5216    771.3123 307.4978913  +6.4007106     1799.465     2513.231     1970.063     79.65215     159.7476     318.8938      1.489     3.23     889.4604     56.18788     267.3484        16     1.152     0.822  59.35   0
       186    806.8166    769.7818 307.5804618  +6.3946987     1374.324     1809.208     1731.849     79.65214     159.1139     318.7037      1.438     3.60     895.3406     56.18788     203.2938        11     1.160     0.630  62.08   0
       187    631.5121    770.3846 307.6532415  +6.3885775     768.3957     849.0666     879.3466     79.65215     159.1774     318.6403      1.170     4.51     898.8814     56.18788     144.1621         8     1.120     0.517  67.14   0
       188    893.0355    766.7733 307.5447573  +6.3988252     1481.878     1893.139     1982.791     79.39806     159.1139     318.5134      1.496     5.93     893.6394     56.18788     253.3145        14     1.604     0.616  53.19   0
       189    867.8011    762.4739 307.5553808  +6.3997563     1045.326     1393.214     1211.881     79.27073     158.8597     318.6403      1.327     3.61     894.2597     56.18788     184.3119        10     1.145     0.579  74.27   0
       190    850.1556    758.6274 307.5628376  +6.4007541     1751.181     2314.004     2089.149     79.52521     159.4944      318.672      1.377     3.38     894.4549     56.18788     276.8253        14     1.239     0.702  56.65   0
       191    113.2409    756.3085 307.8689324  +6.3769680     1025.682     1961.231     1829.182     79.90541     159.3677     318.8304      1.975     6.41     906.5621     56.18788     141.8361        16     1.629     0.860  78.30   0
       192     49.0319    757.2485 307.8955629  +6.3744154     2653.566     3715.089     4013.354     79.65214     159.4311     318.7037      1.521     3.72     906.5395     56.18788     371.6304        19     1.269     0.838  61.18   0
       193    704.6000    749.4103 307.6235937  +6.3996865     538.1492     609.5134     113.6998     79.52521     159.1139     318.5768      1.507     4.12     896.9799     56.18788     110.0598         5     1.254     0.387  75.41   0
       194    661.8232    745.9377 307.6414747  +6.3996868     7159.895     9719.307     10114.66     79.52521     159.4311      318.672      1.394     3.17     898.0157     56.18788     1133.253        24     1.275     0.857  58.42   0
       195    608.3860    745.1870 307.6636914  +6.3982052     1657.058     2189.464     2113.513     79.77888     159.1139     318.7037      1.421     3.62     898.4634     56.18788     266.5733        16     1.239     0.822  51.42   0
       196    530.3776    745.8135 307.6960655  +6.3953294     744.2908     852.1796     708.4551     79.65215     159.2408      318.672      1.249     4.02     899.3372     56.18788     124.2253         7     0.981     0.472  82.49   0
       197    519.5529    745.9041 307.7005577  +6.3949287      920.745     1199.302     1259.319     79.77888     159.3043     318.9255      1.456     4.48     899.6693     56.18788      138.614         7     1.144     0.499  63.79   0
       198    124.8180    741.7742 307.8646155  +6.3833585     4108.441     5810.623     5713.191     79.52521     159.2408     318.7037      1.469     3.48     906.4489     56.18788     572.0907        23     1.396     0.864  72.54   0
       199    635.6862    741.6437 307.6524731  +6.4005835     2455.311     3458.668      3395.87     79.90541     159.3043     318.7671      1.465     3.67     898.1568     56.18788     369.4354        18     1.302     0.758  63.51   0
       200    998.8213    741.1166 307.5016841  +6.4129537     2923.035     4239.553     4361.926     79.65214     159.1139     318.6403      1.550     3.69      888.876     56.18788     436.1674        21     1.372     0.881  56.00   0
       201    311.6430    741.8076 307.7870340  +6.3896343     837.3824     1191.214      1462.04     79.39806     159.2408     318.4817      1.400     3.22     904.7357     56.18788     155.3297         8     0.924     0.610  66.26   0
       202    246.9234    741.6038 307.8139164  +6.3875409     813.2059     1077.523     1277.919     79.39806     158.9233     318.6086      1.410     3.58     905.4885     56.18788     124.8409         9     0.993     0.812  31.31   0
       203    778.6816    738.0547 307.5932095  +6.4068560     22627.22     30903.02     31901.06     79.90541     159.4311     318.7988      1.424     3.30     894.8652     56.18788     3665.419        44     1.447     0.929  58.81   0
       204    908.7283    737.8109 307.5392101  +6.4113077     4231.314     5876.739     6054.883     79.39806     159.0504     318.6086      1.415     3.33     892.2405     56.18788     686.6851        23     1.388     0.788  62.39   0
       205    460.9478    739.5765 307.7251076  +6.3955735     727.4467     1120.692     858.3977     79.39806     159.4311     318.6403      1.599     4.87     901.4698     56.18788     114.3187        10     1.100     0.783  54.78   0
       206    477.5982    738.0400 307.7182448  +6.3967670         1471     2189.727     2486.381     79.01542     159.1774     318.5134      1.573     4.03     900.7465     56.18788     236.9612        12     1.175     0.730  70.96   0
       207    506.1886    737.8439 307.7063785  +6.3978078      957.765     1398.832     718.3976     79.39806     159.3043     318.4817      1.557     4.64     899.8331     56.18788     162.9371         9     0.965     0.633  58.00   0
       208    323.7936    737.9601 307.7821179  +6.3916314      675.429     760.9249     650.4365     79.14317     159.1139       318.45      1.334     4.66     904.3099     56.18788     118.0264         7     1.139     0.540  68.12   0
       209    280.1909    738.1484 307.8002182  +6.3900869     611.9477     636.0845     520.6248     79.39806     159.3043     318.4817      1.218     3.13     905.1456     56.18788     112.1649         6     0.766     0.543  38.20   0
       210    252.1854    731.6165 307.8120679  +6.3918413     6726.563     9486.399     9759.886     79.65215     159.1139     318.7037      1.517     3.45     905.1169     56.18788     930.4598        30     1.375     0.999  62.19   0
       211     87.8578    733.5034 307.8802424  +6.3855275     539.1564     659.6371     692.4102     79.77888     159.4311     318.9255      1.169     4.16     906.2916     56.18788     77.92853         6     1.051     0.471  58.11   0
       212    659.2458    730.7972 307.6430533  +6.4058514     8035.496     11028.29     11336.44     79.27072     159.1139     318.4182      1.434     3.39     897.6191     56.18788       1208.8        30     1.340     0.899  67.34   0
       213    641.8345    732.0925 307.6502405  +6.4047330     956.0868       1185.8     695.1635     80.03174     159.3043     318.8304      1.368     3.06     897.7712     56.18788     151.9622         8     0.922     0.594  33.10   0
       214    354.4234    731.0202 307.7696320  +6.3955265     855.9964     1228.224     1035.602     79.65214     159.2408     318.7037      1.435     4.51     903.4355     56.18788     154.9923         8     1.200     0.481  66.00   0
       215    919.1057    723.7888 307.5353699  +6.4174439      1465.94     2011.891     1918.289     79.65214     159.1139     318.5451      1.472     3.94     891.4062     56.18788     220.7866        14     1.258     0.731  55.70   0
       216    730.8880    719.2598 307.6136881  +6.4130153     3951.761     5617.262     5865.859     79.90541     159.5578     318.8621      1.508     3.78     895.2991     56.18788     635.1426        23     1.474     0.748  63.99   0
       217    686.1680    719.7675 307.6322430  +6.4113075     1157.483     1577.966     1599.298     79.39806     159.1774     318.4817      1.365     4.20     896.5922     56.18788      168.571        11     1.191     0.587  67.28   0
       218    997.1976    715.8582 307.5032034  +6.4233280     9913.771     14071.16      14474.2     79.27072     159.1774     318.5134      1.469     3.38     888.7388     56.18788     1525.728        31     1.369     0.934  54.25   0
       219    935.6851    716.3480 307.5287335  +6.4210702     2731.223     3537.351     3835.633     79.90541     159.3677     318.8938      1.381     3.46     890.5499     56.18788     420.3491        17     1.210     0.759  58.42   0
       220    738.9767    717.0070 307.6104045  +6.4142163      536.524     905.2463      1081.12     79.39806     159.2408     318.6086      1.455     2.55     895.0637     56.18788     100.8364         5     0.624     0.581  89.82   0
       221     16.1887    715.4672 307.9106120  +6.3905569     2155.027      3441.66     3450.669     79.39807     159.3043     318.6086      1.703     5.58     906.4165     56.18788     306.7054        23     1.779     0.866  39.46   0
       222    549.9642    713.6870 307.6890112  +6.4092505     641.9991     896.3153     936.9824     79.90541     159.3043     318.7671      1.399     4.23     898.0355     56.18788     97.17926         5     0.836     0.610  85.69   0
       223    433.1723    713.9302 307.7375048  +6.4052288     611.0991     767.7853      626.696     79.65214     159.3677     318.7037      1.427     4.84     901.6176     56.18788     102.2784         6     1.008     0.658 -85.74   0
       224    535.8967    711.6989 307.6949201  +6.4095993     2294.716     3047.708     3062.219     79.90541     159.9372     318.6086      1.383     3.30     898.3429     56.18788     377.4724        16     1.274     0.710  67.13   0
       225     74.6079    710.5607 307.8865190  +6.3945526     28657.48     40335.68     41775.43     79.27073     159.1774       318.45      1.536     3.41     905.9586     56.18788     4183.299        54     1.485     1.047  58.07   0
       226    504.8092    708.7773 307.7079285  +6.4097620     1565.967     2230.722     2111.226     79.52521     159.1774     318.6086      1.546     3.70     899.2265     56.18788     222.3932        17     1.260     0.854  46.30   0
       227    925.7114    708.0612 307.5331531  +6.4241582     1196.525     1797.817     2194.623     79.90541     159.5578     318.8304      1.554     3.92     890.5372     56.18788     203.0001        15     1.301     0.857  61.80   0
       228    544.8827    705.3369 307.6914021  +6.4125275     1167.701     1552.316     1578.334     80.03174     159.4311     318.7354      1.414     4.62     897.9319     56.18788      192.811        11     1.233     0.613  57.81   0
       229    720.5912    702.9681 307.6185109  +6.4193967     4161.438      5518.78     5051.037     79.39806     159.2408     318.6086      1.382     3.23     895.1618     56.18788     667.5947        21     1.286     0.818  57.74   0
       230    742.6088    701.2236 307.6094255  +6.4208544     4763.039     6402.814     6758.805     79.52521     159.2408     318.6086      1.387     3.24     894.7064     56.18788     816.0952        20     1.298     0.748  58.25   0
       231    410.2868    699.7204 307.7474869  +6.4103265     1494.096     2346.156     2741.573     79.65215     159.7476     318.8938      1.556     3.92     901.7042     56.18788     258.5402        14     1.386     0.656  53.92   0
       232    574.1572    699.1134 307.6794538  +6.4160791     3809.419     5227.903     5467.219     79.90541     159.3043     318.7671      1.399     3.54     897.2447     56.18788     542.1082        17     1.226     0.743  59.60   0
       233    234.4851    698.4951 307.8205347  +6.4049198     1886.679     2772.165     2876.738     79.90541     159.8108     318.8621      1.606     3.94     904.1511     56.18788     309.3167        17     1.476     0.824  62.41   0
       234   1015.5801    697.4694 307.4961841  +6.4315342      5395.54     7409.996     8058.205     79.52521     159.3043     318.7037      1.483     3.36     888.2725     56.18788     826.8641        23     1.294     0.843  60.21  16
       235    318.4977    698.1846 307.7856568  +6.4078748     1641.639     2073.965     1797.047     79.90541     159.1774     318.5451      1.398     3.67     903.0875     56.18788     234.7216        15     1.188     0.816  60.34   0
       236    980.9302    696.2162 307.5106167  +6.4308941     9170.152     12761.22     13071.55     79.39806     159.3043      318.672      1.448     3.50     888.9473     56.18788       1397.4        29     1.364     0.890  61.00   0
       237    534.7916    696.7751 307.6958806  +6.4157237     689.0171     1106.968     1432.944     79.52521     159.2408     318.6086      1.500     4.26     898.0749     56.18788     105.3893         7     1.129     0.459  61.18   0
       238    700.8721    695.0252 307.6269667  +6.4220154     1081.005      1331.65      1022.94     79.52521     159.3043      318.672      1.220     3.38     895.2472     56.18788      212.374        10     1.167     0.567  58.05   0
       239    426.1815    690.5792 307.7411936  +6.4146346     3247.138     4670.365     5089.982     79.65215     159.3677      318.672      1.550     3.64     901.0269     56.18788     454.1751        20     1.434     0.751  64.61   0
       240     92.5359    692.9327 307.8796693  +6.4024346     878.7415     1014.286     806.5478     79.90541     159.4311     318.8304      1.445     4.86     905.4459     56.18788     144.5597         8     1.184     0.564  46.28   0
       241    139.3356    689.5237 307.8603500  +6.4054192     27276.85     37296.32     38416.54     80.15788     159.4311     318.7354      1.507     3.50     904.9425     56.18788     3926.713        42     1.428     0.957  61.87   0
       242    807.8329    690.2157 307.5827067  +6.4275830      1412.51     1915.061     2021.406     79.52521     159.1774     318.6403      1.409     3.30     893.1669     56.18788     243.9323        12     1.126     0.695  63.47   0
       243    600.7961    684.3985 307.6688851  +6.4230479     515.7217      494.959     243.4242     79.27073     158.9869     318.5134      1.071     4.81     896.1146     56.18788     89.74146         5     1.051     0.624 -65.82   0
       244    359.1043    684.5948 307.7692513  +6.4148509      828.306     1183.797     1477.753     79.65214     159.1139     318.5451      1.575     5.08      901.941     56.18788     108.5709         8     1.145     0.636  66.78   0
       245    975.8824    679.1985 307.5132826  +6.4377516     7772.987     11579.46     12115.49     79.14317     158.9869     318.4817      1.563     3.80     888.7715     56.18788     1166.606        37     1.631     0.980  44.52   0
       246    569.3564    674.4304 307.6822769  +6.4261088     55004.79     74499.77     77102.99     79.52521     159.4311     318.6403      1.470     3.34     896.6386     56.18788     8955.355        61     1.479     0.979  62.97   0
       247     20.4189    678.3972 307.9101077  +6.4060037     1259.947     1802.302     1570.451     79.52521     158.9869     318.5134      1.490     3.88     906.4586     56.18788     206.6768        12     1.145     0.775  80.94   0
       248    933.7404    675.9759 307.5308928  +6.4376737     895.4955       1220.1      1315.37     79.52521     159.4311     318.6086      1.431     4.79     889.0838     56.18788      140.929        11     1.269     0.624  58.59   0
       249    212.7929    675.7355 307.8303103  +6.4135858     717.8597     916.4455     1022.998     79.39806     159.1774     318.5768      1.457     4.25     903.6752     56.18788     107.3414         7     1.146     0.449  58.78   0
       250    528.2926    674.5553 307.6993265  +6.4246792     804.0862     991.9628     651.7581     79.90541     159.3677     318.8938      1.276     3.81     897.8376     56.18788     139.6932         8     1.017     0.738  75.60   0
       251    499.3044    671.0240 307.7114840  +6.4251640     705.6224     1045.262     1291.172     80.03174     159.1774     318.6403      1.710     5.25       898.55     56.18788     135.5366         8     1.344     0.579  55.25   0
       252    176.8291    671.0530 307.8454032  +6.4143079     3072.831     3961.436     3879.034     79.65215     159.5578      318.672      1.398     3.43     903.9152     56.18788     449.2185        17     1.179     0.789  59.41   0
       253    980.1630    670.9664 307.5117802  +6.4412934     621.8946     726.1652     634.1385     79.65215     159.1774     318.5451      1.399     3.78      888.566     56.18788     104.6367         5     0.806     0.510  34.28   0
       254     69.6159    665.3786 307.8901176  +6.4130375     1477.846     2056.946      2161.67     79.52521     159.1774     318.7037      1.601     3.91     905.3027     56.18788     247.3048        14     1.303     0.668  62.25   0
       255    131.9983    664.9908 307.8642249  +6.4153003     410.4711     597.8973    -26.84604     79.27072     159.1139     318.5451      1.430     4.99     904.3258     56.18788     79.87543         6     1.346     0.522  75.71   0
       256    466.6145    658.1699 307.7254924  +6.4293733     70038.82     96250.34     99430.52     79.52521     159.1774     318.7037      1.451     3.23     898.8867     56.18788     11274.87        66     1.460     1.019  60.40   0
       257     10.1820    659.6210 307.9149932  +6.4134100      1844.88     2572.614     2747.318     79.65215     159.3677      318.672      1.448     3.95     906.4365     56.18788     256.6538        15     1.288     0.724  59.88   0
       258    652.2092    655.2770 307.6485109  +6.4367951     977.1968     1045.825     855.8368     79.52521     158.9233     318.5768      1.326     4.78     894.5078     56.18788     202.8248        11     1.178     0.690  68.99   0
       259    141.0242    653.3080 307.8608709  +6.4204277     1832.646     2590.776     2554.812     80.03174     159.2408     318.6086      1.531     3.78     903.9701     56.18788     263.4916        16     1.227     0.887  74.30   0
       260    420.2568    651.0392 307.7449847  +6.4307599     1010.797     1429.779      1337.15     79.90541     159.4944     318.7354      1.464     4.28     899.7218     56.18788     144.9706        10     1.118     0.597  67.79   0
       261    936.0410    650.9238 307.5307760  +6.4480938      732.389     1054.515     950.5934     79.77888     159.4311     318.7988      1.475     5.24     888.6992     56.18788     110.5269         8     1.102     0.703  49.49   0
       262    612.5191    649.7427 307.6651805  +6.4377492     1126.503      1610.85     1643.561     80.03174     159.4311     318.7671      1.538     4.64     895.0009     56.18788     181.7123        11     1.307     0.569  52.28   0
       263    494.8193    649.3919 307.7140741  +6.4339444     504.6164     672.8184      1219.06     79.52521     159.1774     318.6086      1.580     3.59     897.8323     56.18788      92.9668         5     0.987     0.377  85.10   0
       264     13.1424    649.0936 307.9141195  +6.4178560     795.2946     1084.628     1163.281     79.77888     159.4311     318.9255      1.642     3.97     906.1784     56.18788     113.4259         8     1.039     0.640  64.99   0
       265    321.3734    649.1374 307.7861147  +6.4282209     524.8563     753.7067     906.4134     79.52521     159.3677     318.7037      1.703     3.55     901.1339     56.18788     94.95264         5     0.792     0.459  76.33   0
       266    312.1841    647.5792 307.7899835  +6.4285551       2397.1     3414.869      3499.41     79.65215     159.1774      318.672      1.554     3.75     901.2053     56.18788     318.2804        20     1.335     0.828  72.37   0
       267     19.5635    647.5647 307.9115046  +6.4187038     562.7709      729.015     535.7328     79.65215     159.2408     318.5134      1.312     3.99     906.0072     56.18788     112.2646         6     1.453     0.313  52.73   0
       268    464.1352    645.8766 307.7269355  +6.4343654     1001.068     1300.591     1951.226     80.03174     159.4311     318.7671      1.566     5.60      898.501     56.18788     161.8618        10     1.242     0.791  64.33   0
       269    738.7313    641.7529 307.6130308  +6.4452780     5972.337     8060.322      8037.68     79.90541     159.3677     318.7354      1.437     3.38     893.5767     56.18788     963.0056        24     1.348     0.800  59.27   0
       270    792.1906    637.0286 307.5909863  +6.4490186      15638.8     21091.16     21736.96     79.52521     159.2408     318.6086      1.394     3.36     892.3762     56.18788      2390.16        34     1.388     0.872  58.23   0
       271   1009.7887    637.8644 307.5005835  +6.4559500     1136.629     1479.025     1513.232     79.39806     159.2408     318.6086      1.475     4.88     886.3091     56.18788     190.0878        10     1.175     0.604  51.83   0
       272    534.6863    636.5422 307.6979489  +6.4405879     1279.825     2094.246       2698.5     79.90541     159.4311     318.9255      2.056     7.14     896.3079     56.18788      199.362        16     1.849     0.772 -89.31   0
       273    616.2191    635.1872 307.6641328  +6.4438827     3371.803     4550.891     4437.613     79.65214     159.1774      318.672      1.378     3.46     894.7061     56.18788     485.3113        18     1.297     0.756  59.44   0
       274     36.9369    636.1370 307.9046759  +6.4240077     645.3279     834.8562     313.4566     79.90541     159.4311     318.7988      1.464     4.23     905.3948     56.18788     101.0879         6     1.127     0.452  70.23   0
       275    933.3458    631.7840 307.5325362  +6.4559060     1312.184     2068.303     2198.224     79.27073     159.4311     318.4817      1.560     3.29     888.5807     56.18788     219.5505        12     1.099     0.764  76.84   0
       276     28.8936    630.9827 307.9081902  +6.4258643     445.7272     529.7463     336.7121     79.77888     159.2408     318.6403      1.235     3.86     905.4827     56.18788      87.1051         5     0.838     0.509  29.82   0
       277    374.7886    628.8245 307.7646155  +6.4384033     1172.755     1673.591     1871.481     79.52521     159.2408     318.7037      1.513     3.80     899.6067     56.18788     168.3127        12     1.207     0.673  60.97   0
       278    228.6403    628.5663 307.8253195  +6.4335932     1464.638     2144.199     2525.761     79.65215     159.3043     318.5768      1.658     4.05     902.5276     56.18788      195.437        13     1.149     0.738  53.39   0
       279    868.3206    620.2296 307.5599303  +6.4585020     3108.313     4313.699     4999.246     79.77888     159.4311     318.7354      1.427     3.33     889.5005     56.18788     519.6231        17     1.225     0.755  62.75   0
       280    163.3060    620.1573 307.8527361  +6.4348646     729.4033     971.1065     599.8501     79.90541     159.3677     318.8938      1.386     3.92     903.1315     56.18788     133.7916         6     0.774     0.569  49.49   0
       281    827.0147    617.8573 307.5771656  +6.4580994     2827.447     3740.059     4224.354     79.27072     159.3677     318.4182      1.380     3.33     890.8777     56.18788      448.454        20     1.238     0.835  47.78   0
       282    807.6170    608.9188 307.5855217  +6.4611406     178519.1     242850.9     251988.3     79.52521     159.1139     318.6403      1.433     3.25     891.3995     56.18788     27748.42       107     1.533     1.072  64.18   0
       283    741.0883    614.6606 307.6129607  +6.4565424      610.887     1205.472     2459.091     79.90541     159.5578     318.7988      3.123     3.83      892.913     56.18788     130.7549         6     1.541     0.273  53.27   0
       284    255.0409    612.6198 307.8148930  +6.4410655     8575.256     11972.74     12067.36     79.52521     159.2408     318.5134      1.477     3.66     901.1606     56.18788     1197.551        31     1.416     0.922  62.99   0
       285    859.1698    611.3783 307.5640276  +6.4618503     619.6525     1132.897     1631.076     79.39806     159.2408     318.6403      2.838     5.59      889.418     56.18788     122.0994        10     1.585     0.556  53.50   0
       286    189.2141    607.1357 307.8424158  +6.4411133      64125.8     91191.97     95628.66     79.39806     159.3043     318.6403      1.499     3.43     902.6091     56.18788     9004.697        69     1.502     1.081  61.31   0
       287    798.0081    613.8467 307.5893474  +6.4587844     2987.817     4017.484     4597.302     79.39806     159.3043     318.4182      1.400     3.32     891.8289     56.18788      481.806        17     1.216     0.771  60.17   0
       288    113.2485    603.3449 307.8740921  +6.4401188     6793.388     9868.684      10158.5     79.90541     159.4311     318.8621      1.532     3.69     903.1465     56.18788     977.1436        32     1.395     0.976  57.92   0
       289    978.5289    600.8143 307.5148067  +6.4702026     1523.735     2181.471     2263.397     79.39807     159.3043      318.672      1.399     2.98     885.8608     56.18788     254.9083        13     1.097     0.703  62.84   0
       290    999.5397    599.5827 307.5061212  +6.4714130      839.522     1289.151     1393.979     79.52521     159.3677     318.5134      1.346     4.45     884.8461     56.18788     133.8514        10     1.251     0.526  48.31   0
       291    227.7948    598.9669 307.8266687  +6.4457849     757.8338     997.1609     800.5551     79.27072     159.3043     318.5451      1.307     3.02     901.6777     56.18788     169.0695         8     1.013     0.621  38.54   0
       292    844.2338    596.2435 307.5707382  +6.4675993      5100.13     7069.987      7492.94     79.65215     159.4311     318.5768      1.438     3.28     889.4983     56.18788     804.1963        22     1.304     0.816  54.39   0
       293    452.9333    594.7615 307.7333074  +6.4550924     919.3988     1364.827     1547.571     79.77888     159.3677     318.8621      1.462     3.94     897.0434     56.18788     167.0588        10     1.100     0.724  75.88   0
       294    362.5863    594.2480 307.7708474  +6.4522681     19091.57     26568.72     27710.62     79.27073     159.3677     318.4817      1.495     3.35     898.6591     56.18788     2917.272        38     1.409     0.957  60.14   0
       295    164.4431    593.3013 307.8531700  +6.4459904     2237.514      3063.97     3549.548     79.90541     159.3043     318.9888      1.556     3.51     902.7268     56.18788     301.2963        16     1.176     0.828  64.05   0
       296    798.0501    589.5245 307.5901455  +6.4688277     6694.999       8824.3     8756.379     79.90541     159.4944     318.7671      1.414     3.88     890.9727     56.18788     988.3019        30     1.367     0.921  56.33   0
       297    528.9641    589.2134 307.7019166  +6.4599360     7312.174     10254.09     10257.49     79.39806     159.2408     318.4817      1.467     3.41     895.1923     56.18788     1090.075        27     1.379     0.855  58.62   0
       298    239.6162    590.9005 307.8220312  +6.4495131     1030.574     1307.372     1725.209     79.90541     159.1774     318.5768      1.442     4.85     900.8784     56.18788       160.29         9     1.034     0.667  43.10   0
       299    169.8042    590.1448 307.8510500  +6.4474742     819.8677     1492.152     2579.784     79.27072     159.2408     318.4817      2.043     5.06     902.5571     56.18788      137.298         9     1.285     0.564  56.76   0
       300    101.8227    590.2593 307.8792789  +6.4451361     907.0258     1343.141     807.5632     79.52521     159.3677     318.6403      1.391     3.98     903.0078     56.18788     154.9074         9     0.930     0.650  65.96   0
       301    387.2716    585.8796 307.7608769  +6.4565529     1454.664     2049.272     1767.365     80.15788     159.6843     318.7354      1.417     3.88     898.1191     56.18788     206.8423        14     1.200     0.737  54.54   0
       302    175.9542    582.3129 307.8487601  +6.4509147     7381.943      10676.6     11995.46     79.90541     159.3043     318.7671      1.560     3.65     902.2662     56.18788     1038.394        31     1.433     0.952  67.06   0
       303    857.1161    582.4112 307.5658512  +6.4737412     789.0739     922.1134     1347.124     79.52521     159.1774     318.6086      1.356     4.69      888.536     56.18788      111.802         9     1.111     0.561  65.30   0
       304    814.5933    581.8478 307.5835318  +6.4725508     1643.894      2135.37     2803.943     79.39806     159.2408     318.3865      1.250     3.36     890.0848     56.18788     248.6594        12     1.178     0.619  57.51   0
       305    573.7130    582.2053 307.6835666  +6.4643311     2636.039     3932.821     3899.113     79.39806     159.1139     318.5134      1.605     3.73     894.3461     56.18788     353.3429        20     1.269     1.001  39.54   0
       306    271.2052    578.7667 307.8093209  +6.4555858     95509.45     134719.1     139148.8     79.27072     159.2408     318.5451      1.505     3.39       899.48     56.18788     13038.68        75     1.491     1.066  60.09   0
       307     47.5656    580.9871 307.9021249  +6.4471345     5480.215     7895.889     8151.503     79.39806     159.1774     318.6403      1.492     3.42     903.9258     56.18788     774.3221        23     1.347     0.866  53.33   0
       308    560.7922    576.4788 307.6891254  +6.4662619     1110.236     1494.324     1691.478     79.52521     158.9233     318.5768      1.353     4.29     894.4578     56.18788     164.6427         9     1.092     0.559  62.03   0
       309    497.9972    569.6553 307.7154357  +6.4669712     44612.98     67592.08     71132.93     79.27072     159.2408       318.45      1.614     3.70     895.5182     56.18788     6025.895        68     1.592     1.196  49.66   0
       310    255.0498    573.7391 307.8162000  +6.4571177      1791.68     2357.546      2566.73     79.90541     159.3677     318.8304      1.454     4.85     899.7485     56.18788     242.5228        12     1.150     0.671  57.38   0
       311    970.6975    572.5455 307.5190056  +6.4816122     1798.498     2173.919     1909.933     79.77888     159.4311     318.9888      1.345     3.81     885.4075     56.18788     292.7075        13     1.155     0.693  57.26   0
       312    794.3621    571.2510 307.5922900  +6.4762487     18125.09     24756.05     25701.14     79.65215     159.3677     318.7354      1.425     3.28     890.2728     56.18788      3163.84        37     1.399     0.901  59.41   0
       313    648.3903    567.9855 307.6530281  +6.4727065     1153.077      1514.61     1269.885     79.65214     159.1774     318.7037      1.291     3.52     893.0042     56.18788     183.4221         9     0.968     0.624  43.37   0
       314    210.5343    565.9679 307.8349499  +6.4588274     2050.299     3281.158      4034.39     79.77888     159.4944     318.7037      1.751     3.80     900.6438     56.18788     316.4983        20     1.249     1.106 -88.39   0
       315     46.0163    566.1732 307.9032687  +6.4531981      1440.47     2059.181     1418.114     79.52521     159.2408      318.672      1.423     4.01     903.6158     56.18788     202.2846        12     1.141     0.680  67.49   0
       316    668.0515    564.7314 307.6449712  +6.4747091     1493.806     2138.905     2651.249     79.77888     159.3043     318.7037      1.429     3.64     892.6666     56.18788     233.3187        12     1.194     0.633  59.10   0
       317    657.9116    564.7329 307.6491827  +6.4743686     3449.953     4615.173     5116.538     80.03174      159.621     318.7354      1.444     3.32     892.8069     56.18788     517.6455        18     1.195     0.841  64.98   0
       318     96.5398    565.9564 307.8822934  +6.4549913     646.6499     1063.032     972.6757     79.77888     159.4311     318.8938      1.786     4.56     902.6544     56.18788     108.3914         7     1.147     0.516  62.71   0
       319    720.1836    563.7952 307.6233498  +6.4768427     1458.516     2333.043     2806.802     79.52521     159.1139     318.6086      1.603     3.52     891.3311     56.18788     249.2062        15     1.251     0.741  54.55   0
       320    395.6409    560.4279 307.7582578  +6.4673422     1883.084      2661.83      2573.56     79.52521     159.2408     318.6086      1.516     4.03     897.3452     56.18788     280.3734        17     1.313     0.796  55.67   0
       321     76.9272    562.1168 307.8905683  +6.4559152      666.829     1117.312      1168.57     80.15788     159.7476     318.7987      2.033     4.48     902.9566     56.18788     99.26501         8     0.876     0.651  46.74   0
       322    327.1224    558.5896 307.7867773  +6.4657973     4174.345     6014.595     6409.113     79.52521     159.0504     318.6086      1.517     3.60     898.2378     56.18788      600.087        23     1.394     0.827  59.97   0
       323    507.2145    557.8437 307.7120046  +6.4721572     2253.409      3140.93     3127.785     79.27072     159.2408     318.5134      1.418     3.76     895.1458     56.18788     322.5074        16     1.296     0.719  65.87   0
       324    142.2971    557.0959 307.8635891  +6.4601915     28802.55     40118.97     40750.36     79.90541     160.0004     318.6086      1.471     3.40     902.4473     56.18788     4079.364        44     1.438     0.956  60.81   0
       325    870.3188    557.2377 307.5612110  +6.4845762     1758.427     2160.818     2511.658     79.90541     159.4944     318.7037      1.324     3.27     887.3647     56.18788     307.8999        12     1.149     0.627  57.45   0
       326    107.3724    555.3955 307.8781511  +6.4597165     2999.838     4150.247     4307.137     79.39807     159.2408     318.6086      1.469     3.50     902.4695     56.18788     446.0947        19     1.304     0.829  59.88   0
       327    344.5501    553.6606 307.7797052  +6.4684183     1065.595      1528.32     1624.226     79.90541     159.3677     318.8304      1.454     3.73     897.9763     56.18788      154.162        11     1.080     0.712  63.63   0
       328    967.8719    551.8348 307.5208725  +6.4900686      5347.97     7390.943     7500.657     79.77888     159.3677     318.7671      1.442     3.61     884.8846     56.18788     838.9467        25     1.420     0.817  59.96   0
       329    541.1577    544.2258 307.6983645  +6.4789189     1603.354     2314.902     2457.918     79.52521     159.3677     318.6086      1.571     3.52     894.3641     56.18788      251.133        15     1.237     0.740  62.62   0
       330      6.6035    541.4349 307.9204729  +6.4620815     28115.03     39581.22     40861.64     79.01543     159.3043     307.8358      1.501     3.34     903.6496     56.18788     4168.756        46     1.447     0.996  62.96  16
       331    647.3602    538.0463 307.6544613  +6.4850328     13351.64     18152.59     18503.78     79.77888     159.4311     318.6086      1.429     3.32     892.2219     56.18788     2078.147        30     1.365     0.864  61.83   0
       332    439.3219    538.3119 307.7408600  +6.4779408     47343.03     65823.55     67502.67     79.77888     159.6843     318.8938      1.491     3.33     895.7975     56.18788     7208.552        51     1.437     0.993  60.00   0
       333    287.2499    538.6385 307.8040097  +6.4726927     1096.907     1485.578     1704.074     79.65215     159.4311     318.7354      1.345     3.85     898.0076     56.18788     168.3839        10     1.030     0.716  88.95   0
       334    204.4703    535.8411 307.8384846  +6.4710610     20836.18     30757.68     32045.78     79.77888     159.4311     318.8304      1.582     3.67     899.8334     56.18788     2982.398        45     1.544     1.003  53.16   0
       335    170.1851    536.8328 307.8526905  +6.4694968     1915.785     2303.261     1854.543     79.52521     159.1774      318.672      1.348     3.64     901.4618     56.18788     281.7836        12     1.126     0.651  58.65   0
       336    981.3446    536.3978 307.5157932  +6.4968923     1294.099     1826.475     2332.324     79.27073     159.1774       318.45      1.503     3.26     883.9928     56.18788     219.2567        12     1.139     0.730  71.16   0
       337    910.1016    535.9132 307.5454013  +6.4947109     863.9075     1250.346     1295.086     79.90541      159.874     318.8304      1.521     4.19     886.0394     56.18788     134.0327        10     1.164     0.580  63.71   0
       338    821.4126    536.1852 307.5822302  +6.4916317     1155.996      1538.42       1675.4     79.77888     159.1139     318.7037      1.324     4.13     888.2347     56.18788     182.5159        10     1.159     0.577  56.82   0
       339    569.1501    534.7555 307.6870564  +6.4837682     3058.019     4127.613     3967.768     79.90541     159.3043     318.7988      1.395     3.28     893.2362     56.18788     486.6727        19     1.235     0.806  55.93   0
       340    943.0870    532.0073 307.5318311  +6.4974264     5466.425     7469.762      7551.35     79.39806     159.1139     318.5134      1.402     3.24      885.104     56.18788     923.1492        23     1.329     0.776  55.89   0
       341    616.0914    530.3126 307.6677086  +6.4871772     7184.282     9841.679     10287.43     79.77888      159.874     318.8938      1.477     3.65      892.171     56.18788     1075.892        25     1.321     0.856  60.07   0
       342    103.7151    531.0044 307.8804935  +6.4696630      1332.14     1642.389     1589.915     79.39806     159.0504     318.4182      1.367     3.19     902.1677     56.18788     209.0511        11     0.973     0.761  60.10   0
       343    215.9991    530.5739 307.8338740  +6.4736238     546.5934     605.2661      221.394     79.52521     159.1139     318.5451      1.270     3.72     899.1429     56.18788     98.80835         5     0.965     0.527  75.52   0
       344    515.0463    530.0163 307.7096875  +6.4839089     516.4587     1156.168     1375.771     79.39806     159.3043     318.5451      2.247     6.33     893.6268     56.18788     105.2509         8     1.896     0.594   8.26   0
       345    965.5620    524.1368 307.5227592  +6.5014271     3785.288     5166.878     5430.419     79.90541     159.3677     318.7988      1.403     3.60     884.1293     56.18788     675.2897        20     1.331     0.783  63.20   0
       346    528.3713    521.6135 307.7044356  +6.4878254     8150.641     11022.19     11622.88     79.52521     159.1774      318.672      1.475     3.45     892.8768     56.18788     1186.657        28     1.344     0.899  66.39   0
       347    404.4748    523.4586 307.7558334  +6.4829020     794.9318     1010.377      1451.74     80.03175     159.4311     318.7354      1.333     3.18     896.0036     56.18788     149.0325         8     1.052     0.507  52.05   0
       348    374.4196    521.8846 307.7683695  +6.4825415     2871.031     3877.883     4016.247     79.52521     159.1139     318.7037      1.397     3.44     896.2923     56.18788     454.4611        17     1.236     0.763  58.89   0
       349    884.7903    517.5526 307.5565298  +6.5014450     3666.039     4959.619     5733.472     79.39807     159.3043     318.4182      1.449     3.51      886.195     56.18788     610.3762        19     1.331     0.755  64.32   0
       350    537.9222    518.3051 307.7005798  +6.4895119     771.9537     1180.323     1405.411     79.65214      159.621     318.7988      1.339     4.16     892.4902     56.18788     147.3105         7     1.113     0.443  56.69   0
       351    232.9100    516.8808 307.8273122  +6.4798464     564.0373      785.546     522.4563     79.65215      159.621     318.8621      1.337     3.70     898.2433     56.18788      96.7525         5     1.030     0.381  56.56   0
       352    892.2401    511.8250 307.5536273  +6.5040589     2416.103     3467.173     3767.635     79.52521     159.2408     318.5451      1.460     4.02     885.9136     56.18788     421.0831        16     1.306     0.681  52.64   0
       353    931.6608    511.1982 307.5372740  +6.5056359     1497.758     2029.867     1685.045     79.27072     159.2408     318.4817      1.480     3.81     884.8948     56.18788     244.8396        14     1.224     0.726  59.76   0
       354    110.9405    510.8503 307.8781731  +6.4782271     1026.727     1302.529     1717.667     79.90541     159.4311     318.7671      1.541     4.02     901.7735     56.18788     155.6498        10     0.940     0.761  76.06   0
       355    269.8802    509.8792 307.8121932  +6.4839815     650.2648     753.5234     664.4352     80.15788     159.6843     318.9255      1.335     3.91      897.093     56.18788     92.97174         6     0.746     0.587  50.64   0
       356    716.2130    507.9055 307.6268747  +6.4997846     3260.735     4456.281     4624.616     79.65214     159.1774     318.6086      1.427     3.39     889.7875     56.18788     475.7465        15     1.194     0.691  57.02   0
       357     78.0566    506.7567 307.8919689  +6.4788084     2176.731     3181.993     3414.253     79.77888     159.4311     318.7988      1.517     3.54     902.2744     56.18788     350.0923        15     1.270     0.702  71.05   0
       358    427.3787    506.3230 307.7468971  +6.4907463     1272.371      1796.63     1521.702     79.52521     159.2408     318.7037      1.484     3.76     894.7482     56.18788     189.0431        14     1.213     0.789  62.86   0
       359    614.8143    502.5462 307.6691719  +6.4985981     11194.67     15552.16     16362.96     79.27072     159.3677     318.5134      1.471     3.55     890.6899     56.18788     1761.923        36     1.450     0.942  59.12   0
       360    297.2561    499.5619 307.8011707  +6.4891623     2896.661     4203.474     4028.816     79.90541     159.4944     318.7671      1.504     3.60     896.0256     56.18788     442.8536        20     1.432     0.856  73.04   0
       361    777.5440    499.1898 307.6016922  +6.5054372     18223.83     24551.09     25178.72     79.27072     159.3677       318.45      1.388     3.25     888.2393     56.18788     3173.171        34     1.371     0.865  61.66   0
       362    387.0310    505.9608 307.7636676  +6.4895397      3916.93     5627.795     5628.324     79.52521     159.2408     318.6086      1.485     3.48     895.4702     56.18788     578.6901        25     1.302     0.946  59.54   0
       363    806.6857    496.3006 307.5896845  +6.5076057     1407.104     1782.002     1514.784     79.90541     159.9372     318.8304      1.366     3.99     887.4203     56.18788     226.2283        11     1.238     0.576  62.78   0
       364    380.2604    496.0346 307.7668140  +6.4934102     1855.116     2495.285     2904.667     79.90541     159.4311     318.7354      1.486     3.88     895.0728     56.18788     290.8741        16     1.302     0.752  63.80   0
       365    962.7614    494.2170 307.5249242  +6.5136864     2476.788     3260.508     3268.064     79.52521     159.3043     318.5451      1.413     3.48     883.3687     56.18788     381.1498        15     1.174     0.739  56.27   0
       366    781.6337    494.3446 307.6001560  +6.5075746     1676.709     2305.805     2621.082     79.77888     159.4311     318.7671      1.397     3.16     887.9963     56.18788     281.4316        14     1.103     0.758  47.99   0
       367    711.0351    493.2180 307.6295184  +6.5056750     624.4736     667.3457     293.2089     79.39806     159.2408     318.5451      1.113     2.71     889.4297     56.18788      133.344         6     0.854     0.471  38.72   0
       368    368.9419    491.9953 307.7716512  +6.4946973     796.6037     1126.795     1435.449     79.27072     159.3043     318.5134      1.424     4.14     894.9274     56.18788      122.555         7     0.904     0.541  50.25   0
       369    114.9671    490.9203 307.8771737  +6.4865908     4793.327     6834.516     6770.267     79.77888     159.4311     318.7671      1.485     3.45     901.2971     56.18788     683.9168        23     1.309     0.878  60.71   0
       370   1016.7906    488.7918 307.5026630  +6.5177316     4476.197     7080.454     7421.598     79.39806     159.2408     318.1008      1.657     3.89     881.3491     56.18788     645.0314        27     1.504     0.934  46.58  16
       371    753.0681    489.9069 307.6121702  +6.5084502     2729.908     3740.434      3568.25     79.77888     159.5578     318.7987      1.418     3.26     888.7211     56.18788     387.3554        19     1.246     0.861  60.49   0
       372    272.7955    488.1268 307.8117157  +6.4930601     1798.024     2396.537     2420.061     79.52521     158.9869     318.6403      1.412     3.60     896.1036     56.18788     252.2216        16     1.256     0.749  66.53   0
       373    350.9370    485.7274 307.7793406  +6.4966796     3319.365     4735.479     4638.223     80.03174     159.4311     318.8304      1.498     3.73     894.6892     56.18788     472.9646        20     1.302     0.791  58.01   0
       374    706.8250    483.4718 307.6315943  +6.5095578     1593.938     2155.889     1443.886     79.52521     159.3043     318.7037      1.386     3.63     889.1506     56.18788     265.4618        10     1.193     0.511  64.69   0
       375    980.5053    482.0673 307.5179604  +6.5192957     764.9866     1245.804     1689.392     79.77888      159.621     318.7671      2.160     4.35     882.3926     56.18788     146.1477        11     1.114     0.883  80.41   0
       376    238.7173    481.4512 307.8260950  +6.4946690     1038.189     1481.677     746.9218     79.90541     159.4311     318.8304      1.465     4.70     897.0966     56.18788     141.3485        11     1.071     0.761  57.70   0
       377    449.3949    477.8218 307.7387118  +6.5032529     657.0304     988.2781     567.1797     79.52521     159.1774     318.5768      1.539     4.00     891.8989     56.18788      117.875         7     0.858     0.618  56.27   0
       378    548.5923    476.4265 307.6975558  +6.5071600     1007.214     1617.661      1847.36     79.52521     159.2408     318.6086      1.791     4.28     889.5541     56.18788      183.988        10     1.255     0.635  51.37   0
       379    470.5422    474.6686 307.7300342  +6.5052652     1688.606     2243.345     2274.239     80.03175     159.3677     318.7037      1.471     3.62      890.223     56.18788     291.6213        15     1.184     0.846  62.33   0
       380    833.2638    473.6006 307.5794056  +6.5178674     1664.405     2139.551     2103.152     79.14318     159.1774     318.5134      1.392     3.77     886.3751     56.18788     245.0159        15     1.213     0.845  50.57   0
       381    818.7753    472.7326 307.5854530  +6.5177408     2193.914     3098.058     3423.137     79.52521     159.3043      318.672      1.490     3.85     886.5618     56.18788      350.235        16     1.310     0.666  59.52   0
       382    716.0362    470.8893 307.6281905  +6.5150613     16718.27     22663.32     23588.56     79.90541     159.3677     318.7671      1.431     3.48     888.5269     56.18788     2534.018        40     1.391     0.945  60.33   0
       383    618.3138    472.7200 307.6687203  +6.5110295     927.7031     1260.671      1519.54     79.65215     159.7476     318.8938      1.503     5.00     889.1091     56.18788     132.7736        10     1.231     0.574  57.04   0
       384    637.1116    466.7825 307.6611117  +6.5141113     2886.943     4031.871      4611.29     79.65214     159.1774     318.6403      1.475     3.53     888.7131     56.18788     411.1598        21     1.276     0.853  55.84   0
       385    709.6025    465.2279 307.6310529  +6.5171831     774.3824     936.9603     1218.766     79.39807     159.1774     318.5768      1.288     3.40     888.2209     56.18788     147.8528         8     0.903     0.634  37.83   0
       386    612.5005    464.0089 307.6714276  +6.5144310     5664.728     7887.494     8531.438     79.65214     159.0504     318.6086      1.420     4.53     888.7554     56.18788       842.45        15     1.308     0.661  60.01   3
       387    608.5532    461.4651 307.6731527  +6.5153489     16445.41     23247.29     25047.01     79.90541     159.3677     318.7671      1.566     3.34     888.6577     56.18788     2655.214        41     1.651     0.967  57.19   2
       388    941.3903    460.8214 307.5349197  +6.5267601     4470.023     5714.986     5710.484     79.52521     159.1774     318.5768      1.347     3.26     882.6788     56.18788     745.2964        21     1.298     0.772  64.69   0
       389    380.3939    456.6906 307.7680835  +6.5096580     31595.68     44538.14     46464.14     79.52521     159.1139     318.5451      1.511     3.33     892.6274     56.18788     4614.064        54     1.489     1.017  62.98   0
       390    417.5104    458.2759 307.7526133  +6.5102512      672.109     1018.451     917.5348     79.90541     159.6843     318.8304      1.417     3.37     892.3308     56.18788     128.8725         5     0.763     0.430  66.20   0
       391    126.5483    456.1699 307.8735367  +6.5013277     2670.506     3683.517     3754.022     79.65215     159.5578     318.7037      1.439     3.14     899.6769     56.18788     420.8375        21     1.309     0.847  64.10   0
       392    896.0172    455.4652 307.5539466  +6.5274543     1395.097     2886.671       3201.8     79.39806     159.3043     318.6403      2.185     7.49      884.067     56.18788     288.9504        23     2.383     0.658  46.13   0
       393    910.1018    451.2038 307.5482387  +6.5296848     5723.275     7564.282     7941.996     79.65214     159.1139       318.45      1.399     3.38     883.3069     56.18788     884.7133        22     1.315     0.760  59.92   0
       394     59.7162    451.6437 307.9014478  +6.5009429     1695.332     2606.637     2593.755     79.90541     159.4311     318.7671      1.607     3.66     901.4626     56.18788     234.8091        15     1.158     0.832  68.06   0
       395    592.1362    452.4463 307.6802750  +6.5185216       673.66     745.5398     487.6759     79.77888     159.3677     318.7988      1.187     3.40     888.3746     56.18788     110.5885         5     0.811     0.412  23.53   0
       396    965.9127    449.5031 307.5251122  +6.5322527     662.3142     627.8151     317.3465     79.90541     159.8108     318.7988      1.200     4.20     881.3033     56.18788     109.3168         6     1.056     0.478  57.48   0
       397    237.9407    447.1755 307.8275733  +6.5087936     15102.09      21406.4      21834.1     79.52521     159.4311     318.6086      1.500     3.41     895.8135     56.18788     2181.887        38     1.449     0.960  63.10   0
       398     73.5647    441.1744 307.8960496  +6.5057322       872.47     1354.788     1748.513     79.39807     159.2408     318.5451      1.844     3.79     900.7649     56.18788     162.8195        10     1.127     0.647  83.12   0
       399   1010.5146    440.5652 307.5068839  +6.5374332     518.2769     733.5309     484.5231     79.90541     159.3043     318.7671      1.668     4.29     879.5024     56.18788     93.66431         5     1.190     0.441  54.70   0
       400    961.3136    439.7068 307.5273507  +6.5361436     1042.277     1468.541     1722.212     79.90541      159.874     318.8621      1.364     3.85     880.9395     56.18788     205.8018        10     1.248     0.495  56.78   0
       401    732.7256    441.0221 307.6222604  +6.5279515     899.0917     1118.061     1450.125     79.52521     159.3043     318.7037      1.518     4.36     886.7696     56.18788     134.5925         8     1.212     0.615  48.37   0
       402    700.9999    440.4578 307.6354578  +6.5271215     818.2701     1097.425     1433.938     79.14317     159.0504     318.4182      1.439     3.22     886.9356     56.18788     142.2271         7     0.930     0.552  53.80   0
       403    184.2231    437.1802 307.8502224  +6.5111110     887.1652     1364.286     1033.602     79.65214     159.3043     318.7037      1.552     4.94     897.3037     56.18788     137.3658        10     1.369     0.685  66.17   0
       404    351.0240    436.9699 307.7809469  +6.5168122     1298.893     1767.557     1946.028     79.39806     159.3043     318.6086      1.466     3.09     891.6404     56.18788     196.6661         9     0.824     0.721  63.35   0
       405    138.2139    435.7849 307.8693796  +6.5101368     5568.837      7874.11     8208.503     79.65214     159.1139     318.7037      1.509     3.37     898.6682     56.18788     790.4263        28     1.335     0.962  57.65   0
       406    336.2631    435.8947 307.7871143  +6.5167596     484.5096     711.7697     622.2295     79.77888     159.5578     318.8304      1.562     4.27     891.9852     56.18788     102.7572         6     1.157     0.450  59.81   0
       407    631.3760    434.7838 307.6645690  +6.5271300      589.711     435.6641     426.8945     79.65215     159.3043     318.7037      1.203     3.43     887.3232     56.18788     104.3425         5     1.189     0.286  54.86   0
       408    435.6373    434.7736 307.7458750  +6.5205634     773.2175     1236.296      1181.24     79.52521     159.2408     318.5768      1.605     4.54     889.6896     56.18788     133.4043         8     1.283     0.519  59.36   0
       409    242.9925    434.5590 307.8259005  +6.5141724     1481.945      2207.53     2305.779     79.27072     159.1774     318.4817      1.542     4.60     895.1389     56.18788     229.7285        14     1.232     0.746  57.30   0
       410    824.6041    432.9250 307.5843665  +6.5343711     881.4879     1008.225     650.1602     79.52521     158.9233      318.672      1.248     4.25     885.3662     56.18788     155.9529         8     1.065     0.528  66.76   0
       411    160.2464    431.6041 307.8603694  +6.5126053     2626.114     4086.176     4400.672     79.27073     159.1774       318.45      1.736     3.85     897.9733     56.18788     346.4238        21     1.363     0.918  78.40   0
       412    555.6872    430.5667 307.6961506  +6.5263318      1088.04      1610.61     816.6136     79.90541     159.3043     318.7671      1.420     4.30     887.7637     56.18788     172.6056        10     1.224     0.606  57.20   0
       413    383.7184    426.3916 307.7677229  +6.5222789     2388.658     2942.569     2868.226     79.52521     159.0504     318.6403      1.364     3.29      890.247     56.18788     324.9424        15     1.078     0.801  68.76   0
       414    271.8591    426.6249 307.8141779  +6.5184197     839.7196     1087.071      889.295     79.52521     159.4311     318.6086      1.300     3.89     893.5956     56.18788     144.3951         9     1.093     0.539  63.49   0
       415      2.5642    426.7582 307.9260264  +6.5092885     937.5255     1118.896     909.3435     79.65215     143.7004      259.274      1.225     2.86     903.2122     56.18788     148.0389         8     0.880     0.603  71.58  16
       416    972.1025    425.5775 307.5233420  +6.5423377     1179.602     1822.975     1641.712     79.90541     159.1774     318.5768      1.753     4.08     879.9078     56.18788     217.0114        11     1.209     0.674  68.33   0
       417     34.0817    420.6557 307.9131420  +6.5128713     3261.986     5556.936     6232.628     79.90541     159.4311     318.7988      1.862     3.98     901.9095     56.18788     462.1845        31     1.568     1.212 -85.70   0
       418    437.5164    419.9670 307.7455929  +6.5267395     7969.144     11380.46     11850.73     79.90541     159.2408     318.7354      1.516     3.45     888.5543     56.18788     1155.229        29     1.411     0.907  63.87   0
       419    770.3057    419.1700 307.6073831  +6.5382322     2149.542     2774.083     3361.501     80.03174     159.1774      318.672      1.391     3.55     885.4466     56.18788     336.1518        16     1.282     0.702  62.21   0
       420    778.1842    417.4390 307.6041685  +6.5392107     14529.31     19289.63     19435.78     79.52521     159.2408     318.5451      1.417     3.37     885.3638     56.18788     2251.799        33     1.379     0.845  58.32   0
       421    341.3950    415.6312 307.7856654  +6.5252981     1096.639     1704.539     1782.335     79.27073     159.3043     318.5451      1.640     6.21      890.678     56.18788     175.7031        13     1.404     0.820  31.59   0
       422   1022.1080    412.6866 307.5030010  +6.5493307     4128.482     5413.904     5546.667     79.77888     147.7901     264.4438      1.381     3.58     878.0641     56.18788     640.9583        18     1.210     0.775  58.82  24
       423    953.3700    409.2926 307.5316689  +6.5484352     642.6791     962.6674     930.5355     80.03175     159.1774      318.672      1.333     2.27     879.7199     56.18788     147.0385         5     0.707     0.441  69.14   0
       424    186.7143    408.4179 307.8501582  +6.5230694     860.4312     1049.668     471.9549     79.52521     159.1774     318.7037      1.485     3.78     896.3398     56.18788      122.257        10     0.898     0.836  73.60   0
       425    903.7921    407.6084 307.5523203  +6.5474729     670.5346     782.6299     606.8123     79.27073     159.2408     318.6403      1.230     4.22     881.5829     56.18788     151.4628         6     1.049     0.485  66.11   0
       426    457.9147    404.3653 307.7376449  +6.5338661     2456.398      3342.56      3201.99     79.90541     159.3043     318.7354      1.443     3.77     887.2839     56.18788     363.8876        17     1.309     0.752  59.62   0
       427    485.6843    403.7098 307.7261319  +6.5350695     3334.026     4976.272     5286.377     79.65215     159.7476     318.8938      1.561     3.90     886.7011     56.18788     510.3865        20     1.383     0.812  60.57   0
       428    914.6797    403.7794 307.5479258  +6.5494178      807.115     1106.127    -609.2075     79.52521     159.1139     318.7671      1.263     4.15     880.8463     56.18788      125.193         7     1.123     0.438  58.56   0
       429    843.5617    400.4087 307.5775817  +6.5484304     36859.23      51738.7     53527.64     79.14318     159.1774     318.4817      1.513     3.46     883.5386     56.18788     5643.051        51     1.491     0.973  66.66   0
       430     61.3633    396.4318 307.9026289  +6.5237923     689.9459     959.7665     1090.209     79.52521     159.1774     318.5134      1.431     4.02     899.9658     56.18788     117.6747         6     0.962     0.479 -87.31   0
       431    335.9690    395.8452 307.7885858  +6.5332843     939.7458     1310.021     1345.365     79.52521     159.4944     318.6403      1.349     4.95      890.283     56.18788     151.0288        10     1.155     0.722  52.26   0
       432    615.3580    392.8864 307.6726304  +6.5438905      3065.73     4359.604     4412.015     79.90541     159.3043     318.7988      1.486     3.29     885.1233     56.18788     443.8961        20     1.284     0.810  53.01   0
       433     23.2521    393.0549 307.9185728  +6.5239006     1143.138      1775.22     2052.417     79.90541     159.4311     318.7354      1.691     4.54      901.173     56.18788     168.9103        14     1.303     0.884  55.75   0
       434    700.0332    386.3584 307.6376755  +6.5494247      89004.2     121096.6     125759.8     79.65214     159.4311     318.6086      1.454     3.62     884.1533     56.18788     13233.38        79     1.482     1.050  59.69   0
       435    858.1913    387.9159 307.5719232  +6.5540778     1445.184     1912.269     1872.221     79.52521     159.1139     318.6086      1.419     3.40     882.4782     56.18788     228.3408        14     1.202     0.693  74.19   0
       436     79.3904    385.8527 307.8954986  +6.5287678     1574.582     2197.081     1812.977     79.27072     159.3043     318.5134      1.444     3.46     899.1154     56.18788     243.8995        16     1.225     0.839  26.13   0
       437    562.5569    383.1043 307.6948926  +6.5461576      2866.53     4045.843     4428.481     79.90541     159.3677     318.8938      1.466     3.32       885.08     56.18788     401.5081        17     1.291     0.748  62.97   0
       438    941.2744    383.4268 307.5375598  +6.5587099     883.4578     1032.779     561.1312     79.65215     159.3677     318.7354      1.254     3.87     879.1819     56.18788     196.9719         8     1.094     0.476  52.52   0
       439    389.9939    383.3360 307.7665662  +6.5402655       816.74     1053.317     954.7734     79.27072     159.1774     318.5451      1.376     5.09       888.32     56.18788      111.874        10     1.282     0.571  66.01   0
       440     99.7026    381.7592 307.8871998  +6.5311427     6868.673     9629.287     10299.32     79.90541     159.3043     318.9888      1.501     3.36     898.4399     56.18788     1033.464        28     1.381     0.895  65.21   0
       441    760.2269    381.2823 307.6128410  +6.5535371     489.7856     850.9877     768.1291     79.77888     159.2408     318.7037      1.582     5.28     883.6291     56.18788      84.0448         6     1.360     0.579  72.84   0
       442    545.7490    379.2016 307.7020058  +6.5472047      7956.13     11083.53     11476.34     79.27072     159.0504     318.3548      1.477     3.36     885.0607     56.18788     1142.112        32     1.361     0.958  59.43   0
       443    408.6599    374.3439 307.7591153  +6.5446054     29113.44     40698.15     41765.88     80.03175     159.4311     318.7988      1.530     3.27     887.4362     56.18788     4324.403        53     1.492     1.037  60.47   0
       444    274.6975    376.8208 307.8146780  +6.5390768     3050.009     4130.475     3982.381     79.77888     159.2408     318.5134      1.436     3.55     891.6258     56.18788     441.2767        17     1.176     0.796  62.44   0
       445    516.3964    373.2642 307.7143985  +6.5486706     1503.004     2127.119     1750.284     79.27073     159.2408     318.5451      1.435     3.42     884.8381     56.18788     256.8755        15     1.221     0.811  74.71   0
       446    587.3402    373.5761 307.6849179  +6.5509230     749.7635     947.7548     934.9945     79.52521     159.4311     318.6403      1.484     5.03      884.195     56.18788     114.4132         8     1.503     0.477  62.78   0
       447    675.4441    372.4619 307.6483566  +6.5543378     610.2072     599.4955     385.4814     79.90541     159.3677     318.8938      1.293     4.07     883.5142     56.18788     92.79968         5     1.194     0.396  54.10   0
       448    388.4401    372.3426 307.7675818  +6.5447519     1229.216     1731.042     2378.019     79.90541     159.4944     318.7988      1.747     3.77      888.026     56.18788     222.5231        11     1.229     0.643  63.00   0
       449    488.1703    369.7662 307.7262412  +6.5491669     1218.681     1828.004     1747.652     79.39806     159.1774     318.5134      1.513     4.56     884.7816     56.18788     166.9614        12     1.253     0.637  56.89   0
       450    803.6361    366.8380 307.5952929  +6.5609542     954.1975     1327.207     1147.254     79.65214     159.3043     318.5768      1.389     4.63      882.605     56.18788     190.3383         8     1.458     0.418  64.43   0
       451    639.5049    366.4556 307.6634877  +6.5556126     602.9561     506.0969     198.7651     79.77888     159.4311     318.9888      1.275     4.76     883.2716     56.18788      107.261         6     0.999     0.645  64.61   0
       452    385.6857    366.7449 307.7689145  +6.5469703     848.1443     1349.676     1236.523     79.90541     159.4311     318.9572      1.401     4.09     887.9301     56.18788     139.1013         7     1.108     0.430  62.40   1
       453    497.7987    364.7451 307.7224105  +6.5515632      9671.39     13543.06     13827.76     79.27072     159.1774     318.3865      1.470     3.21     884.4565     56.18788     1505.508        30     1.319     0.979  61.40   0
       454    766.8448    363.5314 307.6106875  +6.5610874     3542.223     4730.254     5335.129     79.90541     159.3677     318.7988      1.466     3.55     882.7614     56.18788     552.1964        20     1.270     0.836  58.57   0
       455    922.2834    363.5284 307.5461156  +6.5662904     1062.817     1299.641     1680.954     80.15788     159.7476     318.7988      1.347     3.79     878.9794     56.18788     188.9106        10     1.120     0.724  41.65   0
       456    714.6983    363.1323 307.6323633  +6.5595053     885.0139     1309.295     1256.061     79.90541     159.5578     318.7988      1.396     4.04     882.9585     56.18788     149.9011         7     0.895     0.535  52.27   0
       457    211.4047    362.8998 307.8414382  +6.5426930      482.643     452.1487     161.3421     79.65214     159.0504     318.4182      1.071     4.26     893.5914     56.18788     98.60431         6     0.804     0.643  49.64   0
       458    324.1512    361.5570 307.7946502  +6.5470426     1179.929     1434.703     1017.714     79.90541     159.3677     318.7037      1.427     5.23     889.6544     56.18788     182.9221        11     1.189     0.649  69.56   0
       459    259.8488    355.3898 307.8215685  +6.5474248     823.7539     1200.937     1249.579     79.39806     159.2408       318.45      1.450     5.54     891.3492     56.18788     113.8789        11     1.261     0.723 -76.47   0
       460    159.7878    354.7235 307.8631548  +6.5443296     1149.714     1347.024      1481.39     79.52521     159.0504     318.5768      1.342     3.95      895.967     56.18788     165.1019        10     1.075     0.618  67.70   0
       461    387.6491    348.9331 307.7686988  +6.5543900     8230.865     11704.71     11804.49     79.77888     159.3043     318.7988      1.502     3.29     887.2242     56.18788     1181.814        32     1.378     0.955  55.91   0
       462    741.3491    349.0593 307.6217645  +6.5662084     1147.655      1597.62     2025.208     79.90541     159.4311     318.7671      1.471     3.63     882.2385     56.18788     178.4803        10     0.998     0.674  49.23   0
       463    243.3882    349.4451 307.8286066  +6.5493248     2476.796     3356.275     3889.014     79.39807     159.2408     318.4817      1.489     3.40     891.7558     56.18788     375.4073        16     1.182     0.819  55.03   0
       464    755.5009    344.8997 307.6160251  +6.5683998     60699.29     81679.01     84569.03     79.90541     159.8108     318.6086      1.412     3.26      881.928     56.18788     9087.491        59     1.453     0.944  59.79   0
       465    427.1605    344.3231 307.7524410  +6.5576214     2544.965     3634.793     2996.398     79.77888     159.4311     318.7988      1.520     4.30     885.5059     56.18788     353.1923        17     1.317     0.792  54.10   0
       466    990.4705    342.0661 307.5185076  +6.5774307     1984.393     2510.832     2043.128     79.90541     159.4944     318.7671      1.302     3.44      876.713     56.18788      342.075        13     1.176     0.638  58.47   0
       467    931.3887    341.1094 307.5430840  +6.5758508     2645.293     3573.911     4219.494     79.65214     159.1139     318.5768      1.389     3.35     877.9402     56.18788     410.6956        17     1.326     0.689  57.48   0
       468    573.2698    341.7535 307.6918326  +6.5635891     1517.435     1974.911     1607.633     79.90541     159.3677     318.7671      1.460     3.59     882.5729     56.18788     220.3236        13     1.129     0.748  49.99   0
       469    464.3264    340.4963 307.7371309  +6.5604501     1138.536     1909.244     2263.108     79.65215     159.5578     318.7671      1.847     4.46     883.9405     56.18788     171.8762        13     1.293     0.710  47.22   2
       470    463.9634    335.0474 307.7374651  +6.5626875     809.7672     1270.363     1554.583     79.65215     159.4311     318.7037      1.614     5.14     883.7115     56.18788     120.5258         9     1.223     0.610  65.79   3
       471    413.5773    340.0421 307.7582276  +6.5589323     2077.586      2835.56     3096.672     79.52521     159.3043     318.5451      1.502     3.94     885.7629     56.18788     313.4396        16     1.273     0.761  55.91   0
       472    293.8956    339.7740 307.8079523  +6.5550177     754.7401     1025.882      1101.44     80.03174     159.1774     318.6403      1.459     4.45     889.8253     56.18788     111.9147         8     1.066     0.529  50.54   0
       473    834.9970    334.3549 307.5833542  +6.5754151     1286.243     1849.612     1238.256     79.27072     159.0504     318.4182      1.330     4.27     880.0876     56.18788     215.5771        13     1.370     0.627  55.69   0
       474    966.5632    332.7626 307.5287510  +6.5804728     622.2245     931.5118     607.0834     79.65215     159.3043     318.6086      1.657     6.07     876.6684     56.18788     95.61206         9     1.318     0.785 -82.96   0
       475    444.4237    331.5788 307.7456988  +6.5634631     1295.624     1814.336     2489.859     79.52521     159.2408     318.7354      1.632     3.80     884.2546     56.18788     184.4376        13     1.197     0.724  65.01   0
       476    190.2120    331.2350 307.8513098  +6.5550518     2424.104     3519.659     4016.405     79.39806     159.2408     318.6086      1.542     3.59     893.9697     56.18788     326.0331        18     1.264     0.851  61.29   0
       477    753.9732    329.4671 307.6171777  +6.5747201     6889.518     9269.273     9658.546     79.52521     159.3043      318.672      1.422     3.47     881.1679     56.18788     1086.142        24     1.346     0.810  61.14   0
       478    226.0931    329.8991 307.8364501  +6.5568119     767.0526     1020.446     824.3703     79.90541     159.9372     318.7037      1.325     3.78     891.9577     56.18788     143.1074         6     0.939     0.437  43.18   0
       479    344.8985    328.6468 307.7871408  +6.5613275     726.7062     958.4558     840.4397     79.90541     159.3043     318.9572      1.316     4.27     888.0327     56.18788     111.9715         7     0.904     0.576  80.37   0
       480     86.4196    328.6013 307.8945127  +6.5526406     1116.123     1355.618     1585.642     79.52521     158.9869     318.4817      1.398     3.21     897.9524     56.18788     172.7937        11     0.960     0.760  76.58   0
       481    770.2673    327.3293 307.6104804  +6.5761485     2793.314     3866.751     4242.864     79.90541     159.5578     318.7354      1.426     3.20     880.9915     56.18788       497.21        18     1.290     0.712  48.11   0
       482    312.3354    323.5069 307.8008408  +6.5623541     542.6575     614.4269     16.46739     79.90541      159.621     318.7988      1.500     4.55     888.8555     56.18788     70.27069         6     1.235     0.476  44.91   0
       483    359.9354    322.1189 307.7811144  +6.5645284     1667.113     3151.139     3137.356     80.15788     159.4944     318.7671      1.901     5.90     887.2299     56.18788     259.6091        23     1.755     0.926   5.91   0
       484     73.7944    322.5761 307.8999606  +6.5547023     1401.054     2031.823     1698.348     79.39807     159.1774     318.6086      1.567     3.97     898.1113     56.18788     206.8447        14     1.211     0.883  53.81   0
       485   1008.5909    318.3965 307.5117721  +6.5878085     6798.609     9094.142     9318.679     79.27073     159.1139     318.6086      1.428     3.31       874.17     56.18788     1180.374        25     1.375     0.794  59.06   0
       486    486.6851    318.1066 307.7285963  +6.5704449     2364.896     3355.989      3220.59     79.77888      159.874     318.8621      1.432     3.26     882.3862     56.18788     365.6686        17     1.259     0.782  52.64   0
       487    249.2285    313.7137 307.8273857  +6.5642731     6601.457     9444.564     9793.051     80.03174     159.1139     318.6403      1.539     3.55     890.7825     56.18788     921.4777        28     1.406     0.939  58.73   0
       488    916.8492    312.5717 307.5500803  +6.5871469     667.8777     739.5063     674.9906     79.52521     159.4944      318.672      1.358     4.34     877.2726     56.18788     116.8571         7     1.201     0.447  68.18   0
       489    768.5773    307.1974 307.6118580  +6.5844036     978.7073      1205.42     923.6743     79.52521     159.1139     318.5768      1.368     4.20     880.0673     56.18788      149.223         9     1.102     0.574  55.89   0
       490    225.9967    306.5132 307.8372791  +6.5664635      790.942     1142.313     653.6638     79.39806     159.0504     318.5134      1.449     5.15     891.5062     56.18788     104.6179         9     1.171     0.641  76.78   0
       491    120.9301    307.2703 307.8808979  +6.5626106     631.9691     530.8275     747.9651     79.90541     159.5578     318.7354      1.208     4.76     896.5381     56.18788      84.4267         7     0.927     0.696   3.08   0
       492    383.3683    304.4663 307.7719748  +6.5726042     1758.909     2604.028     2692.774     79.77888     159.4944     318.7037      1.572     3.32     885.3342     56.18788     322.9383        15     1.232     0.744  64.57   0
       493    970.2794    303.5214 307.5281864  +6.5926697     1125.144     1474.152     1628.868     80.15788     159.6843     318.8938      1.163     3.37     874.7958     56.18788     207.2515         9     1.158     0.464  49.85   0
       494    305.7433    300.5065 307.8043545  +6.5716279     1236.961     1699.054     1868.777     79.77888     159.4311     318.9572      1.531     3.89     888.3819     56.18788       174.46        10     1.104     0.612  56.24   0
       495    153.0285    300.2003 307.8678031  +6.5666114     2123.508     2837.656     3193.471     79.39806     159.2408     318.5768      1.422     3.21     895.4341     56.18788      312.033        18     1.227     0.877  72.46   0
       496    906.5464    295.3657 307.5549370  +6.5939061     1965.015     2880.537     2486.768     79.77888     159.4311     318.7354      1.601     4.06     876.7722     56.18788     300.2745        18     1.393     0.799  51.07   0
       497    562.7323    295.9482 307.6977501  +6.5821465     2314.376     3225.927      3165.91     79.77888     159.3043     318.7354      1.430     3.22     880.6987     56.18788     349.2571        16     1.206     0.722  59.76   0
       498    830.7565    296.0263 307.5864012  +6.5910976      471.726     760.2233     893.1315     79.52521     159.4944     318.7037      1.467     3.75     878.5301     56.18788     78.60632         5     0.806     0.502  37.08   0
       499    726.3635    293.6284 307.6298505  +6.5885916     5799.326     7856.699     8197.491     79.52521     159.1774     318.5768      1.390     3.18     879.4843     56.18788     913.0088        22     1.288     0.800  59.67   0
       500    667.1959    293.3970 307.6544385  +6.5867040     2335.403     3217.981     3021.676     79.27072     158.9869     318.5768      1.447     3.53     879.4371     56.18788     414.8411        18     1.445     0.717  64.51   0
       501    964.3352    293.3264 307.5309972  +6.5966802     735.3549     1263.694     1129.513     80.03175     159.4311     318.7671      1.955     4.67     874.4514     56.18788     133.0617         9     1.197     0.746  89.59   0
       502    381.9784    287.6130 307.7731198  +6.5795154     754.3821     795.7919     510.2827     79.65214     159.2408      318.672      1.235     4.96     884.6664     56.18788     133.4766         8     1.344     0.518  64.48   0
       503    922.2543    285.5707 307.5487394  +6.5984754       1277.3     1596.918     1934.856     79.65215     159.4944     318.7037      1.411     4.53     876.1946     56.18788     208.6075         9     1.141     0.510  64.85   0
       504    225.7943    278.7729 307.8382990  +6.5779091     2686.873     3896.406     3528.956     79.39806     159.2408     318.5768      1.524     3.37     891.1273     56.18788     399.9572        21     1.293     0.915  63.88   0
       505    868.6428    277.7949 307.5712728  +6.5998925      1907.75     2513.818      2626.64     79.27073     159.1139       318.45      1.359     3.32     876.7722     56.18788     301.3458        14     1.191     0.680  60.48   0
       506    758.9847    277.3359 307.6168452  +6.5964110     1884.984     2384.082     2322.442     79.39806     159.3043     318.6403      1.355     3.76     878.8359     56.18788     330.6372        13     1.234     0.687  74.04   0
       507    247.5770    272.5668 307.8294595  +6.5812048      754.764     789.2412     685.4073     79.39807     159.2408     318.5768      1.378     3.60     890.2455     56.18788     162.9698         6     0.990     0.377  69.59   0
       508    459.8329    268.6915 307.7414143  +6.5899440     25458.93     35842.69     37135.49     80.03174     159.3043     318.7988      1.523     3.47     880.6838     56.18788     3659.641        43     1.442     0.995  61.82   0
       509    785.8534    267.9088 307.6059990  +6.6012029     15108.57     21057.43      22659.8     79.77888     159.2408     318.8938      1.451     3.24     878.4384     56.18788     2426.107        43     1.417     1.101  50.86   0
       510    724.5965    263.8934 307.6315828  +6.6008088     786.0809     1003.432     1085.401     79.65214     159.1139     318.4817      1.384     3.96     878.5059     56.18788     130.8652         7     1.170     0.383  73.89   0
       511    465.5994    263.2248 307.7392027  +6.5923947     1774.787     2546.065     2998.981     79.52521     159.1139     318.5451      1.499     3.49     880.1688     56.18788      277.999        17     1.239     0.934  68.67   0
       512    148.0194    261.9941 307.8711738  +6.5822157     2541.457     3501.088     3823.955     79.52521     159.0504     318.5768      1.422     3.46     894.5942     56.18788      368.522        19     1.317     0.799  49.75   0
       513    174.6732    260.1991 307.8601621  +6.5838550     768.4022     1229.649     1045.932     79.27072     158.8597     318.6086      1.612     4.45     893.4173     56.18788     130.8682         8     1.098     0.661  83.05   0
       514    122.6820    260.7020 307.8817428  +6.5818950     1165.142     1863.601     2199.264     79.90541     159.8108     318.8621      1.818     3.80     895.4635     56.18788     179.2078         9     1.055     0.662  76.10   0
       515    922.2658    258.2330 307.5496506  +6.6097625     1787.052     2347.812     2640.476     79.77888     159.4944     318.7354      1.385     3.94     874.6722     56.18788     246.2314        12     1.174     0.645  58.59   0
       516    583.9515    254.5038 307.6903283  +6.5999691     5107.659     7036.726     7026.141     79.77888     159.3043     318.9255      1.468     3.41     878.4943     56.18788     730.4366        25     1.358     0.844  58.37   0
       517    304.0306    255.0767 307.8065974  +6.5903259     1142.916     1541.254     830.3032     79.77888     159.4944     318.7671      1.490     4.98     887.7701     56.18788     160.1356        11     1.052     0.774  71.58   0
       518    546.6395    254.4427 307.7058313  +6.5987420     2366.379     2959.635     2648.417     79.65215     159.4311     318.6403      1.341     3.12     878.8295     56.18788     366.7496        16     1.129     0.828  62.35   0
       519    388.3694    253.5589 307.7716119  +6.5937895     1673.022     2339.876     2364.137     79.39807     159.2408     318.6086      1.523     3.70     883.1281     56.18788       259.31        16     1.321     0.749  59.38   0
       520    689.0040    249.1511 307.6468646  +6.6057024     3293.958     4512.364     5114.246     79.27072     159.2408     318.4182      1.482     4.41     878.0708     56.18788     465.5917        23     1.710     0.788  67.34   0
       521    944.7767    251.6519 307.5405188  +6.6132323     3108.074     4007.034     4017.229     79.39807     159.4311     318.6403      1.309     3.31       873.67     56.18788     610.5022        18     1.298     0.690  59.87   0
       522    890.8972    251.0566 307.5629234  +6.6116763      12972.9     17514.16     17911.13     79.77888     159.3677     318.9888      1.393     3.43     875.3798     56.18788     2137.251        32     1.362     0.853  57.44   0
       523    565.9587    251.2872 307.6979114  +6.6006933     941.7461     1177.361     934.8715     79.90541     159.4311     318.7988      1.475     4.69     878.4928     56.18788     138.6384         9     0.955     0.654  64.53   0
       524    318.7472    251.0359 307.8006200  +6.5924893     954.7328     1398.933     1147.889     79.77888     159.4311     318.7988      1.575     3.80     886.8292     56.18788     145.9299        12     1.206     0.745 -85.49   0
       525    977.5568    248.9967 307.5269888  +6.6154243     10998.18     14978.76     15485.31     79.27072     159.0504     318.4182      1.394     3.30     872.7234     56.18788     1817.469        30     1.369     0.819  59.36   0
       526    210.2524    251.2984 307.8456823  +6.5887283     782.8317     1151.092     1274.368     79.77888     159.4311     318.9572      1.542     4.08      891.718     56.18788     116.2155         6     0.991     0.532  37.73   0
       527     17.0588    247.5138 307.9260651  +6.5837766     28590.67     40097.89     41052.92     79.90541     159.4311     318.8938      1.515     3.40     899.7064     56.18788     4129.475        48     1.439     1.018  61.18   0
       528    263.2685    248.4320 307.8237550  +6.5916971     1297.784     1667.659      1669.24     79.77888     159.4311     318.7671      1.417     4.05     889.6285     56.18788     190.3016        12     1.103     0.759  65.42   0
       529    497.5014    243.5703 307.7266109  +6.6015808     2240.453     2960.935     3077.965     79.90541     159.1774     318.7988      1.504     3.64      878.425     56.18788     359.4139        17     1.345     0.730  55.16   0
       530    829.3853    240.3930 307.5888366  +6.6140205     2208.638     2867.525     3233.589     79.52521     159.1774     318.6086      1.437     3.76     876.7322     56.18788     356.2556        15     1.269     0.665  59.83   0
       531    509.5373    239.5860 307.7217448  +6.6036299     2987.224     4150.386     3877.385     79.39807     159.2408     318.5768      1.490     3.44     878.1536     56.18788      441.538        20     1.286     0.841  55.68   0
       532    881.6748    239.5084 307.5671420  +6.6161356     2368.696     2929.641     3114.621     79.90541     159.5578     318.7671      1.311     3.43     875.3583     56.18788     388.1449        15     1.183     0.731  58.46   0
       533    741.1005    237.0475 307.6256274  +6.6124453     45084.96     60717.12     62686.19     79.90541     159.3043     318.9888      1.405     3.34     877.6857     56.18788     7024.538        49     1.420     0.918  58.94   0
       534    344.2155    236.2957 307.7905365  +6.5994316     6383.574     12245.66     12680.72     79.65215     159.1774     318.6086      1.998     6.03     884.7774     56.18788     717.9093        40     1.932     1.080  89.30   0
       535    974.8367    235.8495 307.5285592  +6.6207614     3139.186     4198.116      4274.15     79.65214     159.3677      318.672      1.392     3.51     872.5435     56.18788     498.3229        17     1.239     0.757  62.35   0
       536    909.0317    234.1880 307.5559546  +6.6192472     8593.661      11416.6     11377.01     79.39806     159.1774      318.672      1.365     3.35     873.9545     56.18788     1462.001        26     1.308     0.795  60.41   0
       537   1013.0918    234.4246 307.5127132  +6.6226280     1886.405     2354.794     1812.098     80.03174     159.2408     318.6086      1.369     3.69     872.0531     56.18788      299.667        12     1.155     0.613  65.72   0
       538    452.5334    233.1076 307.7456446  +6.6043896     5652.445     7826.538     7869.767     79.77888      159.621     318.7671      1.460     3.25     879.2231     56.18788     792.9302        24     1.370     0.840  62.99   0
       539    226.8596    230.1746 307.8394960  +6.5980085     755.3466      1235.23     1069.263     79.52521     159.4311     318.6403      1.629     4.48     890.9645     56.18788     117.7543         7     1.125     0.507  70.70   0
       540    144.4090    230.7072 307.8737300  +6.5950105     2531.177     2437.079      2489.16     79.52521     159.0504     318.5768      0.770     0.86      893.808     56.18788     1088.806         6     0.545     0.495 -23.09   0
       541    109.8263    224.4001 307.8883094  +6.5964484     5287.698     7518.692     7556.676     79.39806     159.0504     318.5768      1.544     3.40     895.1106     56.18788     715.7402        26     1.370     0.936  66.51   0
       542    280.1633    221.1370 307.8176569  +6.6035345     37173.19     53217.91     54727.77     79.90541     159.4944     318.7671      1.504     3.37     888.9575     56.18788     5323.513        52     1.472     1.039  62.07   0
       543    929.5231    223.7955 307.5477893  +6.6242232     1041.048     1397.295     1883.721     79.52521     158.9233     318.6086      1.366     3.61     872.4715     56.18788     165.5627         8     1.013     0.560  70.05   0
       544    606.5161    223.2415 307.6820048  +6.6136331     749.7847     1212.846     1007.985     79.90541     159.3043      318.672      1.773     5.30     877.2344     56.18788     116.1026         8     1.006     0.788  76.86   0
       545    255.5164    222.1653 307.8278614  +6.6022802     7295.719     10503.56     10847.15     79.90541     159.4311     318.7354      1.536     3.40     889.8503     56.18788     1000.653        30     1.399     0.944  62.06   0
       546    709.4003    220.5215 307.6393523  +6.6182060     1069.561     1685.098     1646.697     79.14318     158.7961     318.4817      1.685     3.94     877.2224     56.18788     192.7098         9     1.114     0.566  60.32   0
       547    404.2502    216.6382 307.7662580  +6.6095662     55093.89     77477.73     80325.05     79.65215     159.3677     318.7354      1.500     3.31     881.0453     56.18788     7568.321        59     1.468     1.046  60.93   0
       548    160.1996    217.8078 307.8676058  +6.6008682     4513.377     6600.511     7045.024     79.27072     159.1139     318.5768      1.551     3.40     892.7332     56.18788     623.1284        23     1.345     0.870  60.19   0
       549    421.7887    217.0961 307.7589564  +6.6099667     1699.453     2221.538     1923.552     79.65214     159.1139     318.5768      1.442     3.64     880.1465     56.18788     222.6991        13     1.164     0.706  59.76   0
       550    743.5376    212.9427 307.6254240  +6.6224788     37277.32     50505.02     52118.25     80.03174     159.3677     318.7988      1.418     3.26     876.8306     56.18788     5738.342        52     1.442     0.943  59.14   0
       551    691.4400    214.6916 307.6470099  +6.6200109     1051.548      1535.67     1662.047     79.90541     159.3677     318.8304      1.574     4.23     876.9953     56.18788     180.9824         8     1.136     0.494  66.45   0
       552    308.2720    214.3219 307.8062094  +6.6072941     19952.55     28241.74     29011.01     80.15788     159.6843     318.7671      1.526     3.45     887.1143     56.18788     2837.688        39     1.431     0.991  61.15   0
       553    315.7895    213.6105 307.8031103  +6.6078408     2118.564     3722.791     4774.383     79.52521     159.2408     318.7354      2.031     6.13      886.483     56.18788      346.452        27     1.931     1.108 -87.28   0
       554    791.9254    213.3718 307.6053062  +6.6239224     1269.374     1980.293     2276.554     79.77888     159.3677     318.7037      1.527     3.57     876.2485     56.18788     238.4457         9     1.076     0.514  60.74   0
       555    567.4445    211.0990 307.6986455  +6.6173350      704.942     909.4651     638.0353     79.90541     159.3677     318.9888      1.707     4.63     876.6249     56.18788     105.2787         8     1.049     0.579  68.13   0
       556     60.3337    210.0763 307.9093535  +6.6006925     10038.24      14523.1     15201.63     80.03174     159.4944     318.7354      1.527     3.29      897.244     56.18788     1363.053        38     1.439     1.114  63.94   0
       557     94.2778    208.0388 307.8953212  +6.6026787     1734.383     2445.016      2091.39     79.77888     159.4944     318.7671      1.475     3.67     895.3869     56.18788     240.4759        15     1.205     0.778  64.89   0
       558   1002.0947    207.5508 307.5181819  +6.6333558     1380.343     1651.064     1611.533     79.77888     159.3043     318.9255      1.302     4.70     871.1294     56.18788     222.1046        10     1.086     0.576  58.81   0
       559    969.9702    206.7342 307.5315563  +6.6326194     508.8305      696.488     896.5831     79.65214     159.4311     318.7037      1.536     3.75     871.3235     56.18788     101.2672         5     1.281     0.315  63.63   0
       560   1004.8047    199.2413 307.5173342  +6.6368770     552.7262     736.2395     879.6085     79.14317     159.1139     318.4817      1.898     3.70     870.5258     56.18788     88.79706         5     1.188     0.332  79.06   1
       561    577.5427    197.7261 307.6948998  +6.6231950      880.215     1262.946     1121.003     79.90541     159.4311     318.7354      1.547     5.60     876.1136     56.18788     136.4481        10     1.284     0.697  62.51   0
       562   1002.8016    193.5314 307.5183576  +6.6391675     2456.223     3396.925     3689.381     79.27073     158.9869     318.6086      1.443     3.50     870.2252     56.18788     390.3248        18     1.366     0.710  57.89   0
       563    585.8386    191.1070 307.6916757  +6.6262061     1086.846     1276.562     1606.163     80.03174     159.3677     318.8304      1.274     3.21     875.8743     56.18788     212.9902        10     1.063     0.600  67.30   0
       564    594.2989    189.2324 307.6882238  +6.6272640     2223.663     3070.743     2941.917     79.90541     159.3043     318.8938      1.450     3.77     875.8538     56.18788     315.1787        17     1.310     0.744  55.68   0
       565    338.6980    189.2368 307.7944146  +6.6186742     1161.796     1466.988     1854.472     79.90541     159.3043     318.9572      1.669     3.47     884.4569     56.18788     185.3202        11     1.033     0.740  61.45   0
       566    279.0683    187.3863 307.8192500  +6.6174314     33244.64      47761.2     49926.62     79.39806     159.2408     318.6403      1.519     3.47     888.9021     56.18788     4888.709        53     1.466     1.078  59.27   0
       567     24.4705    185.7379 307.9250746  +6.6095301     5197.705     7527.685     8377.259     80.03175     159.4311     318.7988      1.595     3.43     898.6597     56.18788     681.3222        26     1.422     0.983  63.30   0
       568    188.5934    185.4068 307.8569038  +6.6152015      1002.89     1331.383     1414.815     79.27073     159.2408     318.6086      1.441     5.18       891.32     56.18788     178.3209        10     1.197     0.633  62.76   0
       569    710.7263    184.0769 307.6400252  +6.6332968     8987.631     12492.44      12905.1     80.15788     159.6843     318.7988      1.443     3.41     875.8134     56.18788         1375        31     1.390     0.905  59.27   0
       570    264.7987    182.4445 307.8253449  +6.6189912     907.5978     1079.929     1532.137     79.27073     159.0504     318.3548      1.342     4.49     889.3444     56.18788     122.5002         8     0.928     0.628  54.35   0
       571    121.5086    181.1412 307.8849174  +6.6147013     5430.902     8056.368     8685.872     79.77888     159.3677     318.8938      1.565     3.55     893.3831     56.18788      726.077        27     1.408     0.924  59.00   0
       572    460.6476    178.6133 307.7441081  +6.6271603      1393.84     1866.837     1011.417     79.27073     159.3043     318.5134      1.381     3.53     877.2278     56.18788     236.7469        14     1.286     0.634  62.32   0
       573    649.1134    178.0357 307.6658265  +6.6337253     825.0981     1231.666     1345.601     79.90541     159.3043     318.7671      1.564     4.81     875.5833     56.18788     128.5868         9     1.113     0.589  73.80   0
       574    583.2106    179.0928 307.6931715  +6.6310780      682.188     1019.859      1314.35     79.65214     159.0504     318.5451      1.549     3.89     875.3505     56.18788     108.9319         6     0.927     0.468  55.61   0
       575    392.2429    177.3095 307.7725712  +6.6253993     4426.959     6827.907     6982.541     79.90541     159.4311     318.8304      1.640     3.90     880.1823     56.18788     597.1478        29     1.461     0.985  60.77   0
       576    568.5831    176.0786 307.6993502  +6.6318316     802.8713     1208.854     1784.844     79.52521     159.1774      318.672      1.705     5.56      875.085     56.18788     115.7828         9     1.289     0.769 -80.80   0
       577    356.6716    175.9651 307.7873948  +6.6247580      3422.25      5003.32     5161.557     79.77888     159.3677     318.7671      1.501     3.34     882.8593     56.18788     488.1189        21     1.259     0.872  58.55   0
       578    110.9681    175.7809 307.8894773  +6.6165588     1812.386     2660.562     2844.851     79.39806     159.2408     318.6403      1.476     3.21     893.7116     56.18788     291.3633        13     1.163     0.683  62.29   0
       579    939.0200    175.4866 307.5454622  +6.6444856     508.5984     785.6122     1228.768     79.65214     159.1774      318.672      1.363     3.24     869.9586     56.18788     130.8106         5     1.019     0.428  64.54   0
       580    672.1364    174.0658 307.6563945  +6.6361364     838.9697     1258.004     1130.114     79.90541     159.4311     318.7671      1.553     3.78     875.4455     56.18788      151.612         7     0.999     0.645  52.56   0
       581    746.9990    174.1823 307.6252870  +6.6385973      586.186     739.3078     950.0092     79.52521     158.9869       318.45      1.222     3.74     875.2788     56.18788     98.33221         5     0.811     0.495  64.67   0
       582     49.4343    172.2422 307.9151602  +6.6159440     475.3511     685.7944     887.6594     79.65215     159.4311     318.5768      1.531     3.43     896.9414     56.18788     89.20483         5     0.789     0.431  68.33   0
       583   1003.4932    170.3539 307.5188463  +6.6487597     1802.038     2543.065     2284.456     79.77888     159.3677     318.8938      1.445     3.31     868.6885     56.18788      321.312        13     1.208     0.651  61.79   0
       584    729.4289    170.0236 307.6327266  +6.6397256     667.4059     841.7587      555.678     79.39806     159.3043     318.6086      1.415     4.43     875.2733     56.18788     112.1375         7     0.978     0.572  37.74   0
       585    208.5172    164.8730 307.8493196  +6.6243500     6032.657     8736.989     8852.558     80.15788     159.7476     318.7988      1.530     3.46     890.6971     56.18788     822.1462        27     1.399     0.920  61.34   0
       586    670.3701    163.8921 307.6574701  +6.6402774     6962.417     9708.432     10020.96     80.03174     159.1774     318.7037      1.423     3.36     875.0665     56.18788     1016.351        27     1.349     0.855  60.19   0
       587     91.2192    164.8351 307.8980516  +6.6204116       2320.4     3304.013     3513.458     79.39806     159.2408     318.5451      1.495     3.57     894.3387     56.18788     335.6733        19     1.375     0.785  56.02   0
       588    847.2191    164.2042 307.5839823  +6.6460728     519.4794      535.274     1059.578     79.52521     159.0504     318.5768      1.290     4.58     872.7984     56.18788     87.52148         6     0.996     0.598  25.23   0
       589    818.3708    163.5617 307.5959899  +6.6453724     1211.237      1634.71     1346.776     79.39807     159.1774     318.6403      1.415     4.55     873.6049     56.18788     177.4967        12     1.333     0.603  54.95   0
       590    622.4813    161.1417 307.6774592  +6.6398069     10601.49     15050.68     16150.38     79.90541     159.4311     318.7671      1.507     3.33     874.9317     56.18788     1627.328        40     1.464     0.998  65.74   0
       591    257.3846    162.0240 307.8291138  +6.6271720     858.8903     1183.982     1572.158     79.65214     159.2408     318.7037      1.567     4.75     889.5008     56.18788     132.4798         9     1.095     0.685  70.02   0
       592    560.4968    160.6295 307.7032293  +6.6379383     812.8627     1218.502     1667.955     80.03175     159.1774     318.7671      1.701     2.96     874.3081     56.18788     169.0775         7     0.949     0.461  76.58   0
       593     21.4869    159.9383 307.9271864  +6.6200804      1176.52     1792.022     1427.618     79.90541      159.621     318.7671      1.748     6.54     898.3068     56.18788     145.3137        14     1.304     0.921  86.64   0
       594    349.6964    156.7827 307.7909391  +6.6324428     4018.474     6303.961     6533.658     79.77888     159.2408     318.5768      1.699     3.68     883.3719     56.18788     557.7822        29     1.475     1.133 -76.98   0
       595    531.4844    156.0510 307.7154371  +6.6388546     2068.958     2944.252     3061.562     79.90541     159.3677     318.8621      1.526     3.61     874.5218     56.18788     264.6152        18     1.210     0.926  53.96   0
       596    995.7109    155.7206 307.5225698  +6.6545412     932.7369     1622.617     1832.729     79.65215     159.6843     318.8621      1.948     3.70     868.0355     56.18788     152.9716        11     1.010     0.856  73.09   0
       597    626.0250    152.6087 307.6762737  +6.6434486     59151.77     81852.87     85851.37     79.52521     159.2408     318.6086      1.473     3.77     874.5666     56.18788     8993.647        62     1.458     1.032  60.06   0
       598    305.1116    146.2669 307.8098168  +6.6352839     4117.842     5668.085      5837.48     80.03174      159.621     318.7354      1.475     3.37     887.3541     56.18788     610.3885        19     1.223     0.848  56.89   0
       599    500.5624    143.5080 307.7287064  +6.6429945     564.6522     695.2729     484.9125     80.03175     159.3677     318.7988      1.507     5.05     875.1309     56.18788     92.77148         7     1.114     0.648  50.31   0
       600    705.0747    140.8719 307.6438243  +6.6509448     1056.246     1447.533     1434.629     80.15788      159.621     318.7987      1.460     4.73     874.0161     56.18788      154.527        10     1.169     0.583  58.68   0
       601    676.3495    139.6806 307.6557992  +6.6504738     1433.041     1939.118     1757.465     79.90541     159.4944     318.7671      1.325     3.56      873.983     56.18788     227.6774        12     1.120     0.641  52.14   0
       602      2.8548    129.2888 307.9359633  +6.6321046     712654.3      1363390      1436566     79.90541     147.0363     263.9084      2.007     6.70     899.0177     56.18788     63784.66       253     2.031     1.518  78.05  28
       603    690.4387    136.6065 307.6500486  +6.6522152     3524.213     4602.002     4325.432     79.14318     159.1139     318.4817      1.387     3.26     873.8381     56.18788     543.3339        17     1.308     0.688  62.33   0
       604     62.1664    134.7018 307.9111396  +6.6318717     529.6597     654.9641     453.3304     79.90541     159.3043     318.8938      1.433     4.97     895.0887     56.18788     102.5595         6     1.065     0.657  87.00   0
       605     71.4032    130.9711 307.9074283  +6.6337235     363.9142     680.2333     537.2242     79.39806     159.1774     318.5768      1.596     4.85     894.3379     56.18788      89.2287         5     1.389     0.480 -85.61   0
       606    432.1674    127.5400 307.7576603  +6.6472887     4487.354     6172.098     6152.177     79.65215     159.4944     318.7037      1.493     3.52     876.8439     56.18788     636.9222        24     1.409     0.874  61.13   0
       607    886.7747    123.7872 307.5689024  +6.6640829     2527.162     3362.509     3373.642     79.65214     159.2408     318.7037      1.340     3.17     869.3969     56.18788     426.2686        16     1.213     0.723  64.44   0
       608    584.9582    123.6696 307.6943090  +6.6540183      757.462     1167.621     1371.716     79.77888     159.4311     318.8304      1.565     4.75     873.3395     56.18788     127.1961         8     1.323     0.484  66.64   0
       609    904.7195    123.0551 307.5614709  +6.6649854     4335.162     5749.491      5596.27     79.90541     159.4311     318.7988      1.351     3.40       868.85     56.18788     754.2437        19     1.260     0.738  58.35   0
       610    596.7579    121.5600 307.6894773  +6.6552852     1914.115     2697.695     2998.972     79.65215     159.4311     318.6403      1.476     3.49      873.206     56.18788     325.0405        17     1.296     0.793  54.30   0
       611    395.4160    119.3534 307.7732053  +6.6494330     2083.656     2948.153     3074.598     79.39807     159.3043     318.5134      1.555     3.27     879.7045     56.18788     347.6637        18     1.278     0.807  64.21   0
       612    242.6911    120.9090 307.8366055  +6.6436512     876.6533     1264.421     1448.309     79.90541     159.9372     318.8621      1.578     5.33     889.8113     56.18788      116.161        10     0.977     0.820  55.61   0
       613    143.5527    116.2434 307.8779511  +6.6422368     3685.182     5049.567     5181.865     79.90541     159.3677     318.7037      1.522     3.42     890.7495     56.18788     489.1002        20     1.375     0.796  58.89   0
       614     25.3378    114.1082 307.9271361  +6.6391306     13832.81     19694.82     20970.25     79.90541     159.5578     318.8621      1.520     3.43     897.1951     56.18788     1930.481        36     1.448     0.976  62.96   0
       615    291.6494    114.7131 307.8164739  +6.6478576     1461.406     1973.747     2202.189     79.90541     159.3677     318.8621      1.525     3.60     888.7444     56.18788     204.6132        12     1.066     0.732  54.37   0
       616    760.2682    113.4454 307.6218127  +6.6641175     799.5784     1047.443     1742.211     79.90541     159.3677     318.7988      2.085     4.52     872.4474     56.18788     139.9637         8     1.176     0.494  64.59   0
       617    552.1238    113.4026 307.7082966  +6.6571550     1052.482     1472.691     1554.404     79.39806     158.9233     318.6403      1.512     4.84     873.2708     56.18788     152.7804         9     1.109     0.598  54.21   0
       618    154.9942    113.0102 307.8733068  +6.6439573     435.9876      545.641     634.0825     79.39806     159.2408     318.6403      1.255     3.79     890.4229     56.18788     74.77856         5     0.651     0.634   0.15   0
       619     97.2998    109.6293 307.8973906  +6.6434077     630.9366     880.3383     730.7974     79.90541     159.1774     318.8304      1.434     4.09     891.6053     56.18788     130.3428         7     1.196     0.570  71.49   0
       620    894.0662    109.8760 307.5663392  +6.6700702     731.1698      1000.74     837.3954     80.03174     159.4944     318.7354      1.365     2.97     868.5554     56.18788     128.1022         8     0.835     0.640  47.12   0
       621    827.0637    108.7433 307.5942170  +6.6682956     7199.453     9559.013     9985.705     80.03174     159.3677     318.7988      1.394     3.53     870.7384     56.18788     1127.268        26     1.349     0.809  58.26   0
       622    772.2298    109.1350 307.6169874  +6.6662978     3735.032     4665.668     4806.097     79.65214     159.4944     318.7037      1.338     3.36     872.1384     56.18788     602.5186        17     1.219     0.727  62.81   0
       623    417.2866    109.5193 307.7644499  +6.6542283     1322.543     1707.583      1294.74     79.65215     159.6843     318.8938      1.515     4.66      877.407     56.18788     172.7906        12     1.084     0.781  64.55   0
       624    917.8276    108.6559 307.5565071  +6.6713687     587.4838     733.2812     389.5959     79.52521     159.4944     318.6403      1.467     3.87     867.9731     56.18788     105.9494         6     1.235     0.347  60.35   0
       625    565.2066    113.7784 307.7028482  +6.6574390     709.9111      789.264      1187.72     79.52521     159.2408     318.5768      1.399     3.90      873.173     56.18788     108.2265         6     1.074     0.621  79.57   0
       626    534.2336    106.9229 307.7159477  +6.6592294     1314.701     1718.636     1921.543     79.77888     159.4311     318.7354      1.420     4.09      873.382     56.18788     210.9336        13     1.233     0.692  60.64   0
       627     50.1458    106.7488 307.9170784  +6.6430060     1049.635     1425.192     991.6733     80.03174     159.4311     318.7988      1.441     4.68     895.1208     56.18788     142.1393        11     1.191     0.628  62.36   0
       628     65.6792    105.8655 307.9106548  +6.6438948     3606.315     5243.627     5242.649     80.15788     159.5578     318.7354      1.553     3.57     893.8451     56.18788     507.9756        19     1.321     0.814  57.38   0
       629    426.8783    105.5349 307.7605989  +6.6561957     1076.515     1437.672     1546.508     80.15788     159.4944     318.7354      1.384     4.68     876.8785     56.18788     165.8533         9     1.112     0.559  60.69   0
       630      8.2087    101.3140 307.9346851  +6.6438342     3055.532     5063.938     8226.985     79.52521     159.1139     318.0373      2.682     3.89     898.3034     56.18788     414.6563        25     1.549     0.925  59.85  24
       631    589.5059    102.6346 307.6931268  +6.6628553     1428.406     1947.516     1987.308     80.03175     159.3043     318.8621      1.495     3.44     872.5404     56.18788     200.9167        11     1.116     0.663  61.50   0
       632    766.7078     96.5342 307.6197047  +6.6713151      2362.03     3153.496     2865.767     79.90541      159.621     318.7671      1.410     3.72      871.668     56.18788     360.0048        15     1.230     0.664  65.13   0
       633    407.3768     96.2587 307.7690139  +6.6593697     1118.128     1542.827     1599.933     79.52521     159.4311     318.6403      1.403     5.01     878.5518     56.18788      181.678        12     1.240     0.676  63.84   0
       634    168.4813     97.1677 307.8682384  +6.6509523      538.762     740.5649     471.3184     79.77888     159.3677     318.7354      1.738     4.20     889.9847     56.18788     69.81604         6     1.062     0.473  30.66   0
       635    104.7526     95.4022 307.8947750  +6.6495325      924.657     1442.972     1159.424     79.27073     159.1139     318.3548      1.687     4.11     890.8589     56.18788     156.7616        11     1.163     0.696  66.63   0
       636     80.7559     97.0355 307.9046895  +6.6480488      812.718     1179.812     568.4184     79.65214     159.3677     318.6403      1.438     3.84     892.3256     56.18788     144.4314         6     0.927     0.457  50.10   0
       637     93.4183     90.2121 307.8996594  +6.6512929     10523.53     14976.98     15353.63     79.65215     159.1139      318.672      1.537     3.43     891.1859     56.18788      1455.99        31     1.405     0.936  62.60   0
       638    422.4971     90.1136 307.7629386  +6.6624150     2800.871     3976.151     3725.393     79.90541     159.8108     318.7988      1.467     3.48     877.1812     56.18788     384.0417        19     1.287     0.855  58.71   0
       639    243.9753     90.1904 307.8371083  +6.6563764     642.9297     1004.194     956.7882     79.52521     159.2408     318.6403      1.612     4.26     889.6722     56.18788     126.2368         5     0.889     0.581 -87.47   0
       640    636.1783     82.3204 307.6744175  +6.6728079     20800.23     28525.15     29884.02     79.52521     159.1139     318.7354      1.460     3.33     871.3853     56.18788     3252.628        45     1.439     0.965  65.21   0
       641    260.1230     84.1467 307.8306033  +6.6594153     1590.416      2312.42     2846.375     80.03174     159.4311     318.7671      1.579     4.04     889.4489     56.18788     251.2601        14     1.316     0.670  74.19   0
       642    665.9458     83.3362 307.6620149  +6.6733869     728.0209     681.9681     830.9166     79.90541     159.3677     318.7354      1.153     3.53     871.3425     56.18788     127.3287         8     0.955     0.594  66.84   0
       643    945.6219     81.8080 307.5458579  +6.6833825     487.6377     734.5262     424.5563     79.52521     159.2408     318.5451      1.420     3.51     866.4783     56.18788     74.74658         5     0.801     0.443  72.91   0
       644    535.9249     78.2940 307.7162082  +6.6711057     5900.917     8092.901     8090.677     79.77888      159.621     318.7354      1.467     3.65     872.7188     56.18788     913.8275        23     1.314     0.849  58.83   0
       645    254.2809     78.6531 307.8332159  +6.6614865     2123.643     3037.355     3993.804     79.90541     159.4311     318.8304      1.538     3.95     889.4786     56.18788     267.1353        18     1.293     0.844  63.22   0
       646    692.0016     77.3036 307.6513913  +6.6767511     572.4377     929.6035     1170.541     79.39806     159.1774     318.4182      2.018     5.78     871.0273     56.18788     123.7841         6     1.281     0.734  83.63   0
       647    622.4206     72.2015 307.6804740  +6.6765240     3603.898     5269.716     6332.961     79.52521     159.1139     318.4817      1.669     3.60     871.0462     56.18788     533.2968        19     1.370     0.748  64.13   2
       648    441.4979     73.9408 307.7555887  +6.6697306     25878.39     36631.29      37914.1     79.65214     159.3677     318.8938      1.499     3.33     875.9838     56.18788     3691.213        46     1.454     0.998  62.21   0
       649      3.5145     76.5913 307.9374714  +6.6538821     1298.404     1729.688     1510.245     79.52521     153.2271     273.0523      1.405     3.30     896.3344     56.18788     191.4987        12     1.029     0.748  56.50  16
       650    321.9371     74.6310 307.8052416  +6.6654246     1182.781     1836.859     2193.544     79.65214     159.4944     318.7354      1.618     4.94       886.95     56.18788     168.7697        11     1.365     0.562  52.86   0
       651    262.0982     74.3252 307.8301140  +6.6635365     10316.39     14900.25     15921.33     79.39806     159.5578     318.7354      1.518     3.46     889.3748     56.18788     1557.708        35     1.422     0.997  60.81   0
       652    919.4051     74.0783 307.5570105  +6.6856971     2357.007      2901.04     3205.095     79.52521     158.9233     318.5451      1.254     3.16     867.0971     56.18788     425.6392        15     1.201     0.656  59.56   0
       653     27.5445     73.9269 307.9275780  +6.6557932     2608.396     3492.308     3010.675     79.77888     159.3043     318.7037      1.439     3.32     894.5983     56.18788     382.2875        20     1.332     0.834  59.46   0
       654    554.9081     73.5825 307.7084792  +6.6736882     727.5172     1009.305     507.5954     79.65214     159.1774     318.6403      1.667     5.32     872.3323     56.18788      107.551         9     1.248     0.749  64.12   0
       655    250.0914     70.9276 307.8352172  +6.6645348     3469.064     5027.443     6022.452     79.77888      159.621     318.7671      1.550     3.64     889.4562     56.18788     471.1927        22     1.314     0.889  64.69   0
       656    303.2098     69.1121 307.8132086  +6.6670727     1161.644     1713.313     2328.848     79.52521     159.1139     318.5768      1.717     3.83     888.2251     56.18788     184.9724        12     1.230     0.676  65.13   0
       657    939.9341     64.1556 307.5488128  +6.6904803     1243.058     1464.489     1269.087     79.90541     159.3677     318.7988      1.301     4.07     866.2592     56.18788     187.4167         9     1.063     0.606  38.96   0
       658    691.5737     63.7344 307.6520249  +6.6823388     2248.296     2916.264     2649.073     79.52521     159.3677      318.672      1.345     3.36      870.402     56.18788     340.7448        16     1.263     0.723  53.12   0
       659     96.1960     64.2973 307.8993810  +6.6620851     677.9144      971.091     1064.323     79.65215     159.1139       318.45      1.249     2.98     890.4254     56.18788     131.4371         5     0.902     0.390 -84.92   0
       660    202.8041     59.3236 307.8552558  +6.6677325     858.2349     1142.319     929.7795     79.52521     158.9233     318.6086      1.424     4.79     889.5085     56.18788     129.9232         9     0.991     0.658  65.46   0
       661    257.0917     58.4213 307.8327306  +6.6699337     1018.778     1507.214     2439.258     79.77888     159.2408     318.6086      1.583     4.98      889.318     56.18788     143.2839        11     1.195     0.631  72.70   0
       662    179.6129     56.2949 307.8649935  +6.6682013     11781.53     16512.05     16795.34     79.65215     159.1774     318.6086      1.520     3.45     889.4709     56.18788      1649.74        34     1.453     0.923  64.97   0
       663    925.1995     54.1889 307.5552695  +6.6941024     4711.699     6429.129     6670.323     79.52521     159.1139     318.5768      1.389     3.27     866.6818     56.18788     743.8859        23     1.253     0.829  61.56   0
       664    523.8761     54.5548 307.7220132  +6.6805017     3386.197     4761.956     4807.974     79.77888     159.4944     318.7988      1.522     3.65     872.3072     56.18788     540.3719        21     1.309     0.831  62.21   0
       665    726.0935     52.8000 307.6380487  +6.6880102     2424.964      3351.66     2937.589     79.39806     159.0504     318.4182      1.414     3.20     869.8679     56.18788     377.1456        16     1.225     0.765  55.31   0
       666    462.1419     53.0731 307.7477138  +6.6790396     2072.684     2536.474     2530.056     80.03174     159.4311     318.7354      1.379     3.53     874.2445     56.18788     283.4141        15     1.155     0.757  58.77   0
       667     80.9735     52.9901 307.9060877  +6.6662396     555.4688     752.6469     1269.111     79.52521     159.2408     318.6403      2.040     5.58     890.7598     56.18788     111.8902         6     1.196     0.734 -89.71   0
       668    989.8865     50.3731 307.5285181  +6.6978404     2274.537     3413.001     2928.775     80.03174     159.2408      318.672      1.507     4.34     862.9117     56.18788     360.6415        17     1.305     0.806  75.44   0
       669    785.0526     49.9944 307.6136444  +6.6911438     562.6652     714.9176     355.8454     79.39806     159.1774     318.4182      1.362     3.71     868.3314     56.18788     92.82178         5     1.018     0.389  58.80   0
       670    709.3459     46.9167 307.6452052  +6.6898778     8483.917     11449.95     12103.76     79.90541     159.4311     318.8621      1.385     3.18     869.5826     56.18788     1274.273        28     1.357     0.860  62.37   0
       671    629.6492     46.1516 307.6783462  +6.6875212     4210.254     5987.999     6046.697     79.90541     159.3043     318.7671      1.479     3.23     869.9748     56.18788     713.2736        23     1.329     0.860  63.31   0
       672    331.5952     45.5037 307.8022108  +6.6777746     936.3883     1488.848     1949.346     79.65215     159.1139     318.5134      2.002     4.81     886.4972     56.18788     122.6315         9     1.214     0.540  60.94   0
       673    429.7621     42.3756 307.7615279  +6.6823677      6995.44     9539.493     9432.018     79.52521     159.2408     318.5768      1.451     3.38      876.951     56.18788     1080.231        27     1.349     0.872  60.85   0
       674    385.4073     43.9937 307.7799029  +6.6802083     876.9688     1358.722      1002.25     79.27072     159.2408     318.6086      1.546     3.95     881.6522     56.18788     139.1089         7     0.852     0.588  65.33   0
       675     30.7344     41.9283 307.9273347  +6.6691109     9577.371     13247.03     13678.25     79.90541     159.4944     318.8304      1.468     3.34     891.6951     56.18788     1442.092        30     1.366     0.908  64.46   0
       676    676.3994     41.1144 307.6590900  +6.6911688     1109.788     1382.381     1459.325     79.14317     158.9233       318.45      1.352     3.67     869.2969     56.18788     167.4953        10     1.057     0.629  55.53   0
       677    505.1810     39.3365 307.7302933  +6.6861567     1086.742     1669.257     2043.347     79.52521     159.4311     318.6086      1.615     4.84     872.1343     56.18788     165.1147        11     1.305     0.824  72.53   0
       678    326.3381     37.3187 307.8046711  +6.6809768     14662.97     20457.89     21621.24     80.03175     159.4311     318.7354      1.514     3.39     886.9222     56.18788      2069.02        38     1.433     1.008  62.46   0
       679     99.8657     37.5085 307.8987616  +6.6732682     2861.956     4045.022     3987.045     79.77888      159.621     318.7671      1.485     3.66     889.8359     56.18788     393.3153        19     1.315     0.799  58.41   0
       680    421.4510     37.9270 307.7651311  +6.6839248      891.485     1174.652     1281.759     79.90541     159.4944     318.7988      1.300     3.79     877.7895     56.18788     138.1552         8     0.892     0.656  45.71   0
       681    794.8015     36.2500 307.6100547  +6.6971447     1048.469     1179.786     1107.084     79.27072     159.0504     318.3548      1.247     3.41     867.0446     56.18788     184.2461         8     0.963     0.549  74.37   0
       682     91.3256     36.5445 307.9023424  +6.6733781     1721.977     2371.656      2362.75     79.77888     159.3677     318.7037      1.418     3.43     889.9747     56.18788     244.5176        15     1.152     0.821  65.15   0
       683    461.2559     35.7380 307.7486656  +6.6861665     605.4277      811.538     422.9893     80.03174     159.4311     318.7988      1.570     3.53     874.1422     56.18788     111.4343         7     0.959     0.634  77.38   0
       684    392.4857     35.2865 307.7772552  +6.6840410     2656.161     3599.481     3443.516     79.65215      159.621     318.8304      1.484     3.36     880.9773     56.18788     388.7141        16     1.223     0.762  57.37   0
       685    987.5436     32.2493 307.5300988  +6.7052446      745.569     1160.396      1186.95     79.90541     159.4311     318.8304      1.550     4.06     861.9495     56.18788     124.5532         7     1.007     0.467  78.84   0
       686    653.3160     30.8358 307.6690270  +6.6946382     12457.73     16926.11     17804.22     79.90541     159.4311     318.7354      1.407     3.35     869.0775     56.18788     1811.639        32     1.371     0.866  59.84   0
       687    530.8378     30.7835 307.7199205  +6.6905494     1590.888     2226.362     2172.713     79.52521     159.3043     318.5134      1.451     4.00     871.6941     56.18788     235.6327        14     1.187     0.872  76.32   0
       688     71.4720     31.3130 307.9107680  +6.6748681     789.1849      1060.93     1446.907     80.03175     159.6843     318.7671      1.434     4.15      890.133     56.18788     146.1921         7     1.187     0.413  50.35   0
       689    818.1275     30.3243 307.6005610  +6.7003722      1774.76     2407.278     2842.889     80.15788     159.6843     318.7671      1.471     3.55     866.4304     56.18788     293.2158        13     1.279     0.635  54.97   0
       690    253.6980     27.5134 307.8351835  +6.6825794     6994.521     10499.84      11170.8     79.90541      159.874     318.8304      1.706     3.43     889.1291     56.18788         1012        40     1.500     1.339 -19.24   0
       691    888.3351     28.3396 307.5714542  +6.7035414     1705.766     2326.387     2098.043     79.90541     159.3677     318.7988      1.395     3.49     866.3839     56.18788     268.5475        13     1.234     0.626  56.51   0
       692    644.9124     26.2131 307.6726743  +6.6962648     10400.88     14278.41     15315.33     79.52521     159.2408      318.672      1.432     3.41     868.9692     56.18788     1657.912        32     1.361     0.898  63.27   0
       693    429.9554     28.2755 307.7619225  +6.6881953     580.0574     893.6916     1073.352     79.77888     159.4944     318.7988      1.489     2.95     877.0306     56.18788     102.7615         5     0.781     0.493  55.82   0
       694    414.7870     26.2542 307.7682932  +6.6885198     9225.082     12644.19     13174.99     79.27072     159.3677     318.5134      1.465     3.36     878.5261     56.18788     1385.292        28     1.336     0.892  60.77   0
       695    674.7941     25.5347 307.6602805  +6.6975471     9193.687     12597.56     13620.99     79.39807     159.1774     318.5768      1.432     3.30     868.5736     56.18788     1494.148        24     1.322     0.836  61.30   3
       696    917.3944   1015.0771 307.5263298  +6.2971223      44443.2     69150.12     72717.78     79.52521     158.9233     318.6086      1.654     3.57     898.3822     56.18788     5718.693        66     1.628     1.167  61.89  16
       697    730.6273     24.9763 307.6370992  +6.6996492     2187.804     3152.708      3103.25     79.39806     159.3043     318.6086      1.428     3.61     868.5287     56.18788     364.6266        16     1.316     0.794  38.68   0
       698    156.8710     24.9915 307.8754996  +6.6803580     586.3824     727.2291     904.6541     79.39806     158.9869     318.6403      1.443     3.88     889.1154     56.18788     103.1384         5     0.840     0.513  28.28   0
       699    654.3007     22.2425 307.6689066  +6.6982190     3639.124     5192.323     6187.319     79.90541     159.3043     318.9888      1.512     3.23     868.6642     56.18788     569.2398        20     1.330     0.785  56.92   0
       700    193.5822     22.9300 307.8603160  +6.6824464     1194.072     2004.845     1358.389     79.39806     159.3043     318.7037      1.731     4.81     889.0574     56.18788     196.1464        14     1.281     1.134  10.78   0
       701    224.7833   1013.2920 307.8139532  +6.2746287     1882.299     2797.432      3134.13     79.65215     159.2408      318.672      1.647     4.26     910.2387     56.18788     271.3972        14     1.248     0.746  71.63   0
       702    943.3878     18.6898 307.5489014  +6.7093667     944.2581     1276.789     987.4122     79.65215     159.1774     318.6086      1.357     2.95     864.9182     56.18788     155.9856         6     0.819     0.506  47.38   0
       703    763.4833   1006.9545 307.5905060  +6.2953272     7174.804     10757.38     12064.73     79.90541     159.4311     318.7671      1.666     3.71     902.2858     56.18788     1074.388        36     1.668     1.068  83.86   0
       704    623.9553   1011.4976 307.6482852  +6.2887772     1030.143      1505.41     1210.374     79.90541     159.3677     318.9572      1.626     5.28     905.9337     56.18788     141.0233        12     1.185     0.732  37.97   0
       705    112.8170   1012.3185 307.8604703  +6.2712605      580.662      650.959     845.3696     79.52521     159.1139     318.6403      1.190     3.12     908.4686     56.18788     130.2319         5     0.926     0.352  47.53   0
       706    815.4547   1008.8935 307.5688625  +6.2962661     2553.165     3840.245     3809.832     79.77888     159.4311     318.9572      1.585     3.74     900.9669     56.18788     332.4598        19     1.291     0.881  68.58   0
       707    550.3438   1006.2338 307.6790247  +6.2884819     1061.587     1547.759      1678.83     79.77888     159.4311     318.7671      1.470     3.45     905.8954     56.18788     229.1779         8     0.973     0.594  74.07   0
       708    233.1552   1005.7656 307.8107310  +6.2780177     1479.953     1886.341     1875.412     79.52521     159.3677     318.6403      1.467     5.15     910.1077     56.18788      219.792        12     1.311     0.627  53.26   0
       709    197.3382   1005.5393 307.8256088  +6.2769057     765.3724      1176.44      1353.29     79.90541     159.4311     318.7988      1.692     4.93     909.4225     56.18788     104.5264         9     1.407     0.488  55.79   0
       710    951.7730   1001.8875 307.5124969  +6.3037169     6976.787     10797.99     11263.69     80.03174     159.1774      318.672      1.646     3.62     897.0391     56.18788     894.2294        35     1.480     1.075  63.60   0
       711     57.9696   1003.7127 307.8835311  +6.2729650     2959.634     4224.455      4478.55     80.03174     159.2408      318.672      1.542     3.79     908.3234     56.18788     383.7029        21     1.346     0.839  59.40   0
       712    207.6219    998.3101 307.8215829  +6.2802364     598.2583     776.5346     776.1418     79.90541     159.2408     318.6403      1.549     5.78     909.5828     56.18788     86.69043         7     1.058     0.888  83.93   0
       713    633.9565    996.1743 307.6446470  +6.2954389     797.3543     968.7464     1144.665     79.52521     159.4944      318.672      1.306     4.01      905.504     56.18788     167.2456         9     1.097     0.700  88.50   0
