#   1 NUMBER                 Running object number                                     
#   2 X_IMAGE                Object position along x                                    [pixel]
#   3 Y_IMAGE                Object position along y                                    [pixel]
#   4 ALPHA_J2000            Right ascension of barycenter (J2000)                      [deg]
#   5 DELTA_J2000            Declination of barycenter (J2000)                          [deg]
#   6 FLUX_APER              Flux vector within fixed circular aperture(s)              [count]
#   9 FLUXERR_APER           RMS error vector for aperture flux(es)                     [count]
#  12 FLUX_RADIUS            Fraction-of-light radii                                    [pixel]
#  13 FWHM_IMAGE             FWHM assuming a gaussian core                              [pixel]
#  14 BACKGROUND             Background at centroid position                            [count]
#  15 THRESHOLD              Detection threshold above background                       [count]
#  16 FLUX_MAX               Peak flux above background                                 [count]
#  17 ISOAREA_IMAGE          Isophotal area above Analysis threshold                    [pixel**2]
#  18 A_IMAGE                Profile RMS along major axis                               [pixel]
#  19 B_IMAGE                Profile RMS along minor axis                               [pixel]
#  20 THETA_IMAGE            Position angle (CCW/x)                                     [deg]
#  21 FLAGS                  Extraction flags                                          
         1    713.6107     17.9215 307.6450886  +6.6899949     7860.317     11419.74     11440.09     77.78316     155.5663     311.6292      1.552     3.86     824.9542     54.95705     1101.989        29     1.422     0.906 -45.56   0
         2    633.8811     17.0580 307.6782472  +6.6876812     3768.671     5593.334     6122.833     78.15503     155.9386     311.8153      1.563     3.95     825.7037     54.95705     604.3087        21     1.415     0.799 -47.30   0
         3    434.0156     13.4188 307.7614174  +6.6824803     6575.288     9929.881      10775.5     77.90731     155.6905     311.6913      1.610     4.14     827.3297     54.95705     937.9904        33     1.532     0.931 -43.71   0
         4     34.9526     12.9839 307.9272430  +6.6692339      8822.08     13262.54     13897.71     77.65881     155.8766     311.5362      1.567     3.82     832.6229     54.95705     1210.966        36     1.558     0.944 -46.03   0
         5    681.0198     12.1169 307.6588259  +6.6913002     833.1028     1421.337     1314.314     77.78316     155.6284     311.7223      1.600     5.12     824.7131     54.95705     138.1108         9     1.324     0.560 -52.71   0
         6    509.8435     10.5377 307.7300066  +6.6862147     1036.729     1517.167     1557.472     78.15503     155.8766     311.8773      1.538     5.79     825.9092     54.95705     139.6132        14     1.408     0.670 -36.81   0
         7    330.5306      8.3700 307.8045866  +6.6810884     13729.21     20502.49     21773.09     78.03127     155.9386     311.5052      1.651     3.93     833.5991     54.95705     1985.514        39     1.573     0.972 -45.80  16
         8    425.4305      8.9110 307.7651364  +6.6840532     852.8564     1186.779     1787.235     78.27859     155.7526     311.7223      1.868     5.47     827.5223     54.95705     111.4745        11     1.143     0.806 -71.61   0
         9    104.1536      8.5853 307.8986393  +6.6733820     2646.967     3804.715     4052.466     77.53425     155.7526     311.5362      1.528     4.37     833.2111     54.95705     346.0825        16     1.338     0.726 -35.86  16
        10    799.2026      7.1691 307.6098833  +6.6972984     1029.472     1473.223     1506.631     77.53425     155.7526     305.3318      1.415     4.19     824.2079     54.95705     148.0237        11     1.191     0.680 -45.69  16
        11     95.4879      7.5719 307.9022741  +6.6735084     1682.118      2398.27     2349.496     78.27859     155.6905     307.9792      1.563     4.35     833.1297     54.95705     271.5562        13     1.226     0.689 -43.31  16
        12    464.8403      5.9597 307.7488603  +6.6865947     554.5143     803.1298     797.5532     77.90731     156.0625     295.3235      1.692     5.19     826.3668     54.95705     78.65527         6     1.143     0.665 -81.24  16
        13    396.8101      6.2892 307.7771168  +6.6841745     2388.928     3515.026     3938.608     77.90731     155.6284     298.2867      1.650     3.92     829.3483     54.95705     369.5396        21     1.420     0.860 -38.61  16
        14    991.4744      3.5329 307.5301088  +6.7052241     660.0323     936.6645     1069.539     78.27859     150.5141     267.2879      1.362     4.43      820.142     54.95705     117.7105         7     1.075     0.519 -45.86  16
        15    821.8367      1.8150 307.6006576  +6.7002659     1424.696     1933.092     2230.736     73.30537      130.867     242.2104      1.463     4.61     824.0216     54.95705     240.9579        13     1.071     1.026 -15.16  24
        16    657.4611      2.1494 307.6689499  +6.6946265     11301.31     14515.81     14715.75     76.40414     135.3685     247.3824      1.407     3.92     824.8049     54.95705     1613.461        26     1.361     0.828 -28.60  24
        17     75.1748      3.0337 307.9108673  +6.6746976     664.7864     947.6764     882.2056     77.53425     145.6849     260.4013      1.401     4.33     832.5533     54.95705     107.1936         6     0.948     0.562 -25.62  16
        18    535.1219      1.7428 307.7197987  +6.6906938     1201.262     1309.356     1205.894     72.90877     129.9778     241.1306      1.222     3.84      825.606     54.95705     190.8762        10     1.001     0.666 -28.55  24
        19    256.6020      1.0910 307.8355499  +6.6816079     733.8636     872.2974      1131.66     63.86378     119.9223     230.3061      0.940     2.41     834.6818     54.95705     216.8561         5     0.890     0.284   2.92  24
        20    395.5233    992.9702 307.7444544  +6.2767544     534.6926     855.8769     707.6967     78.03127     156.0006     311.8153      1.693     4.78     858.4365     54.95705     83.30817         5     1.231     0.527 -39.71   0
        21    962.0163   1023.0308 307.5082425  +6.2833014     4749.358     7062.058      7387.44     74.61217     132.7005     244.7113      1.540     4.50     852.0397     54.95705     615.0208        24     1.483     0.879 -13.93  24
        22    721.4690   1021.8677 307.6081556  +6.2757443     2865.116     4600.297     4836.234     78.15503     146.8742     261.8448      1.742     4.27     857.3466     54.95705     339.6034        27     1.526     1.043 -47.70  26
        23    716.2901   1023.7056 307.6102442  +6.2748121     596.3232      693.819     1076.556      67.5413     123.6521     234.0112      1.039     3.79     857.3431     54.95705     143.2607         5     0.986     0.419  -7.97  27
        24    444.6419   1022.5434 307.7230673  +6.2661922     952.4553       1392.2     1073.003     78.03127     139.3787      252.257      1.536     4.01      859.188     54.95705     142.2083        11     1.115     0.749 -25.86  24
        25    246.5008   1023.2892 307.8053048  +6.2592316     1135.374     1492.541     1404.952     72.24292     129.7545     240.6491      1.314     4.37     857.9755     54.95705     183.5117        13     1.277     0.678 -16.11  24
        26    921.7304    986.1118 307.5262038  +6.2972001     40309.86     68675.52     72888.99     78.15503     156.1863     311.7843      1.826     4.00      853.567     54.95705     4712.571        72     1.716     1.302 -48.51   0
        27    326.6022    987.3964 307.7732567  +6.2767419     572.3353     741.0797     764.6757     77.53425     155.5042     311.5362      1.570     3.89     858.1432     54.95705     72.63123         5     0.999     0.433 -75.36   0
        28    229.1481    984.2991 307.8138220  +6.2747464     1651.251     2648.835     2910.007     78.15503     155.9386     312.0012      1.783     4.88     857.2379     54.95705     226.6793        18     1.623     0.723 -48.36   0
        29    627.9214    982.7016 307.6483092  +6.2887845     853.4209     1277.252     1141.373     77.78316     156.1863     311.8153      1.534     3.35     857.8903     54.95705     126.8855         9     0.890     0.691 -61.74   0
        30    116.9637    983.3395 307.8604303  +6.2713695     718.0603     936.3843     572.5408     78.15503     155.9386     311.7533      1.288     4.21     855.6642     54.95705     110.8731         7     0.755     0.670 -12.41   0
        31    767.9011    977.8223 307.5903526  +6.2954829      6469.76     10476.62     11742.24     78.03127     155.6905     311.5672      1.740     3.95     856.1945     54.95705     803.4406        37     1.603     1.120 -49.86   0
        32    819.7230    979.7960 307.5687696  +6.2964004     2243.864      3768.11      3729.29     77.78316      155.442     311.6292      1.725     4.21     855.5612     54.95705     286.3463        24     1.460     1.012 -46.75   0
        33    554.3932    977.1584 307.6790240  +6.2886103     975.5374     1542.112     1940.056     77.53425     155.6284     311.5052      1.595     4.67     858.1386     54.95705     159.4973        11     1.187     0.625 -35.50   0
        34    237.3036    976.8987 307.8106852  +6.2780759      1467.38     2440.411     2884.322     78.15503     156.4337     311.6292      1.882     4.22     857.2017     54.95705     213.5544        15     1.297     0.760 -49.05   0
        35    201.3306    976.4673 307.8256350  +6.2770447     790.3885     1211.786     913.8259     78.15503     156.0625     311.7843      1.567     5.56     856.6588     54.95705      111.117        11     1.291     0.676 -45.09   0
        36     62.1187    974.9489 307.8834833  +6.2729876     2571.669      4247.73     4467.616     78.15503     155.9386     311.7843      1.753     4.82     854.8808     54.95705     373.3397        22     1.548     0.818 -49.12   0
        37    956.1071    972.8405 307.5123739  +6.3038273     6233.116     10607.33     11366.96     78.27859     155.8766     311.8773      1.810     4.21     851.9734     54.95705     725.1985        37     1.579     1.148 -45.06   0
        38    638.6458    967.1822 307.6443769  +6.2955513     834.3547     1117.101      629.888     77.65881     155.8146     311.5362      1.431     4.89     857.4501     54.95705     106.8196        10     1.017     0.765 -49.06   0
        39    929.8504    964.4562 307.5235564  +6.3064126     2030.442     3580.542     4384.631     78.15503     155.9386     311.7843      1.923     4.25     852.9853     54.95705      271.371        23     1.386     1.062 -46.19   0
        40    789.5380    961.0208 307.5819314  +6.3031435      1394.46     1956.048     1943.584     77.78316     155.9386     311.6602      1.471     4.99     855.4342     54.95705     202.5266        14     1.346     0.758 -47.46   0
        41    650.5964    960.4149 307.6396419  +6.2987455     4646.051     7181.761     6937.407     77.78316     155.5663     311.6292      1.660     3.93     857.2077     54.95705     615.7019        28     1.464     0.997 -41.09   0
        42    262.7045    960.5355 307.8006900  +6.2856855     4387.802     6874.042     6941.639     78.03127     156.0625     311.8153      1.661     4.02     857.2832     54.95705     587.2588        28     1.541     0.921 -49.85   0
        43    999.8568    960.6437 307.4946158  +6.3103231     563.0491      839.538     921.4202     78.03127     155.9386     311.7843      1.603     5.18     850.0763     54.95705     91.81628         7     1.148     0.661 -42.80   0
        44    472.5223    958.7639 307.7136345  +6.2934605      1169.52     1823.493     1832.738     78.03127     156.0006     311.7843      1.709     5.18     857.5848     54.95705     148.9156        14     1.313     0.741 -48.67   0
        45     31.4113    957.9671 307.8968050  +6.2789648     2160.927     3330.069     3009.576     77.65881     155.6905     311.6292      1.627     4.26     854.3161     54.95705     305.2141        21     1.496     0.876 -40.34   0
        46    882.3596    957.1639 307.5435194  +6.3078377     923.4683     1353.605     1429.092     77.90731     155.9386     311.6292      1.471     3.54     854.0563     54.95705     132.4247         8     0.971     0.602 -31.93   0
        47    953.7311    953.6794 307.5140010  +6.3116594     598.8662     1043.137     772.3178     78.27859     156.1245     311.7533      1.869     4.49     851.9041     54.95705     101.3511         6     1.093     0.525 -38.11   2
        48    298.8000    954.0685 307.7859212  +6.2895683     842.2419         1213     896.1489      77.6588      155.442     311.5672      1.420     4.84     857.6183     54.95705     129.2116         9     1.170     0.568 -61.61   0
        49    975.1356    954.5385 307.5050847  +6.3120190     480.2846     823.0466     600.1702     78.15503     155.9386     311.8153      1.599     5.37     851.0782     54.95705     77.08606         6     1.458     0.558 -20.04   0
        50    575.1649    952.9005 307.6712138  +6.2993219     1778.142     2729.555      2419.24     78.15503     155.8146     311.9392      1.618     4.27     857.5724     54.95705     260.6602        18     1.431     0.767 -42.01   0
        51     64.0780    950.0894 307.8835083  +6.2833173     764.8264     1321.944     1569.459     77.90731     156.1863     311.9082      1.654     5.19     854.3607     54.95705      105.626         9     1.170     0.650 -70.76   0
        52    614.3416    949.3502 307.6550664  +6.3021000     1359.965     1828.996     1701.135     78.15503     155.9386     311.8153      1.455     4.38     857.4106     54.95705     193.5673        12     1.194     0.668 -46.46   0
        53    294.3096    947.0262 307.7880226  +6.2923251     1471.974     2123.315     2293.793     78.27859     155.6905     311.6292      1.610     4.28     857.5314     54.95705     199.8152        14     1.309     0.713 -56.60   0
        54    562.1099    945.0406 307.6768981  +6.3021297     694.4141     1014.327     806.2902     78.15503     155.9386     311.8153      1.426     4.04     857.3966     54.95705     137.4332         6     1.001     0.465 -37.98   0
        55    761.2195    942.9487 307.5942951  +6.3096584     922.6058     1700.171      1549.37     77.65881     156.0006     311.5982      1.902     6.14     855.6664     54.95705     130.2755        15     1.415     0.873 -52.83   0
        56    136.7774    941.2520 307.8536229  +6.2894128     660.3239     917.5402      1585.82     77.65881     155.9386     311.6602      1.677     5.56     855.1119     54.95705     107.0044        11     1.343     0.649 -55.53   0
        57    434.6556    936.8922 307.7300918  +6.3012208     2117.265     3101.383     3122.968     78.03127     155.8146     311.9082      1.577     3.68     857.0336     54.95705     326.2269        20     1.368     0.898 -54.09   0
        58    336.3279    935.2265 307.7709738  +6.2986082      9748.76     14727.68     15274.08     77.78316     155.8146     311.6913      1.619     4.14     857.5887     54.95705     1289.871        36     1.519     0.960 -44.70   0
        59    256.4231    934.1385 307.8041867  +6.2963731     7363.263     11024.35     11307.02     77.78316     155.8766     311.6913      1.587     3.96     856.8369     54.95705     998.8344        29     1.540     0.873 -47.66   0
        60    584.4899    928.6266 307.6681566  +6.3096565     1277.693      1745.08     1913.212     78.27859     155.6905     311.6602      1.576     5.56      857.002     54.95705        156.7        13     1.220     0.776 -55.78   0
        61    898.7696    939.7416 307.5372885  +6.3155792     6799.185     11000.36     10959.91     77.90731     155.9386     311.7223      1.734     3.84     853.2305     54.95705     835.3522        37     1.613     1.074 -45.41   0
        62    914.5145    924.9134 307.5312468  +6.3222274     1160.173     1759.378     2010.311     77.90731     156.1245     311.8463      1.686     4.66     852.6811     54.95705     140.7821        14     1.310     0.752 -33.62   0
        63    218.4273    924.3659 307.8202915  +6.2991308     543.6732     987.4792     1404.925     77.65881     155.6905     311.5672      1.638     3.44     856.1237     54.95705     86.20874         5     1.144     0.298 -69.06   0
        64    147.3024    924.4662 307.8498188  +6.2966973     565.3797     913.0522     736.6012     78.15503     156.0006     311.8153      1.419     4.47     855.0251     54.95705     98.30975         6     1.228     0.464 -42.65   0
        65    870.6897    923.5179 307.5494909  +6.3213399      706.366     1139.711     362.2639     77.90731     156.1245     311.8463      1.750     6.33     853.2888     54.95705     93.90747         8     1.446     0.779 -17.46   0
        66    981.7725    921.2997 307.5034399  +6.3259645     647.8932     828.9506     961.2515     78.15503     155.6905     311.6913      1.314     3.42     850.5212     54.95705     113.4399         5     0.776     0.437 -12.50   0
        67    843.4772    919.0078 307.5609413  +6.3222930     502.6213     706.5162     289.8926     77.78316      155.442     311.5982      1.240     4.92     853.6589     54.95705     94.31152         6     1.206     0.569 -60.90   0
        68    750.8490    917.9699 307.5994380  +6.3196250      1661.39     2633.246     3132.439     77.78316     156.0006     311.6913      1.573     4.75     855.3553     54.95705     208.1906        16     1.444     0.705 -40.35   0
        69    574.6439    918.3657 307.6725892  +6.3135632     653.5877      867.813     731.1613     77.90731     155.9386     311.6602      1.580     4.95     856.9088     54.95705     85.98169         9     1.189     0.584 -45.84   0
        70    614.8281    914.5436 307.6560321  +6.3164874      928.659      1172.34     745.1882     77.78316     156.0006     311.6913      1.380     5.01     856.7904     54.95705     132.0953        10     1.276     0.592 -41.38   0
        71      1.8676    914.5010 307.9105378  +6.2959153     780.6646      1130.96     1237.459     73.83086     131.7503     243.2059      1.410     4.73     853.5038     54.95705     123.0963         9     1.067     0.596 -52.62  24
        72    982.1433    913.5296 307.5035456  +6.3291851     1314.819     2297.164      2743.81     78.27859     155.9386     311.7533      1.918     5.44     850.3299     54.95705      148.712        17     1.319     0.988 -34.09   0
        73    626.3243    913.8805 307.6512809  +6.3171461     680.1153     999.3516     1056.396     78.40197     156.1863     311.8773      1.600     5.66     856.7332     54.95705     102.2317         8     1.188     0.759 -57.73   0
        74    535.9935    913.5494 307.6887992  +6.3142567      1164.01     1750.949     2005.734     77.65881     155.7526     311.4121      1.795     4.42     856.9089     54.95705     167.9186        12     1.113     0.774 -39.72   0
        75    669.4723    911.2042 307.6334545  +6.3196957     2792.988     4068.885     3450.771     77.78316     155.5042     311.6292      1.576     3.80     856.4949     54.95705     399.0512        21     1.445     0.828 -41.00   0
        76   1021.0309    910.1557 307.4875108  +6.3318755     503.2039     873.4468     797.3004     77.78316     153.7541     272.9767      1.897     5.07      848.746     54.95705      71.8136         6     1.182     0.615 -19.29  16
        77    959.7848    909.5820 307.5129617  +6.3300689     688.9858     1203.081     1165.523     77.90731     155.6284     311.7223      2.082     5.27     851.0525     54.95705       122.63         7     1.396     0.562  38.78   0
        78    830.0564    907.9904 307.5668829  +6.3263934     749.2921     1315.243     1184.618     77.53425     155.8766     311.4741      1.717     6.57      853.699     54.95705     122.9619        10     1.505     0.804 -43.36   0
        79     65.9404    907.1817 307.8841825  +6.3010952     2982.038     4513.275     4760.912     77.78316     155.8146     311.5672      1.581     3.82     853.4541     54.95705     423.3461        21     1.339     0.897 -54.89   0
        80    209.6740    906.1796 307.8245385  +6.3063451      2201.75     3134.279     2774.456     77.78316     155.8146     311.7223      1.499     4.21     855.9012     54.95705     317.7783        17     1.363     0.728 -48.41   0
        81     83.5002    906.4767 307.8769155  +6.3019775     1750.948     2973.085     2870.581     77.65881     156.0625     311.8153      1.750     4.83     853.4865     54.95705     273.2236        16     1.383     0.852 -39.41   0
        82    947.9205    906.2177 307.5180007  +6.3310620      851.022      1237.85     1701.686     77.78316     155.6284     311.7223      1.471     5.63     851.4225     54.95705       111.03        10     1.189     0.752 -29.37   0
        83    243.7906    902.9790 307.8104809  +6.3088134     855.5899     1241.498     556.5404     77.78316     155.6284     311.5982      1.462     5.17     856.4827     54.95705     122.0323         9     1.221     0.619 -46.72   0
        84    664.0757    900.3345 307.6360598  +6.3240030     7204.231     11067.32     11317.46     78.27859     155.9386     311.7223      1.622     3.95     856.2963     54.95705     979.9622        32     1.484     0.975 -43.95   0
        85    348.6681    902.1638 307.7669623  +6.3126734     849.6398     1424.165      1871.59     78.03127     156.0006     311.8773      1.867     5.52     857.0856     54.95705     129.8412        10     1.228     0.700 -18.36   0
        86    801.5587    901.4360 307.5789355  +6.3281472     699.4965     987.8134     211.9007     77.90731     155.9386     311.6292      1.685     4.40     853.9473     54.95705     117.1959         6     1.087     0.507 -31.50   0
        87     24.1198    898.4149 307.9018418  +6.3033063     1081.532      1452.08     1402.269     77.78316     155.6905     311.5982      1.454     3.93     853.1025     54.95705     168.7572        12     1.055     0.864 -34.97   0
        88    901.7611    896.6608 307.5374875  +6.3334668       2621.9     4241.648     4314.835     78.15503     156.0006     311.8153      1.728     4.04     852.4767     54.95705      338.012        24     1.519     0.919 -36.54   0
        89     36.9921    896.8188 307.8965512  +6.3043989     934.1674     1447.096     1308.687     77.78316     155.6284     311.6292      1.717     5.79     853.1298     54.95705     139.6962        13     1.534     0.615 -38.51   0
        90    347.0239    893.4662 307.7679376  +6.3162092     17186.58     25794.69     27159.58     77.78316     155.9386     311.7223      1.585     3.90     856.9307     54.95705     2449.106        45     1.546     1.009 -45.00   0
        91    218.0325    893.0555 307.8215100  +6.3120447     1330.132     2123.383     1621.294     78.03127     155.9386     311.7533      1.612     4.47     856.0308     54.95705     215.3776        14     1.402     0.879 -53.22   0
        92     81.6085    894.4688 307.8781060  +6.3068715     1427.784     1859.283     1607.155     77.65881     155.6905     311.6913      1.420     3.41     853.2586     54.95705      210.496        13     1.170     0.730 -48.11   0
        93    397.0800    893.1213 307.7471650  +6.3180320     647.3904     654.3728     687.0542     78.40197     156.1863     311.9082      1.271     4.53     856.6995     54.95705     88.73553         8     0.896     0.652 -43.83   0
        94    110.2362    884.0721 307.8665703  +6.3121276     1647.239     2520.585     2679.955     78.03127     155.9386     311.8153      1.605     4.45     853.3845     54.95705     258.7435        17     1.402     0.858 -48.53   0
        95    424.9564    884.0789 307.7358942  +6.3227009     1116.935     1583.578     1508.759     78.03127     155.9386     311.8153      1.456     4.67     856.5524     54.95705     191.8058        11     1.339     0.555 -47.74   0
        96    504.5770    881.6714 307.7029146  +6.3263654     603.4617     982.8627     1319.447     77.78316     155.8146     311.7843      2.193     6.05     856.6533     54.95705     111.3149         9     1.526     0.676 -31.40   0
        97    678.3614    880.4391 307.6307950  +6.3326957     889.0651     1451.679      2240.94     77.90731     155.8766     311.6602      2.037     4.57     855.7139     54.95705     127.9476        11     1.213     0.650 -43.60   0
        98    892.0021    878.4764 307.5421483  +6.3406490     2017.407     3086.371     3121.742     77.53425      155.442     311.6602      1.616     3.78     852.4156     54.95705     274.8859        18     1.297     0.900 -42.41   0
        99    862.9289    877.9082 307.5542398  +6.3399125     2005.682     2847.885     2951.392     78.03127     156.1245     311.7843      1.525     4.07     852.9779     54.95705      277.514        19     1.389     0.815 -45.43   0
       100     93.7288    877.6408 307.8736412  +6.3142272     2393.357     3567.218     3844.131     78.03127     155.9386     311.8463      1.677     4.30     853.0408     54.95705     344.5038        19     1.454     0.773 -41.91   0
       101    826.2980    877.2622 307.5694722  +6.3389552     3101.067     4751.507     4967.074     77.90731     156.0625     311.8463      1.647     3.86      853.298     54.95705     381.5702        23     1.347     0.955 -36.86   0
       102    562.1156    868.6652 307.6794595  +6.3336640     352038.8     518397.8       542036     78.27859     156.1863     311.8463      1.585     3.97     856.5098     54.95705     49279.73       177     1.714     1.229 -45.56   4
       103    406.3665    871.2639 307.7440439  +6.3273682       8066.8     11905.04     12432.43     78.03127     156.0006     311.7533      1.587     4.15     856.4669     54.95705      1097.02        31     1.480     0.926 -48.27   0
       104    649.9763    871.6589 307.6428761  +6.3353707     1127.975     1662.982     1519.735     77.78316     155.9386     311.6602      1.527     5.87     855.8829     54.95705     148.6583        16     1.567     0.707 -40.82   0
       105    349.5381    869.6729 307.7676940  +6.3261174     13381.68     19525.48     20380.91     78.27859     155.9386     311.8463      1.591     4.02     856.5197     54.95705     1978.657        36     1.541     0.918 -42.58   0
       106    900.3533    864.8906 307.5391350  +6.3465374     5345.523     8149.634     9145.258     78.15503     155.8766     311.9082      1.690     3.93     852.0782     54.95705     695.7131        35     1.584     1.133 -29.77   0
       107    667.8928    866.0546 307.6356244  +6.3382844      3633.63     5226.006     5660.742     78.03127     155.8766     311.9392      1.508     3.79     855.5653     54.95705     542.3162        21     1.418     0.801 -41.58   0
       108    739.6044    862.5459 307.6059642  +6.3421327     846.5041     1125.446     799.8043     77.53425     155.6905     311.4741      1.255     4.72     854.1082     54.95705     137.6321         9     1.237     0.512 -53.07   0
       109    642.8037    860.0582 307.6462435  +6.3399203     3414.985     5148.122     5412.693     77.53425     155.8146     311.5362      1.550     3.83     855.6407     54.95705     479.4299        23     1.462     0.824 -49.32   0
       110    831.1630    859.2462 307.5680552  +6.3465564      1488.12     2381.165     2548.839     77.90731     155.9386     311.6913      1.760     4.52     852.9536     54.95705     210.2906        17     1.480     0.808 -41.45   0
       111    751.3912    860.3850 307.6011422  +6.3434192     459.9566     566.2108     606.2023     77.90731     155.6905     311.6602      1.301     3.53     853.9093     54.95705      94.0611         5     1.041     0.345 -20.48   0
       112    632.7224    859.0317 307.6504641  +6.3400066     955.0935      1357.06     1681.453     78.03127     155.9386     311.7533      1.664     5.15     855.7077     54.95705     137.6184         9     1.005     0.745 -48.25   3
       113    635.6821    854.6541 307.6493820  +6.3419132      2195.87     3569.455     4034.724     78.15503     155.9386     311.8463      1.737     4.81     855.5105     54.95705     352.7819        22     1.667     0.881 -53.56   2
       114    958.2230    857.5981 307.5153484  +6.3514805     716.5068     1242.113     1093.811     77.78316     155.6284     311.5672      1.807     5.09      849.969     54.95705     119.9267         9     1.036     0.707 -76.30   0
       115    919.3828    852.6099 307.5316438  +6.3522434     3255.337     5018.664     5214.946     77.90731     155.6905     311.6602      1.700     4.25     851.3125     54.95705     395.5572        26     1.599     0.919 -36.40   0
       116    329.7156    853.3514 307.7764739  +6.3321904     1054.783     1479.722     1571.349     78.15503     155.9386     311.8153      1.486     4.36     856.1832     54.95705     167.4769         9     1.147     0.550 -44.80   0
       117    377.4361    848.6639 307.7568167  +6.3357281     2874.037     4200.792     4074.975     78.03127     155.9386     311.8153      1.575     3.75      855.885     54.95705     460.7747        21     1.396     0.829 -40.83   0
       118    513.6570    838.4131 307.7005972  +6.3445304     3171.465     4547.422     4756.311     77.53425     155.8146     311.5052      1.535     3.98     855.1515     54.95705     531.3209        21     1.469     0.774 -45.62   0
       119    858.4171    837.2656 307.5574737  +6.3565426      1021.42     1488.165     1360.983     77.65881     155.8766     311.6602      1.465     4.02     852.2436     54.95705     204.5601        11     1.199     0.673 -43.00   0
       120    560.5099    834.5280 307.6812723  +6.3477049       6350.8     9358.115     10160.86     78.15503     156.1863     311.7843      1.616     4.20     854.9423     54.95705     955.1949        29     1.486     0.892 -44.02   0
       121    567.4111    833.8398 307.6784297  +6.3482203     1268.425     1921.204     2415.322     77.53425     155.7526     311.5362      1.640     3.82     854.8801     54.95705     194.0638        12     1.187     0.711 -52.84   0
       122    271.9341    834.9657 307.8010853  +6.3378403     707.3145     944.8743     1285.259     78.03127     155.9386     311.8153      1.283     3.39     855.3942     54.95705      142.719         7     0.873     0.528 -40.85   0
       123    896.0745    832.5949 307.5419924  +6.3597291     1428.244     2025.922     1991.409     77.78316      155.442     311.6913      1.534     4.01     851.3089     54.95705     207.1271        18     1.356     0.899 -52.42   0
       124    478.5486    833.3447 307.7153460  +6.3454458     1716.044     2538.604     2487.502     78.15503     155.9386     311.7843      1.636     5.25     854.9122     54.95705     295.7648        17     1.499     0.738 -29.41   0
       125    120.0981    832.4915 307.8642148  +6.3337556     1469.907     2215.202     2044.558     78.15503     156.4337     311.7533      1.554     5.38     852.2922     54.95705     217.7446        15     1.427     0.693 -45.31   0
       126    696.2519    831.7029 307.6250002  +6.3534169     802.1141     1291.246     880.0814     78.03127     155.9386     312.0012      1.673     3.86     854.1292     54.95705     129.4391         8     0.910     0.659 -66.20   0
       127    531.2393    828.3918 307.6936328  +6.3492574     20424.55     30244.11     31267.43     77.53425     155.6905     311.5052      1.598     4.09      854.615     54.95705     2751.246        48     1.570     1.012 -46.81   0
       128    372.1476    829.8235 307.7596463  +6.3433294     721.5233     1032.399     1048.967      77.6588     155.9386     311.6602      1.441     4.18     855.3311     54.95705     112.6818         7     1.141     0.437 -32.57   0
       129    944.8710    826.7130 307.5219258  +6.3637869     3745.155     5546.358     5429.585     78.27859     156.1863     311.7843      1.599     3.78     849.7892     54.95705     484.1665        25     1.366     0.949 -46.11   0
       130    177.6068    828.1625 307.8404818  +6.3374778     573.2257     838.5335     970.3753     77.40949     155.6905     311.5362      1.559     3.42     853.6397     54.95705      86.9361         5     0.815     0.415 -68.47   0
       131     64.6214    824.5062 307.8875192  +6.3351849     529.7107     534.3381     791.6865     78.03127     155.7526     311.6292      1.536     4.79      851.278     54.95705     94.83649         6     1.372     0.473 -38.92   0
       132     41.5258    818.7951 307.8973016  +6.3367650       1512.9     2428.065      2540.53     77.78316     155.5042     311.6913      1.751     4.92     850.9246     54.95705     210.0521        18     1.499     0.789 -32.07   0
       133    586.0643    818.2075 307.6712086  +6.3552996     506.6801     757.3313     816.7216     77.65881     155.6905     311.6292      1.330     3.89     854.0659     54.95705     96.81433         6     0.925     0.469 -34.86   0
       134    323.8507    817.0142 307.7801320  +6.3469963     3419.083     5003.724     5067.804     77.53425     155.9386     311.5362      1.512     4.05     855.0777     54.95705     540.6827        21     1.429     0.796 -41.67   0
       135     23.6443    815.3408 307.9048430  +6.3375888     2366.432     3609.264     3844.501     78.03127     155.8766     311.8773      1.680     3.73     850.6755     54.95705     327.4235        20     1.393     0.826 -50.26   0
       136    789.4157    812.9418 307.5869418  +6.3642795     56397.56     85062.18     88182.14     77.53425     155.8766     311.5362      1.619     4.07     852.4481     54.95705     7545.804        69     1.599     1.093 -45.29   0
       137    727.9847    814.4455 307.6124014  +6.3616041     729.9705     1137.289     1439.758     77.65881     155.7526     311.5362      1.541     5.12     853.5157     54.95705     110.5083         8     1.311     0.566 -66.11   0
       138    432.3841    812.0320 307.7352318  +6.3526968     883.2468     1361.222     1698.982     77.78316     155.6905     311.6913      1.656     5.01     853.7565     54.95705     162.0566        11     1.300     0.842 -15.75   0
       139    246.5902    810.7057 307.8124259  +6.3470048     5408.281     8563.276     11085.09     77.78316     155.5663     311.5982      1.912     3.83     854.2686     54.95705     756.9785        37     1.526     1.236 -39.70   0
       140    914.7234    808.1631 307.5350656  +6.3704395     8637.204     13302.45     14174.32     78.03127     156.0006     311.8153      1.652     3.92     850.1091     54.95705     1106.272        36     1.498     1.041 -43.93   0
       141    717.6310    807.5690 307.6169314  +6.3640969     22053.61     33242.21     35822.29     77.65881     155.6905     311.5362      1.642     4.07     853.4376     54.95705     3318.615        50     1.567     1.047 -43.67   3
       142    711.3406    804.0151 307.6196627  +6.3653538     91635.51     135790.9     142048.1      77.6588     155.8766     311.5362      1.592     3.98     853.3644     54.95705     12629.38        90     1.657     1.097 -45.84   2
       143    356.2195    804.9028 307.7670986  +6.3530838     21635.88     32216.99     33364.59     78.03127     155.7526     311.5362      1.592     3.97     854.9755     54.95705     3194.514        47     1.571     0.999 -42.25   0
       144    644.9274    804.6546 307.6472201  +6.3628668     925.4147     1383.953     1387.763     78.03127     155.8146     311.7223      1.593     4.40     853.4431     54.95705      145.905         8     1.150     0.616 -62.17   0
       145    405.5172    805.2490 307.7466163  +6.3545958     1595.137      2217.12      1963.47     78.15503     155.9386     311.8463      1.480     4.20     853.6655     54.95705     248.3704        14     1.262     0.710 -37.39   0
       146    418.0700    802.7131 307.7414890  +6.3560641      23376.9     34318.84     35838.48     78.27859     156.1863     311.8153      1.569     4.03     853.2775     54.95705     3311.602        49     1.582     0.984 -44.93   0
       147    955.2571    801.7168 307.5184487  +6.3744544     1975.177     3086.424     2739.212     78.15503     155.9386     311.8773      1.650     4.38     848.9691     54.95705      232.719        18     1.390     0.826 -34.11   0
       148    246.2319    789.1035 307.8133022  +6.3559118     758649.9      1663900      1841492     78.27859     155.8146     311.8773      2.234     6.40     853.5699     54.95705     63833.88       603     2.504     2.055 -52.92   4
       149    911.5924    799.5366 307.5366544  +6.3738968     6743.855        10356     11133.45     77.53425     155.6905     311.5982      1.656     4.05     849.9702     54.95705     867.8777        30     1.490     0.989 -46.03   0
       150    884.5962    800.5467 307.5478314  +6.3725781     715.4606     933.3325     1045.523     77.53425     155.6905     311.4121      1.876     4.94     850.7675     54.95705     122.6869         8     1.224     0.565 -40.97   0
       151    652.1802    798.6320 307.6444103  +6.3655963     6646.648     9876.599     10568.78     77.65881     155.7526     311.6292      1.600     4.23      853.218     54.95705     944.3495        33     1.522     0.956 -44.06   0
       152    440.8271    796.7646 307.7322391  +6.3592837     1750.596     2632.224     2813.536     77.65881     155.6905     311.5672      1.553     3.88     853.1126     54.95705      296.439        16     1.369     0.680 -41.55   0
       153    165.9892    796.2711 307.8463806  +6.3502541     800.4177     1193.949     1039.727     77.65881     155.5663     311.6292      1.613     4.39     852.7094     54.95705     126.0188         8     1.215     0.471 -40.53   0
       154    880.2349    790.2286 307.5499878  +6.3766926     757.4671     1242.427     1025.088     77.78316     155.6905     311.5982      1.687     6.23     850.6141     54.95705     122.9366        12     1.483     0.736 -62.22   0
       155    605.2832    790.7159 307.6641505  +6.3672942     989.8854     1522.592     1944.791     77.90731     156.1863     311.8773      1.725     6.19     852.9834     54.95705       155.98        11     1.204     0.894 -30.86   0
       156    156.3394    789.6310 307.8506114  +6.3526709     1027.359     1415.983     1492.775     77.90731     156.0006     311.7533      1.554     5.48     852.2347     54.95705     143.5799        12     1.423     0.705 -47.45   0
       157    687.3015    788.7253 307.6301579  +6.3708623     2521.076      3656.64     3614.332     77.65881     156.0625     311.7533      1.552     4.15     852.8293     54.95705     372.6537        17     1.363     0.750 -57.43   0
       158    131.2500    789.3572 307.8610387  +6.3519398     1147.624      1650.34      1446.04     78.27859     155.9386     311.7843      1.573     4.27     851.5042     54.95705     180.5192        11     1.284     0.578 -48.73   0
       159    421.0318    785.3784 307.7408419  +6.3633206     55625.81      83535.8      87702.6      77.6588     155.7526     311.5982      1.590     4.02      852.779     54.95705     8263.492        74     1.646     1.054 -43.40   0
       160    963.9547    787.0878 307.5153260  +6.3807849      684.606     872.9903     396.6044     78.15503     155.8146     311.7843      1.424     4.68     848.4857     54.95705     96.28534         7     0.900     0.690 -55.87   0
       161    538.6765    784.5111 307.6920181  +6.3676243     7365.275     10796.18     11193.07     78.15503     156.2482     311.8463      1.598     4.13     852.7827     54.95705     1221.922        30     1.505     0.896 -46.62   0
       162     73.2420    786.5793 307.8852193  +6.3511340      632.561     884.0902     1137.255     77.65881     155.7526     311.6292      1.251     3.81     850.4247     54.95705     135.1616         7     1.027     0.500 -49.91   0
       163    455.5756    783.0527 307.7265756  +6.3654399     4853.248     7243.402     8291.915      77.6588     155.9386     311.6913      1.603     3.83     852.7952     54.95705     694.3701        25     1.493     0.827 -43.67   0
       164    783.9721    781.0541 307.5902705  +6.3772635      11872.5      17938.6     18496.02     77.90731     156.0006     311.6913      1.588     3.72     851.6604     54.95705     1653.459        40     1.565     0.984 -44.57   0
       165     13.2737    777.2076 307.9104363  +6.3529834     1185.261     1753.232     2081.777     77.78316     155.5042     311.6602      1.626     4.52     850.1007     54.95705       216.98        10     1.250     0.568 -37.56   0
       166    452.0832    776.3596 307.7282508  +6.3680862     2328.317     3413.799     3493.771     78.15503     155.9386     311.7223      1.458     3.78     852.6163     54.95705     377.9761        17     1.374     0.691 -43.56   0
       167    805.8253    775.2062 307.5813913  +6.3804087     1285.767     2112.459     2049.279     77.65881     155.7526     311.5982      1.549     6.16     851.1581     54.95705     165.4586        14     1.447     0.738 -38.50   0
       168    149.8943    773.1907 307.8538419  +6.3592418     3202.831     4897.077     5612.063     77.78316     155.5663     311.5672      1.626     3.86     851.4328     54.95705     477.6412        24     1.492     0.859 -41.76   0
       169    141.7735    772.9677 307.8572215  +6.3590606     12078.23     18067.17     19031.07     77.65881     155.6905     311.5982      1.562     3.86     851.2753     54.95705     1695.003        37     1.535     0.944 -42.30   0
       170    978.5021    769.8076 307.5098625  +6.3884052       1529.2     2247.589     2846.611     77.90731     155.5663     311.5672      1.980     5.98     847.8642     54.95705     211.6755        15     1.604     0.645 -50.59   0
       171    929.5737    769.5840 307.5301892  +6.3868643     6658.285      9970.09     10163.73     77.78316     155.7526     311.7223      1.650     4.05     848.8222     54.95705     869.9786        32     1.479     0.999 -41.60   0
       172    133.8486    770.2798 307.8606028  +6.3599037     2986.082     4854.267     5451.694     78.15503     156.0006     311.7843      1.689     4.01     851.0297     54.95705     463.1697        19     1.386     0.848 -39.08   0
       173    684.9246    767.3038 307.6318633  +6.3796274     1806.656     2613.666     3177.256     77.78316     156.0625     311.8153      1.598     3.93     851.9799     54.95705     242.5449        17     1.263     0.854 -47.21   0
       174    571.9741    766.5330 307.6787944  +6.3761631     2468.994     3810.469     3905.069     77.78316     155.8146     311.6913      1.602     3.83     852.3118     54.95705     379.4011        21     1.423     0.907 -50.35   0
       175    419.6955    766.2373 307.7420404  +6.3711788     1249.728     1979.453     2061.387     78.27859     155.8146     311.9082      1.867     4.16     852.2997     54.95705     202.8071        15     1.376     0.738 -46.05   0
       176    703.0581    765.0392 307.6244088  +6.3811693     570.8683     843.2421     681.0706     78.15503     156.0006     311.8463      1.433     3.68     851.8467     54.95705     105.4117         5     0.662     0.589  -1.41   0
       177    133.9990    763.7383 307.8607610  +6.3626095     2090.521     3182.844     3932.227     77.53425     155.7526     311.4741      1.724     3.88     850.8537     54.95705     314.7979        18     1.414     0.789 -41.81   0
       178    953.2147    761.2174 307.5206513  +6.3911081      2993.29     4597.827     4495.393     77.90731     155.6284     311.7223      1.625     3.84     848.1927     54.95705       373.22        25     1.468     0.948 -38.43   0
       179    923.7275    761.7887 307.5328778  +6.3898877     3120.222     4925.148     5216.731     77.65881     155.5663     311.5982      1.691     3.92     848.7916     54.95705     465.6306        25     1.420     0.958 -41.58   0
       180    983.9482    761.0563 307.5078934  +6.3922003     1597.045     2270.416     2264.611     78.15503     155.9386     311.7533      1.562     3.95     847.6036     54.95705     232.0259        16     1.299     0.840 -42.16   0
       181    675.9583    760.7766 307.6358057  +6.3820222     1624.221     2418.947     2493.159     77.78316     155.7526     311.5672      1.474     4.17     851.7787     54.95705      247.689        15     1.362     0.727 -45.25   0
       182    436.5199    761.1621 307.7352245  +6.3738388      550.442     615.5762     549.1057     78.03127     156.0006     311.7533      1.434     4.60     852.2139     54.95705     91.11316         6     1.008     0.596 -23.02   0
       183    823.2729    759.1989 307.5746818  +6.3876011     1116.085     1706.254     1646.039     77.53425      155.442     311.6602      1.725     4.68     850.5328     54.95705     169.2903        13     1.343     0.733 -44.82   0
       184    898.2812    756.9294 307.5436079  +6.3910443     676.6035     1017.645     1113.245     78.40197     156.2482     311.8153      1.484     4.12     849.2977     54.95705     105.5494         7     1.115     0.434 -32.18   0
       185    248.7399    755.7123 307.8133853  +6.3697825     1962.464     3191.328     4185.739     78.15503     156.1245     311.8773      1.962     4.21     852.7549     54.95705      317.448        19     1.500     0.771 -48.26   0
       186    941.1979    751.5430 307.5259653  +6.3947014     1149.454     1501.454     1235.856     77.53425     155.6284     311.5362      1.497     4.86     848.2344     54.95705     162.0581        10     1.203     0.604 -37.96   0
       187    267.7987    751.8283 307.8056018  +6.3720267     535.2563     685.8349     1123.238     77.65881     155.6905     311.5982      1.462     3.33     852.6805     54.95705     107.9681         5     0.954     0.337 -48.77   0
       188    164.0773    751.0165 307.8486999  +6.3688741     833.1127     1180.835     794.0321     77.65881     155.6284     311.6602      1.531     5.46     850.7987     54.95705     144.0739        10     1.204     0.698 -57.27   0
       189    915.4127    750.1937 307.5367188  +6.3943976     1189.239      1650.98      1572.48     77.78316     155.7526     311.6602      1.608     5.65     848.7338     54.95705     157.2028        13     1.294     0.696 -48.12   0
       190    967.9892    749.0880 307.5149212  +6.3966093     2368.493     3736.852     4349.405     77.78316     155.6905     311.6602      1.705     3.99     847.6788     54.95705     299.4465        19     1.339     0.854 -42.71   0
       191    687.7146    748.2458 307.6313438  +6.3875896     956.2335     1363.835     1649.403     78.15503     155.8766     311.7843      1.710     5.78     851.2308     54.95705     173.8105        11     1.458     0.645 -60.70   0
       192   1009.8321    742.5803 307.4977617  +6.4006926     1554.463     2522.317     2308.706     77.65881     155.7526     311.6292      1.666     4.20     846.8121     54.95705     240.9893        18     1.449     0.852 -47.55   0
       193    478.8546    743.3815 307.7182418  +6.3826002     526.0591     811.0247     962.7509     77.65881     155.9386     311.5672      1.334     4.73     851.8818     54.95705     103.0147         6     1.040     0.610 -58.39   0
       194    408.1093    743.5079 307.7476160  +6.3801744     688.4853     870.0465     639.3303     78.15503     156.4337     311.8463      1.379     4.47     851.7889     54.95705     119.3702         7     1.142     0.497 -47.25   0
       195    635.9282    741.5499 307.6530743  +6.3886205     810.5613     1012.834     791.7695     78.15503     155.9386     311.8153      1.568     3.64     851.3725     54.95705     142.5061        10     1.075     0.755 -51.71   0
       196    811.2610    740.8289 307.5802854  +6.3947844     1224.284     1561.644     1819.828     77.78316     155.9386     311.7223      1.378     4.62     850.1234     54.95705     186.2313         9     1.237     0.491 -41.92   0
       197    897.4491    738.2183 307.5445796  +6.3987422     1469.044      2455.72     2625.333     77.65881     156.0006     311.5672      1.800     4.07     848.8454     54.95705     209.1619        15     1.367     0.703 -39.62   0
       198    871.6592    733.5168 307.5554473  +6.3998219     1040.397     1294.619     1718.623     78.15503     156.0006     311.8463      1.485     5.73     849.2761     54.95705     143.2093        11     1.273     0.748 -42.38   0
       199    854.3382    729.5469 307.5627735  +6.4008823     1637.991     2426.471     2339.398     78.15503     155.8766     311.7533      1.621     4.99      849.433     54.95705     241.3937        14     1.393     0.675 -46.08   0
       200    117.2133    727.5469 307.8689517  +6.3769870      884.722     2016.126      2288.67     77.53425     155.8766     311.5362      2.293     6.54     849.8934     54.95705     138.2189        17     1.548     1.382  62.01   0
       201     53.3479    728.3270 307.8954457  +6.3745145      2622.66     3889.357     4211.628     78.15503     156.0006     311.8153      1.612     4.02     849.9539     54.95705     366.3333        20     1.360     0.830 -49.63   0
       202    465.7201    727.3171 307.7242361  +6.3887923     668.1964     909.0612     349.5872     78.15503     156.1863     311.8463      1.591     4.26     851.4283     54.95705     101.6177         7     0.983     0.526 -60.73   0
       203    708.8353    720.5156 307.6235025  +6.3997458     576.7393     804.3926     899.1324     78.15503     155.8766     311.7533      1.382     3.46     850.5528     54.95705     80.52087         5     1.213     0.285 -53.81   0
       204    666.1904    716.8824 307.6413344  +6.3998186     6618.219     9898.858        10086     77.78316     155.5663     311.6292      1.569     3.92      850.739     54.95705     937.2858        31     1.525     0.951 -46.54   0
       205    612.9492    716.1289 307.6634702  +6.3983468     1513.608     2405.719     2392.094     78.15503     155.9386     311.8153      1.609     4.79     851.0992     54.95705     218.4828        14     1.333     0.695 -52.28   0
       206    523.7186    716.7333 307.7005061  +6.3951071     823.8552      1074.88      1351.49     78.27859     156.1863     311.8153      1.541     4.57     851.2152     54.95705      126.186        11     1.306     0.748 -34.61   0
       207    639.9810    712.6595 307.6523606  +6.4006846     2236.366     3200.138     3551.724     77.78316     155.8146     311.5982      1.564     4.10     850.8724     54.95705     310.6738        17     1.343     0.742 -43.00   0
       208    129.0220    712.7924 307.8645456  +6.3834761     3877.897     5886.965      6397.93     77.65881     155.7526     311.5982      1.604     4.01     849.6661     54.95705     560.0833        24     1.489     0.829 -40.40   0
       209   1003.0850    712.0729 307.5015836  +6.4130638     2586.264     4002.143     4086.614     78.27859     156.2482     311.8153      1.587     4.01     846.1901     54.95705       330.78        20     1.444     0.817 -43.29   0
       210    315.5367    712.9858 307.7870856  +6.3896679      799.443     1191.556     1389.631     77.65881     155.7526     311.6292      1.616     3.84     850.6323     54.95705       123.34         8     0.994     0.561 -47.44   0
       211    251.3403    712.7070 307.8137539  +6.3876257     776.8114     1136.324      1143.46     78.03127     155.8766     311.8773      1.511     3.68     850.8281     54.95705     167.1166         8     1.200     0.523 -44.57   0
       212    782.9955    709.0714 307.5930877  +6.4069517     20615.41     30476.05     31377.79     77.78316     155.5663     311.6292      1.545     3.72      849.958     54.95705     2952.383        42     1.525     0.956 -45.10   0
       213    912.9973    708.7826 307.5391075  +6.4114152     3839.335     5652.492     5765.242     77.78316     155.5042     311.5672      1.562     3.88     847.9573     54.95705      540.905        23     1.449     0.823 -44.54   0
       214    510.6678    709.3011 307.7061756  +6.3977382      922.598      1326.76     1770.672     78.15503     156.0625     311.7533      1.620     4.32     851.0615     54.95705     167.8802        12     1.299     0.825 -25.26   0
       215    482.0634    709.2292 307.7180569  +6.3968087     1468.532     2179.426     2099.784     77.90731     155.9386     311.7223      1.613     4.58     851.0814     54.95705     231.5557        13     1.255     0.698 -44.71   0
       216    284.0906    709.0770 307.8002759  +6.3902252     603.4034     882.9003     1039.239     77.90731     156.1863     311.7843      1.340     4.58     850.5865     54.95705     103.5081         7     1.040     0.572 -57.04   0
       217    327.6205    708.8112 307.7822080  +6.3917974     683.0391     1168.459     1307.492     77.78316     155.6284     311.6913      1.777     4.89     850.3107     54.95705     97.94611         9     1.219     0.556 -49.75   0
       218    972.7751    705.0140 307.5144075  +6.4149669     389.9063     248.0851     294.9107     77.90731     155.7526     311.7223      1.051     3.75     846.6711     54.95705     78.63623         5     0.814     0.497 -34.83   0
       219    256.4655    702.6617 307.8119639  +6.3919454     6550.853     9366.084     9592.512     78.15503     155.9386     311.7843      1.558     4.10     850.2242     54.95705     968.2041        27     1.434     0.872 -46.19   0
       220    663.5248    701.8599 307.6429453  +6.4059319     7377.028     10726.33     11557.05     78.40197     155.9386     311.7533      1.575     4.13     850.5942     54.95705     1028.155        30     1.521     0.869 -43.66   0
       221    645.6213    703.0717 307.6503398  +6.4048322      945.175     1348.452     1226.864     77.78316     155.8146     311.7533      1.514     3.93     850.7108     54.95705     146.2928        11     1.142     0.668 -54.28   0
       222    358.3506    702.0983 307.7696724  +6.3956011     769.0314     1101.364     1021.361     78.15503     155.8766     311.9702      1.556     4.22     849.7672     54.95705     105.5029         7     0.748     0.679  78.13   0
       223    923.4366    694.5413 307.5352485  +6.4176439     1222.755     1890.188     1628.328     78.15503     155.9386     311.7843      1.705     4.70     847.5663     54.95705     163.2056        14     1.254     0.756 -52.51   0
       224    735.2302    690.1442 307.6135590  +6.4131689     3698.621     5704.848     6735.143     78.03127     156.0006     311.7223      1.691     4.23     850.2052     54.95705     561.0895        29     1.529     1.022 -67.56   0
       225    690.5689    690.6379 307.6320903  +6.4114706     1091.076     1504.213     1887.409     77.78316     155.6905     311.6292      1.597     5.14     850.3695     54.95705     153.9366        11     1.267     0.589 -39.77   0
       226   1001.5688    686.9347 307.5030537  +6.4233925     8833.739     13835.75      14773.3     77.90731     156.0006     311.7223      1.713     4.31     845.5688     54.95705     1097.302        38     1.620     1.005 -45.82   0
       227    940.1208    687.3212 307.5285609  +6.4211821     2427.345     3641.073     3836.858     78.40197     156.1863     311.9082      1.615     3.90      847.094     54.95705     320.3611        22     1.446     0.868 -43.86   0
       228    742.2105    688.4003 307.6107185  +6.4141225     529.1682     1143.571     1619.904     77.78316     155.6284     311.5982      2.470     3.80     850.1381     54.95705     71.15259         5     1.041     0.398 -84.75   0
       229      1.4164    688.5231 307.9183541  +6.3891986     540.5501      665.791     773.4056     68.81712     125.1284     236.0263      0.994     3.62     850.3175     54.95705     119.4193         6     0.931     0.406 -70.49  24
       230    990.2257    687.2733 307.5077533  +6.4228743     618.0416     856.1871     1023.726     77.78316     155.8146     311.7223      1.682     3.73      845.864     54.95705     99.54749         6     1.125     0.560 -64.10   0
       231     20.6254    686.4062 307.9104488  +6.3907199     2010.136     3386.069     3792.333     77.65881     155.7526     311.5982      1.849     4.54     850.1218     54.95705     266.6362        23     1.536     1.105 -24.74   0
       232    553.7203    685.6329 307.6890913  +6.4089537     722.5821      926.488     916.8002     78.03127     155.9386     311.7843      1.283     4.02     850.6162     54.95705     128.8867         6     0.939     0.491 -43.46   0
       233     78.9137    681.6362 307.8864047  +6.3946527     26187.89     39466.15     41627.27     78.15503     155.8146     311.7843      1.608     4.13      849.456     54.95705     3648.907        52     1.599     1.026 -45.46   0
       234    540.1247    682.6518 307.6948376  +6.4097288     2198.145     3130.059     2968.732     78.15503     156.0006     311.7843      1.474     3.97     850.5448     54.95705     346.5114        17     1.357     0.774 -49.95   0
       235    508.6245    679.9677 307.7080096  +6.4097809     1333.602     1875.088     1930.074     77.53425     155.8146     311.5982      1.521     5.12     850.4398     54.95705      178.803        13     1.208     0.746 -44.10   0
       236    929.9079    678.9905 307.5330811  +6.4242808     1057.307     1638.171     1369.832     77.78316     155.5663     311.5672      1.598     5.32     847.2157     54.95705     170.5266        13     1.355     0.744 -55.53   0
       237    549.2761    676.3085 307.6912501  +6.4126546     1044.952     1472.921     2004.018     78.03127     156.1863     311.7843      1.637     5.01     850.4263     54.95705     145.3327        10     1.278     0.555 -38.43   0
       238    724.8182    673.9197 307.6184270  +6.4195194     3585.591     5165.002      5111.45     77.78316     155.6284     311.6913      1.488     3.97     850.1196     54.95705     504.3347        19     1.357     0.751 -48.35   0
       239    746.8670    672.1809 307.6093282  +6.4209750     4118.709     6260.961     6391.005     77.78316     155.9386     311.6913      1.584     3.80     849.9361     54.95705     650.8324        25     1.425     0.898 -41.21   0
       240   1019.9127    668.4286 307.4960538  +6.4316456     4822.175     7419.287     7523.739     78.27859     155.6905     286.3173      1.638     3.91      844.564     54.95705     629.2014        26     1.461     0.994 -41.17  24
       241    578.3467    670.0404 307.6793875  +6.4162168     3353.043     4735.471      4411.65     78.03127     155.9386     311.7843      1.517     4.00     850.2874     54.95705      503.315        21     1.410     0.788 -41.66   0
       242    414.5567    670.6765 307.7473878  +6.4104614     1458.761     2251.164     2144.629     78.03127     155.9386     311.8153      1.654     5.09     848.9741     54.95705     223.9834        15     1.349     0.751 -34.17   0
       243    238.6724    669.7922 307.8204602  +6.4049182     1828.841     2699.284     2746.322     77.65881      155.442     311.6913      1.618     4.04     848.3311     54.95705     261.3718        16     1.324     0.734 -44.23   0
       244    322.7678    669.1014 307.7855598  +6.4080297     1492.083     2301.682     2320.728     78.15503     155.8146     311.9082      1.623     4.30     848.1102     54.95705     225.2351        15     1.316     0.764 -38.54   0
       245    985.2781    667.1848 307.5104798  +6.4310035     7936.756     12117.43     12677.41     77.78316     155.6905     311.6292      1.629     4.06       845.45     54.95705      1014.44        34     1.523     0.985 -44.92   0
       246    704.9887    666.0356 307.6269267  +6.4221112     1053.208     1632.597     1771.925     77.65881     155.7526     311.5672      1.674     5.20     849.8481     54.95705     156.4398        10     1.196     0.638 -42.74   0
       247     96.2237    664.0953 307.8798082  +6.4024776     943.8211     1362.649      1595.14     78.27859     155.6905     311.6602      1.493     4.18     849.0431     54.95705     137.1857        10     1.120     0.611 -46.49   0
       248    143.6462    660.5709 307.8602336  +6.4055290     24700.56     37019.23     38399.87     77.65881     156.0006     311.6602      1.621     4.33     848.8167     54.95705     3674.892        52     1.634     0.995 -45.00   0
       249    430.5106    661.5284 307.7410698  +6.4147739     3104.243     4546.226     5036.219     78.15503     156.1863     311.7843      1.629     3.76     849.0356     54.95705     488.1533        23     1.521     0.869 -57.09   0
       250    811.9631    661.4237 307.5826535  +6.4275934     1232.099     1746.526      1798.05     77.78316     155.6905     311.5672      1.483     3.88     848.7625     54.95705     227.1008        13     1.267     0.688 -50.59   0
       251    362.5936    656.2288 307.7694537  +6.4146821     707.1157     1282.179     1456.004     77.65881     155.7526     311.5982      1.888     4.46     847.7124     54.95705     137.6453         7     1.118     0.657 -51.49   0
       252    980.1346    650.2012 307.5131840  +6.4378443     6802.941     11519.55     12314.54     77.53425     155.6284     311.5672      1.812     3.72     844.9794     54.95705     879.4315        39     1.461     1.285 -38.69   0
       253     24.6903    649.6800 307.9100007  +6.4060199     1309.037     1996.452     1653.389     77.90731     156.1245     311.8773      1.667     4.92     849.5186     54.95705     171.8701        13     1.235     0.764 -52.78   0
       254    573.6506    645.4537 307.6821634  +6.4262109     51160.07     73818.41     76826.15     78.27859     155.8766     311.8153      1.575     4.04     849.2063     54.95705     8056.417        62     1.570     1.011 -44.99   0
       255    217.1012    646.7873 307.8301935  +6.4136910     600.9128      795.115      1331.86     77.90731     155.6905     311.5362      1.447     3.70     847.8118     54.95705     119.2321         5     1.257     0.313 -29.68   0
       256    532.6458    645.5561 307.6991896  +6.4247943     817.9169     1041.193      786.738     78.15503     155.9386     311.7223      1.437     5.06     849.3505     54.95705     133.0106         8     0.943     0.769 -66.92   0
       257    798.3013    645.5803 307.5888582  +6.4336782     438.9482     616.5539     788.1564     78.15503     155.8146     311.5672      1.679     4.12     848.4934     54.95705     79.47021         5     0.998     0.486  -5.76   0
       258    503.5318    642.2759 307.7113911  +6.4251725     625.8996     802.8199     777.0139     78.27859     156.0625     311.7843      1.521     4.53      849.173     54.95705     103.2833         7     1.409     0.413 -52.13   0
       259    181.1291    642.1067 307.8452901  +6.4144136     2964.738     4384.647     4479.302     78.15503     156.0006     311.7843      1.525     3.78     848.1959     54.95705     407.2322        23     1.465     0.829 -49.25   0
       260    984.7797    641.9405 307.5115310  +6.4414101     540.6009     857.8545     840.6172     77.78316     155.8146     311.6602      1.560     3.62     844.5713     54.95705     86.04425         5     0.792     0.507 -34.59   0
       261     73.8236    636.2748 307.8900492  +6.4132096     1380.152     2266.769      2295.82     77.78316     155.7526     311.7223      1.658     5.07     848.8775     54.95705     194.6818        16     1.533     0.708 -52.06   0
       262    470.8959    629.2299 307.7253835  +6.4294643     64985.28     95768.52     99705.68     78.27859     155.6905     311.8153      1.557     3.83     848.5992     54.95705     9960.919        77     1.612     1.065 -44.04   0
       263     14.2840    630.7279 307.9149621  +6.4134940     1724.379     2998.814      3605.82     78.27859     156.2482     311.8153      1.874     4.82     849.0909     54.95705     233.6842        21     1.615     0.836 -38.63   0
       264    656.7330    626.3717 307.6482985  +6.4368725      894.489     1324.007     971.0077     77.90731     155.8766     311.7533      1.469     4.65     848.0593     54.95705      141.342         7     1.219     0.503 -39.50   0
       265    145.3712    624.1875 307.8607441  +6.4206087     1734.476     2514.493     2367.562     77.65881     155.7526     311.6913      1.477     4.15     848.3231     54.95705     261.3318        15     1.271     0.795 -43.90   0
       266    424.6988    621.7840 307.7448199  +6.4309885     897.2628     1445.425     1532.977     78.15503     155.6905     311.5982      1.665     4.89     847.9977     54.95705     157.5234         9     1.405     0.483 -36.08   0
       267    617.0121    620.5807 307.6649897  +6.4379333     986.5318     1414.338     1471.101     77.90731     155.6905     311.6913      1.540     4.77     847.8449     54.95705      159.694         8     1.192     0.542 -51.54   0
       268    316.2545    618.6063 307.7899646  +6.4286591     2218.239     3453.973     3479.062     77.65881     155.6905     311.5052      1.622     4.24     846.7066     54.95705      318.457        19     1.395     0.847 -56.62   0
       269    325.4046    619.4442 307.7861363  +6.4286205     387.3987     650.3202     1264.858     77.53425     155.5663     311.4741      1.519     3.62     846.6271     54.95705     114.0007         5     1.616     0.234 -48.47   0
       270     17.4823    619.8476 307.9140013  +6.4180938     610.2924     775.8515     1668.244     78.15503     155.9386     311.8153      1.425     4.22     848.7798     54.95705     96.05579         7     1.058     0.479 -41.90   0
       271    468.8908    616.9609 307.7266286  +6.4344627     878.1558     1383.837     1676.012     78.15503     155.8766     311.8153      1.508     4.73     848.1904     54.95705     154.5492         9     1.264     0.501 -37.55   0
       272    742.9250    612.7584 307.6129573  +6.4453780     5512.947       7871.7     7740.553     78.03127     155.9386     311.8153      1.511     3.74       847.41     54.95705     814.1848        26     1.462     0.841 -45.14   0
       273    796.5075    608.0490 307.5908607  +6.4491145     14676.68      21341.3     22591.17     78.03127     155.8146     311.9082      1.578     3.98     847.1172     54.95705     2051.706        43     1.567     0.977 -52.30   0
       274    538.9121    607.9116 307.6978516  +6.4405471     1276.736     2223.174     2657.144     77.90731     156.4337     311.8773      1.906     4.81     847.9642     54.95705     219.2087        15     1.440     0.814 -51.53   0
       275   1014.0136    608.5420 307.5005059  +6.4561755     964.6747     1490.763      1189.86     77.53425     155.8146     311.5052      1.604     5.78     842.7359     54.95705     158.2664        14     1.525     0.685 -28.71  16
       276     41.2456    607.5749 307.9045470  +6.4239615     611.2687     906.8968     1012.934     77.65881     156.0006     311.6602      1.251     3.90     848.4747     54.95705      133.126         6     1.137     0.383 -32.37   0
       277    620.4719    606.0441 307.6640407  +6.4440512     3166.954     4547.437     4733.545     78.03127     155.9386     311.8153      1.505     4.02     847.1583     54.95705     448.1137        20     1.360     0.820 -36.82   0
       278    937.4641    602.3096 307.5325084  +6.4561939     1224.279     1789.717     2101.844     78.03127     156.1245     311.8153      1.660     5.84     844.3586     54.95705     172.1547        13     1.301     0.737 -49.33   0
       279    379.2760    599.6935 307.7644277  +6.4385845     1063.127     1526.802     1631.911     77.90731     156.1245     311.7843      1.676     5.96     846.5192     54.95705     139.1254        13     1.406     0.711 -42.08   0
       280    196.4104    600.8163 307.8403356  +6.4319753     686.8525     999.7876     863.9771     77.90731     155.6905     311.6602      1.671     5.14     847.1044     54.95705     97.55011         8     1.141     0.656 -41.67   0
       281    232.6577    599.6727 307.8253204  +6.4336665     1218.521     1897.065      2210.18     78.27859     155.9386     311.7533      1.823     5.69     846.4291     54.95705     166.2332        14     1.350     0.706 -41.16   0
       282    872.5359    591.3506 307.5598425  +6.4585502     3011.241     4274.453     4108.401     78.03127     155.8766     311.8463      1.505     3.87     845.9372     54.95705     485.6029        19     1.419     0.759 -53.60   0
       283    167.5093    591.4776 307.8526531  +6.4348587     843.6736     1388.828     1798.414     77.90731     156.1863     311.8153      2.019     6.32     847.5623     54.95705     101.6002        12     1.257     0.892 -69.20   0
       284    831.1919    588.8367 307.5770986  +6.4582065     2604.331     3816.434     3846.085     77.40949     155.6905     311.5052      1.516     4.56     846.2471     54.95705     350.9673        18     1.328     0.741 -42.12   0
       285    802.1112    584.7808 307.5893129  +6.4589090     2591.199     4043.073     5140.261     77.90731     155.6905     311.6913      1.801     4.39     846.2316     54.95705     356.9205        18     1.378     0.786 -46.27   0
       286    811.9210    579.8909 307.5854023  +6.4612560     163019.6     240414.1     251618.5     77.90731     156.1245     311.8463      1.565     3.97     845.9877     54.95705     23484.74       123     1.661     1.146 -46.50   0
       287    744.8513    585.0229 307.6130871  +6.4568941     695.2821     974.1403     1301.756     77.65881     155.9386     311.6602      1.486     4.02     846.3893     54.95705     105.2711         7     0.904     0.512 -45.85   0
       288    259.2773    583.6110 307.8148062  +6.4411930     8142.143     12197.39     12547.03     77.78316     155.5663     311.6292      1.604     4.04     845.9985     54.95705      1228.12        31     1.494     0.927 -45.69   0
       289    193.5117    578.1438 307.8423037  +6.4412386        59974     90143.88     95919.97     78.15503     155.8146     311.9082      1.631     4.10     846.6534     54.95705     8528.178        93     1.804     1.095 -43.18   0
       290    863.0158    582.3364 307.5640985  +6.4619540      460.881       813.54     614.6185      77.6588     155.8146     311.6292      1.692     3.48     845.7997     54.95705     120.9039         5     1.056     0.332 -41.37   0
       291    741.7324    580.3799 307.6145381  +6.4587067     644.3375     701.8884     735.0329     77.78316     155.9386     311.7223      1.282     4.61     846.2225     54.95705     99.16272         6     0.960     0.628  74.07   0
       292    117.5018    574.4176 307.8739968  +6.4402192     6452.776     9556.332     9758.204     78.15503     155.7526     311.5672      1.593     3.82     847.6365     54.95705     988.8496        29     1.522     0.874 -42.40   0
       293    982.7903    571.8239 307.5147022  +6.4702942     1289.966     1740.399     1769.995     77.78316     155.7526     311.6602      1.455     4.62     842.3176     54.95705     178.8505        14     1.330     0.699 -41.09   0
       294   1003.8442    570.9457 307.5059868  +6.4713594     626.4896     1005.404     1242.539     78.15503     155.9386     311.7843      1.640     4.24     841.6863     54.95705     104.4564         6     1.264     0.405 -36.49   0
       295    231.7491    570.0362 307.8266964  +6.4458721     656.2867     1055.591     1582.591     78.03127     155.8766     311.6913      2.115     3.86     845.6144     54.95705     99.34717         6     0.949     0.451 -51.52   0
       296    848.3959    567.2067 307.5706774  +6.4677123     4522.495     6703.521         7472     77.53425     155.6284     311.6602      1.627     4.07     845.2584     54.95705     615.2338        24     1.426     0.861 -43.18   0
       297    366.8943    565.3167 307.7707268  +6.4523621     17431.72      26451.8     27957.77     77.90731     156.3101     311.9082      1.601     3.92     845.5591     54.95705     2688.171        42     1.580     0.950 -46.51   0
       298    457.2274    565.5142 307.7332022  +6.4553128     836.3578     1218.226     1382.982     78.27859     155.6284     311.6602      1.703     5.24     846.5884     54.95705     132.3588        10     1.339     0.580 -49.12   0
       299    168.7299    564.2343 307.8530647  +6.4461477     1927.554     3040.854     4278.205     78.03127     155.9386     311.8773      1.865     4.10     847.0792     54.95705     297.6221        19     1.404     0.838 -43.71   0
       300    106.0440    561.5710 307.8791888  +6.4451374     1052.206     1635.271      1512.95     77.78316     156.0006     311.6913      1.646     5.91     847.4377     54.95705     146.2649        13     1.324     0.743 -53.78   0
       301    802.4214    560.5146 307.5899971  +6.4689386      5922.52     8566.253     8851.411     77.90731     155.6905     311.7223      1.614     4.62     845.3174     54.95705     841.7892        29     1.509     0.878 -43.74   0
       302    533.2889    560.2278 307.7017890  +6.4600464     6800.742     10003.96     10146.29     78.27859     155.6905     311.6913      1.559     3.99     846.4545     54.95705     929.9706        29     1.511     0.842 -46.50   0
       303    243.8724    562.2692 307.8219231  +6.4494865     1037.601     1705.827     2177.785     78.27859     156.0625     311.7843      2.038     3.60     845.4005     54.95705     168.6512        13     1.225     0.819 -46.90   0
       304    391.4708    556.8209 307.7608053  +6.4566951     1438.146     2174.011      2578.04     77.78316     155.8146     311.7533      1.628     4.66     845.8129     54.95705     224.8276        13     1.277     0.655 -50.08   0
       305    180.2668    553.3698 307.8486396  +6.4510215     6951.182     10294.09     10482.51     77.90731     155.9386     311.7533      1.605     3.91       846.55     54.95705     951.6886        30     1.516     0.895 -46.96   0
       306    861.4532    553.2304 307.5657221  +6.4739193       713.23     974.7122     1191.096     78.03127     156.0006     311.7223      1.512     5.35     844.5865     54.95705     97.13611         9     1.248     0.647 -38.64   0
       307    819.0690    552.8248 307.5833401  +6.4726702     1508.707     2208.249     2305.064     77.78316     155.8146     311.7223      1.615     4.23     844.8899     54.95705     224.0564        17     1.346     0.892 -48.14   0
       308    578.0396    553.1970 307.6834385  +6.4644492      2499.11     4093.905     4032.656     77.28454     155.6905     311.5052      1.737     4.51     845.9672     54.95705     352.4633        22     1.548     0.853 -38.68   0
       309    275.4966    549.7994 307.8092089  +6.4556981     88450.91     133206.7     139588.5     77.65881     155.5663       311.35      1.633     4.03     845.0861     54.95705     13109.35        89     1.682     1.093 -45.16   0
       310     51.7894    552.0331 307.9020431  +6.4472481     4947.925     7834.168      8435.36     77.65881     155.6905     311.6292      1.633     4.08     848.1053     54.95705     724.3999        28     1.486     0.921 -53.59   0
       311    565.0488    547.2361 307.6890343  +6.4664750     798.1837     1084.177       1636.3     77.90731     155.8766     311.6913      1.676     4.83     845.8915     54.95705     134.2693         9     1.267     0.522 -48.17   0
       312    259.2601    544.8727 307.8161183  +6.4571864     1608.906     1289.101     614.2506     78.27859     155.9386     311.8153      1.508     4.06     844.9456     54.95705     240.4714        15     1.313     0.680 -38.95   0
       313    974.8904    543.6630 307.5189253  +6.4816580      1695.59      2408.42      2510.17     78.15503     156.0625     311.8463      1.573     4.34     841.7174     54.95705     244.1603        16     1.396     0.728 -38.22   0
       314    798.6332    542.2653 307.5921820  +6.4763469     16560.82     24496.24     25453.92     78.03127     155.9386     311.7533      1.589     4.03     844.6569     54.95705     2531.516        41     1.531     0.963 -46.23   0
       315    502.2853    540.6362 307.7153243  +6.4670958     40675.18     66299.89     70827.01     78.15503     155.8766     311.7843      1.780     3.92     845.7805     54.95705     5709.933        76     1.742     1.252 -37.60   0
       316    652.5374    539.3956 307.6529594  +6.4726432     923.7623     1142.733     1644.346      77.4095     155.6905     311.5672      1.360     3.76     844.8872     54.95705      175.942         8     1.035     0.622 -51.09   0
       317    662.2765    535.7346 307.6490372  +6.4744809     3031.116     4552.433     4753.039     78.27859     155.9386     311.7533      1.616     4.18     844.7136     54.95705     479.8494        23     1.504     0.824 -44.70   0
       318    214.7384    536.7871 307.8348818  +6.4590277     2014.427     3188.644     3378.153     77.65881     155.7526     311.5052      1.661     4.45     844.9037     54.95705     301.5478        19     1.496     0.788 -39.99   0
       319     50.2933    537.1589 307.9031665  +6.4533387     1134.971     1819.686      2049.16     78.27859     155.8766     311.8773      1.930     4.45     847.8065     54.95705     165.0161        13     1.319     0.638 -54.33   0
       320    672.3221    535.9832 307.6448563  +6.4747146     1378.106     2065.777     1874.715     77.78316     155.6905     311.6602      1.566     3.77     844.6319     54.95705     229.8205        14     1.258     0.772 -50.57   0
       321    100.6316    536.5710 307.8822801  +6.4552769      437.966     602.0051     589.1059     77.65881     155.6905     311.5362      1.799     3.65     846.8187     54.95705     94.25916         5     1.347     0.284 -45.20   0
       322    724.4429    534.2564 307.6232658  +6.4771721     1317.304     2137.213     2341.228     78.03127     155.8766     311.8153      1.668     5.03     844.6974     54.95705     191.5612        13     1.436     0.693 -52.20   0
       323    399.8313    531.2414 307.7581935  +6.4675370     1812.575     2761.924     2990.143     77.65881     155.7526     311.6292      1.611     4.20     844.8944     54.95705     284.1306        18     1.485     0.753 -47.02   0
       324     81.0860    533.0439 307.8905167  +6.4560749     604.1995     1030.951     1057.606     78.15503     155.8146     311.7843      1.738     2.80     847.0228     54.95705     97.90094         5     0.624     0.590  -5.27   0
       325    331.3048    529.5797 307.7867110  +6.4659217     3997.249     5856.859      6037.91     78.03127     155.7526     311.5982      1.604     4.28     844.2679     54.95705     601.1067        26     1.537     0.839 -46.97   0
       326    511.4090    529.2260 307.7119183  +6.4721128      2147.41     3444.341     3948.169     77.78316     155.7526     311.6602      1.795     4.59     845.1465     54.95705      331.499        20     1.561     0.744 -49.59   0
       327    146.5883    528.1691 307.8634767  +6.4602929     26268.09     39580.04     40902.89     77.65881     155.6905     311.6913      1.608     4.00     846.2933     54.95705     3741.327        53     1.601     1.028 -46.19   0
       328    874.2828    528.4042 307.5612246  +6.4845985     1623.011         2400     2334.144     77.65881     155.5663     311.5362      1.496     4.38     843.6121     54.95705     248.4197        13     1.285     0.715 -39.46   0
       329    111.7334    526.3386 307.8780145  +6.4598753     2778.811     3971.487     3551.099     78.15503     155.8766     311.7843      1.531     3.98     846.3821     54.95705     407.7673        17     1.326     0.767 -39.31   0
       330    348.4676    524.8031 307.7797434  +6.4684704     1145.894     1681.456     1710.969     77.53425     155.5663     311.5672      1.604     5.49     844.0598     54.95705     170.0027        12     1.333     0.637 -50.15   0
       331    972.1392    522.8552 307.5207641  +6.4901575     5237.857     7653.681     8037.313     78.27859     155.9386     311.7533      1.568     3.77     841.2647     54.95705     777.0643        26     1.456     0.895 -47.06   0
       332    545.1089    515.4128 307.6983852  +6.4789459     1411.447     2002.501     1923.807     77.90731     155.6905     311.5672      1.501     4.00     844.2217     54.95705     218.0577        14     1.297     0.702 -35.13   0
       333     10.8821    512.5228 307.9203665  +6.4621821     25754.36     38913.22     40976.45     78.27859     156.1863     311.9082      1.637     4.01     847.6664     54.95705     3643.111        49     1.606     1.022 -45.94   0
       334    443.5980    509.3108 307.7407529  +6.4780607     43041.89     64572.98      67208.8     77.53425     155.5663     311.5362      1.617     3.99     844.0027     54.95705     6644.123        63     1.612     1.042 -46.21   0
       335    651.6609    509.0095 307.6543432  +6.4851598     12378.42     18289.83     19284.95     77.53425     155.8146     311.5362      1.548     3.89     843.8916     54.95705     1856.604        36     1.501     0.907 -46.46   0
       336    291.5425    509.5418 307.8039005  +6.4728588     996.5558     1540.698     1803.633     78.15503     155.8766     311.8153      1.756     4.80     843.2629     54.95705     145.2391        10     1.292     0.504 -46.29   0
       337    208.7659    506.8566 307.8383711  +6.4711843      19046.7     30786.78     32323.49     78.03127     155.9386     311.7843      1.731     3.87     843.7605     54.95705     2445.075        52     1.574     1.231 -38.67   0
       338    174.5327    507.9359 307.8525530  +6.4695869     1591.633     2313.195     2149.999     78.15503     155.9386     311.8463      1.478     4.43     844.8646     54.95705     230.1163        16     1.391     0.794 -51.15   0
       339    985.4959    507.5493 307.5157281  +6.4969230     1157.962     1661.511     1558.246     78.03127     155.8766     311.9702      1.820     3.41     840.5217     54.95705     169.5144        11     1.062     0.701 -36.34   0
       340    825.5694    507.0345 307.5821741  +6.4917938     1024.409     1408.926      1495.94     77.78316     155.6905     311.5362      1.506     4.79     843.6008     54.95705     149.2283        12     1.228     0.662 -42.78   0
       341    913.8693    507.0726 307.5454958  +6.4947285     766.3027     1042.503     1063.718     78.27859     156.0625     311.7843      1.308     4.37     842.2832     54.95705     126.0394         8     1.099     0.495 -36.05   0
       342    573.4470    505.7604 307.6869391  +6.4838811     2916.659      4236.41     4836.725     78.03127     155.9386     311.5982      1.537     4.26     843.8174     54.95705     446.2751        18     1.346     0.723 -47.61   0
       343    947.2651    502.9566 307.5317618  +6.4975431     5091.469     7467.523     7533.686     78.15503     155.8766     311.7843      1.593     4.08     841.3989     54.95705     710.2343        25     1.410     0.886 -42.81   0
       344    620.4805    501.3376 307.6675518  +6.4872831     6546.627     9529.396     10018.75     78.27859     156.0006     311.7533      1.598     4.16     843.7414     54.95705     990.8201        27     1.514     0.832 -47.32   0
       345    107.8842    501.9245 307.8804369  +6.4698255     1096.339     1752.851     2055.098     78.27859     156.2482     311.8463      1.632     5.05     845.5375     54.95705     159.0167        10     1.226     0.588 -57.11   0
       346    969.8647    495.2049 307.5226338  +6.5014981     3433.115     5162.201     5140.062     77.53425     155.6284     311.5672      1.591     3.99     840.5831     54.95705     492.6993        20     1.372     0.809 -44.95   0
       347    532.6317    492.6407 307.7043328  +6.4879298     7350.174     11021.38     11445.64     77.78316     155.8146     311.6602      1.614     4.05     843.0485     54.95705     1179.114        30     1.524     0.877 -45.54   0
       348    408.1704    494.0061 307.7559825  +6.4831905     771.2531     1161.136     1605.317     77.65881     155.7526     311.5672      1.752     4.58     842.8563     54.95705       117.46         9     1.243     0.643 -49.52   0
       349    378.6042    492.8451 307.7683019  +6.4826772     2611.583     4062.744      4015.26     77.53425     155.6284     311.4741      1.586     4.05     842.7156     54.95705     371.7788        19     1.482     0.746 -41.57   0
       350    889.0983    488.5783 307.5564041  +6.5015372     3277.838     4721.354     5296.158     78.03127     155.6905     311.5672      1.505     4.03     842.2368     54.95705     494.5712        19     1.353     0.772 -46.97   0
       351    541.9445    489.2994 307.7005769  +6.4896216     887.5262     1304.945     1280.611     77.90731     155.9386     312.0631      1.664     5.62     842.7273     54.95705     140.2518         9     1.259     0.708 -51.84   0
       352    237.0071    487.9808 307.8272777  +6.4799274      645.877     752.9586     376.6224     77.78316     155.6284     311.5982      1.270     3.95     842.3822     54.95705     88.51483         7     0.879     0.544 -43.92   0
       353    896.5205    482.9290 307.5535102  +6.5041176      2213.32     3265.202     3600.282     78.40196     156.1863     311.7533      1.574     3.84      841.897     54.95705     339.8335        17     1.327     0.771 -43.83   0
       354    935.5698    482.2134 307.5373139  +6.5057172     1227.315     2000.143     1775.295     77.78316     155.7526     311.7223      1.684     4.00     841.0323     54.95705     207.7195        15     1.320     0.738 -54.66   0
       355    115.4539    482.6606 307.8779429  +6.4780339     695.8709     1022.842     879.4216     78.27859     155.8766     311.7533      1.398     3.86      844.759     54.95705      121.823         7     0.977     0.493 -30.85   0
       356    720.3464    478.9372 307.6268225  +6.4998755      2937.52      4360.16     4921.801     78.15503     155.8766     311.7533      1.546     4.19     843.1105     54.95705     441.2894        17     1.358     0.728 -44.02   0
       357     82.2788    477.8260 307.8918849  +6.4789128     1894.697     2873.664     2968.691     77.90731     155.8766     311.7223      1.580     4.25     845.1403     54.95705     283.2942        19     1.452     0.830 -48.88   0
       358    431.7117    477.3483 307.7467649  +6.4908584     1145.359     1662.591     1686.565     78.15503     155.7526     311.8773      1.565     4.35     842.1369     54.95705     161.8208        10     1.098     0.642 -41.51   0
       359    391.3497    476.9742 307.7635421  +6.4896579     3676.461     5379.354     5347.257     77.78316     156.0006     311.6913      1.556     4.12     841.9374     54.95705     486.3633        20     1.395     0.815 -40.69   0
       360    619.1136    473.5846 307.6690512  +6.4986961      10346.6     15213.95     16072.26     77.78316     155.6905     311.6913      1.573     4.27     842.6555     54.95705     1436.841        33     1.496     0.912 -45.18   0
       361    782.0746    469.8728 307.6014860  +6.5056831     16449.06     24757.85     27165.45     78.40197     156.1863     311.8463      1.631     4.79     842.6333     54.95705     2668.694        53     2.119     0.910 -48.18   0
       362    301.5581    470.2406 307.8010642  +6.4894218     2727.734     4182.772     4231.278     77.90731     155.9386     311.6602      1.638     4.70     841.4698     54.95705     438.5895        24     1.607     0.822 -45.31   0
       363    424.9696    470.0536 307.7498106  +6.4936439     625.6893     744.1498     524.4743     78.03127     156.0006     311.6913      1.372     3.92     841.7379     54.95705     109.0788         6     0.970     0.454 -35.97   0
       364    810.6797    467.1442 307.5896954  +6.5077663     1369.986     2086.424     1789.156     78.27859     155.9386     311.8153      1.602     3.61     842.3572     54.95705      201.965        15     1.169     0.889 -57.98   0
       365    384.5503    466.9944 307.7667021  +6.4935500     1587.866      2404.83     2934.149     77.53425     155.7526     311.4121      1.606     4.62     841.5141     54.95705     209.7958        16     1.367     0.785 -50.36   0
       366    966.9982    465.2593 307.5248264  +6.5137667      2096.24      3053.81     2963.506     77.53425     155.6284     311.5052      1.506     3.83      839.808     54.95705     316.0063        17     1.366     0.733 -49.51   0
       367    715.0895    464.5178 307.6294896  +6.5056531     639.9794      838.252     530.2548     77.90731     156.1245     311.8463      1.497     4.01      842.255     54.95705     96.53821         6     1.372     0.336 -41.53   0
       368    119.2677    461.9680 307.8770571  +6.4867056     4383.749     6745.952     6653.932     78.03127     155.9386     311.7533      1.625     3.97     844.2599     54.95705      583.397        28     1.521     0.921 -42.93   0
       369    373.0209    463.0201 307.7716247  +6.4948038     837.7914     1209.978     1372.771     77.90731     155.8766     311.7223      1.525     4.77     841.3448     54.95705     116.0566         9     1.280     0.504 -33.33   0
       370   1020.9342    459.8543 307.5026027  +6.5177983     3954.065     7077.813     7204.551     78.15503     154.2561     274.2836      1.880     4.38     838.2869     54.95705     427.4042        35     1.525     1.267 -33.09  24
       371    757.3325    461.0056 307.6120606  +6.5085167       2441.5     3550.916     3624.799      77.6588     155.5663     311.5982      1.453     3.72     842.0979     54.95705     347.0996        16     1.351     0.712 -51.03   0
       372    277.1116    459.0907 307.8115937  +6.4932037     1588.029     2485.002     2844.241     78.15503     156.4337     311.8773      1.652     4.05     841.1536     54.95705     244.6879        18     1.361     0.886 -40.03   0
       373    355.2751    456.7186 307.7792077  +6.4968095     3265.801     4752.753     5039.216     78.40197     156.1863     311.8463      1.601     4.00     841.0908     54.95705     481.0181        20     1.410     0.793 -45.43   0
       374    283.0012    457.5497 307.8091993  +6.4940379     392.8456     718.9283      1325.67     77.53425     155.5663       311.35      1.333     4.19     841.0433     54.95705     86.92047         5     1.123     0.446 -60.86   0
       375    711.0831    454.6165 307.6314859  +6.5096071     1581.811     2221.835     2056.812     77.78316     155.6284     311.6913      1.409     3.80     841.6548     54.95705     225.6424        13     1.199     0.678 -37.71   0
       376    985.8398    453.0247 307.5174090  +6.5194471     640.8003     1140.648     946.0807     77.78316     155.7526     311.5672      1.617     5.63     838.9548     54.95705     93.30438        10     1.348     0.662 -36.33   0
       377    243.0795    452.6414 307.8259464  +6.4947222     849.1718     1297.935     993.9286     78.03127     155.9386     311.7843      1.618     4.89     841.4463     54.95705     134.0801         7     1.149     0.588 -39.52   0
       378    552.4995    447.3538 307.6976019  +6.5072940     1127.713     1607.701     1494.263     78.15503     155.8146     312.0012      1.480     4.29     841.0815     54.95705     178.8662        11     1.221     0.587 -41.15   0
       379    474.6849    445.9691 307.7299705  +6.5052562     1248.339      1927.64     1953.396     78.15503     155.7526     311.6602      1.639     5.90     841.0895     54.95705     185.2717        14     1.356     0.723 -59.65   0
       380    837.6346    444.6779 307.5792515  +6.5179434     1418.088     2300.695     2138.366     78.03127     156.0006     311.8153      1.660     4.74     840.9741     54.95705     226.1705        15     1.452     0.745 -42.11   0
       381    823.0186    443.7482 307.5853540  +6.5178387     2094.862     2815.518     2904.729     77.65881     156.0006     311.5362      1.422     3.59     840.9986     54.95705     348.5897        15     1.252     0.717 -40.55   0
       382    720.2789    441.8874 307.6280931  +6.5151706     15392.54     22281.59     23396.04     77.90731     156.1863     311.9082      1.556     4.00     840.9036     54.95705     2260.828        38     1.512     0.936 -44.72   0
       383    641.3206    437.9440 307.6610235  +6.5141553     2656.952     4114.671     4650.171     78.27859     155.9386     311.8153      1.745     3.80     840.8172     54.95705     380.1765        23     1.279     1.090 -57.83   0
       384    622.4016    443.8023 307.6686854  +6.5111028     849.4877     1067.001     1108.115     77.53425     155.5042     311.4741      1.346     4.45     841.2047     54.95705     147.0292         8     1.355     0.416 -40.70   0
       385    616.5604    434.7981 307.6714140  +6.5146248     5441.721     8219.106     8954.495     77.28454     155.6905     311.5052      1.636     4.17     840.7983     54.95705     775.4878        26     1.513     0.851 -40.42   3
       386    612.7512    432.3492 307.6730785  +6.5155083      14994.4     22306.33     23426.47     78.15503     155.8146     311.7223      1.583     3.84     840.6782     54.95705     2448.425        38     1.548     0.914 -44.51   3
       387    945.6367    431.7514 307.5348209  +6.5268886     4086.109     5839.349     5737.369     78.03127     155.8766     311.6913      1.536     3.92      839.426     54.95705     606.1655        23     1.466     0.808 -44.08   0
       388    384.7007    427.6663 307.7679631  +6.5097928     29421.37     44506.97     46238.71     78.15503     156.0625     311.7533      1.637     4.06     839.8633     54.95705     4235.503        53     1.590     1.043 -47.47   0
       389    901.2108    427.5978 307.5534144  +6.5271199     1481.418     2510.083     3203.235     77.78316     155.6284     311.5672      1.879     4.39     839.9083     54.95705     221.3655        15     1.324     0.725 -46.51   0
       390    421.9622    428.9897 307.7524411  +6.5104974      664.968     826.5241     639.7184     77.53425     155.7526     311.4741      1.421     4.90     839.9312     54.95705     79.68231         8     1.365     0.498 -34.56   0
       391    130.7988    427.1790 307.8734414  +6.5014571     2410.503     3711.602     3669.324     77.78316     155.6284     311.5052      1.550     3.73     843.2488     54.95705     339.7625        20     1.433     0.795 -46.82   0
       392    896.8098    424.4071 307.5553494  +6.5282903     500.8166      1044.66     1792.691     77.65881     155.7526     311.6602      1.956     3.58     839.7782     54.95705     80.99225         5     0.963     0.382  84.29   0
       393    914.3578    422.2363 307.5481326  +6.5297728     5143.536     7823.555     7793.729     77.90731     155.9386     311.6602      1.634     3.97     839.6779     54.95705     683.7732        29     1.447     0.954 -40.34   0
       394    595.7608    423.9564 307.6804179  +6.5184043     520.3905     746.0908     1097.921     77.90731     155.9386     311.6602      1.618     3.72     840.3083     54.95705     98.63989         5     1.233     0.322 -26.19   0
       395     64.1891    422.6327 307.9012614  +6.5010909     1607.216     2572.176     2774.797     77.65881     155.6905     311.6292      1.809     4.50     844.3989     54.95705     208.6357        17     1.210     0.928 -47.08   0
       396    242.2200    418.2555 307.8274622  +6.5088903     13886.58      21353.5     21988.11     77.65881     155.9386     311.5982      1.641     4.12     840.7281     54.95705     1850.188        42     1.582     0.998 -46.04   0
       397    969.7886    420.4314 307.5251671  +6.5323688     646.3124     850.6791     864.8703     77.65881     155.6905     311.6602      1.245     3.44     838.3839     54.95705     114.9648         5     0.738     0.463 -17.71   0
       398   1013.9697    412.1057 307.5070925  +6.5372809     522.0162     836.7826     1091.832     78.27859     155.6905     311.7223      1.613     3.71     836.6969     54.95705     93.50891         5     1.001     0.395 -59.81   0
       399    737.2411    412.2030 307.6220427  +6.5279944     755.9194     1129.651     1600.822     77.53425     155.6284     311.5362      1.522     4.91     839.2669     54.95705     115.4716         7     1.027     0.663 -13.90   0
       400    705.5606    411.3889 307.6352300  +6.5272703     695.7339      997.849     1070.191     77.53425     155.7526     311.5362      1.395     4.29     839.2762     54.95705     142.7361         8     1.315     0.554 -28.44   0
       401     77.8754    412.0387 307.8959344  +6.5059259     818.9173     1207.117     1089.774     78.03127     155.9386     311.8153      1.575     4.07     844.0853     54.95705     165.0039         7     1.006     0.469 -47.06   0
       402    965.6177    410.5250 307.5272311  +6.5363199     931.0052     1243.451     1382.129     77.65881     155.6905     311.6913      1.411     4.49     838.1519     54.95705     147.8237        10     1.093     0.789 -33.36   0
       403    188.0232    408.3692 307.8503070  +6.5111491     988.0414     1557.141     2042.111     77.53425     155.6905     311.5672      1.805     5.58     841.4424     54.95705     150.8818        12     1.496     0.599 -54.89   0
       404    355.1926    407.8973 307.7808854  +6.5169639     1432.071     2125.125     2133.738     77.90731     155.5663     311.5362      1.681     4.49     838.9041     54.95705     186.9855        18     1.401     0.868 -43.87   0
       405    142.4158    406.8447 307.8693021  +6.5102436     4908.276      7644.69     7511.904     77.65881     155.7526     311.5672      1.654     4.13     842.4716     54.95705     697.5782        29     1.507     0.937 -43.92   0
       406    440.0593    405.4876 307.7457146  +6.5208083     768.9009     1156.663     1180.884     78.15503     156.0006     311.8773      1.490     5.16     838.7965     54.95705     120.1548         9     1.438     0.523 -39.40   0
       407    247.2537    405.6136 307.8257974  +6.5142791     1355.811     1987.524     1297.022     77.53425     155.8766     311.5362      1.560     4.26     840.1061     54.95705      206.392        14     1.270     0.712 -36.86   0
       408    635.5143    405.7380 307.6645164  +6.5272581     583.1465     955.5268     1048.598     78.27859     156.1245     311.7843      1.647     3.75     839.2523     54.95705     103.4706         5     0.976     0.415  -9.52   0
       409    828.4744    403.7971 307.5844263  +6.5345163     859.4217     1456.662     1566.193     77.65881      155.442     311.6602      1.863     3.84     839.3358     54.95705     136.1515         9     1.180     0.585 -34.71   0
       410    164.4751    402.7097 307.8602789  +6.5126933     2507.538     3902.256     3930.768     78.15503     156.1863     311.8463      1.743     4.58     841.7802     54.95705     326.3466        22     1.536     0.867 -50.58   0
       411    559.7836    401.9100 307.6961029  +6.5263011      983.304     1567.541     1330.171     77.90731     155.6905     311.6913      1.569     3.47     838.8289     54.95705     161.1407         9     0.995     0.597 -38.38   0
       412    976.3710    397.1096 307.5232129  +6.5422179     1028.508     1732.896     1837.483     78.27859     155.6905     311.6913      1.848     5.46      837.192     54.95705     151.3575        15     1.504     0.730 -61.23   0
       413    388.0836    397.5234 307.7675723  +6.5223517     2109.667     3176.658     3347.512     78.27859     156.2482     311.8773      1.661     4.53     838.3556     54.95705     290.4142        21     1.488     0.818 -47.91   0
       414    275.7822    398.0386 307.8142026  +6.5183658      874.667     1042.302     584.5026     77.78316     155.8146     311.5672      1.390     4.80     839.0847     54.95705     151.9128         8     1.165     0.607 -45.30   0
       415      6.4719    398.0091 307.9260661  +6.5093122     819.4196     1239.234     1619.002     77.65881     155.5042     299.9024      1.741     3.69     844.8564     54.95705     143.4234         8     1.106     0.536 -23.24  16
       416    322.1320    395.4451 307.7950373  +6.5209944     598.8123     1090.148     1537.379     78.15503     155.8766     311.8153      1.970     4.99     838.4276     54.95705     92.44934         7     1.126     0.783 -86.89   0
       417    595.0016    393.7083 307.6817491  +6.5308677     408.8287     562.4961     294.4576     77.53425     155.6284     311.5362      1.289     4.60     838.5225     54.95705     75.10657         6     1.262     0.475 -57.38   0
       418    441.8305    391.0574 307.7454642  +6.5268256     7337.961     11165.76     11481.63     78.03127     155.9386     311.6913      1.599     3.73     838.0169     54.95705     1089.363        33     1.542     0.930 -42.80   0
       419     38.3327    391.7956 307.9130423  +6.5129513     3087.724     5322.559     5679.889     77.65881     155.6284     311.5672      1.852     4.98     844.3634     54.95705     390.8964        29     1.712     0.960 -44.42   0
       420    782.4443    388.4509 307.6040616  +6.5393135     13687.19     19685.39     20596.82     78.27859     155.8766     311.8153      1.591     4.26     839.0043     54.95705     2088.233        37     1.507     0.922 -47.27   0
       421    774.5229    390.1241 307.6072961  +6.5383577      2054.65     3095.442     2830.414     78.40196     156.1863     311.8463      1.598     3.88     839.0047     54.95705     295.4052        18     1.412     0.779 -39.80   0
       422    345.6649    386.7386 307.7855553  +6.5253797     1065.575      1478.37     1407.767     78.15503     155.9386     311.8153      1.434     4.39     837.8251     54.95705     180.6265        12     1.227     0.634 -41.06   0
       423    190.4506    379.4327 307.8502745  +6.5231778     760.2104     1156.309     1357.332     78.03127     156.0006     311.7223      1.690     4.25     840.4752     54.95705     138.4565         7     1.210     0.426 -49.86   0
       424    907.5454    378.7991 307.5524168  +6.5474800       648.56     955.5917     679.4615     77.53425     155.6905     311.4121      1.635     4.62     838.4471     54.95705     129.2673         7     1.200     0.504 -40.03   0
       425    489.9348    374.7187 307.7260315  +6.5351856     3176.014     4583.188     4597.553     78.40197     156.1245     311.7843      1.549     4.13     837.0652     54.95705       434.79        22     1.373     0.846 -47.87   0
       426    462.1331    375.3000 307.7375606  +6.5340128     2381.087     3441.584     3166.311     78.15503     156.0625     311.7533      1.509     3.86     837.1412     54.95705     329.2021        18     1.352     0.752 -45.40   0
       427    918.6304    374.6485 307.5479508  +6.5495639      851.918     1034.998     1122.961     77.78316     156.0006     311.6913      1.424     5.96     838.1902     54.95705     135.8425        12     1.286     0.777 -52.25   0
       428    847.8322    371.4139 307.5774698  +6.5485340     33611.32     51118.84     53065.99     77.78316     155.6905     311.7223      1.622     4.02     838.8352     54.95705     4795.086        54     1.604     1.048 -51.66   0
       429    992.7884    371.6807 307.5172437  +6.5532652     529.3401     775.3904     1118.476     77.78316     155.6905     311.6292      1.826     4.48      835.347     54.95705     82.28668         5     1.153     0.494 -58.96   0
       430    340.0226    367.2575 307.7885550  +6.5332334     866.6191     1250.388     717.9641     77.78316     155.9386     311.5982      1.500     4.64     836.8807     54.95705      148.311         9     1.077     0.568 -53.54   0
       431     65.3161    367.7845 307.9026451  +6.5237738     633.0554     1180.039     1250.765     77.78316     155.6284     311.6913      1.794     4.38     843.5488     54.95705     96.67499         6     1.155     0.472 -44.63   0
       432     27.9157    363.9787 307.9183086  +6.5240849     1280.687     1981.345     1821.162     77.90731     155.6284     311.6913      1.528     5.15     844.5209     54.95705     188.6878        12     1.420     0.642 -58.06   0
       433    619.7162    363.7253 307.6724895  +6.5440753     2884.257     4217.507     4224.011     78.27859     156.2482     311.8463      1.558     3.86     836.9957     54.95705     436.0815        18     1.436     0.728 -43.69   0
       434    704.2928    357.3646 307.6375690  +6.5495337     82994.07       120811     126085.5     78.27859     155.8146     311.8463      1.594     4.14     837.6834     54.95705     11563.12        86     1.633     1.080 -45.20   0
       435    862.6003    358.7700 307.5717584  +6.5542481       1113.5     1847.266     1810.597     77.53425     155.7526     311.5982      1.729     5.12      838.654     54.95705      158.649        13     1.441     0.598 -40.79   0
       436     83.4920    356.8640 307.8954639  +6.5288948       1268.2     1766.971      1469.92     78.15503     156.1245     311.8463      1.499     4.91     842.8339     54.95705     186.8879        14     1.422     0.652 -44.79   0
       437    945.9602    354.3784 307.5372760  +6.5588459     844.2135     1168.302     1247.116     77.78316     155.7526     311.5982      1.385     4.67     836.5615     54.95705     170.2283        11     1.270     0.655 -29.61   0
       438    566.6511    354.0671 307.6948575  +6.5462847     2878.968     4238.701     4302.524     78.03127     155.8146     311.7843      1.629     4.13     835.2647     54.95705     438.0948        19     1.397     0.796 -46.14   0
       439    103.9966    352.8842 307.8870811  +6.5312285     6237.213     9573.827     10341.32     77.65881     155.5663     311.5052      1.604     3.91     842.1375     54.95705     881.6404        31     1.497     0.946 -49.44   0
       440    764.4391    352.7607 307.6127378  +6.5534472     628.6443     840.0152     676.6508     77.90731     155.9386     311.6602      1.085     4.03     838.2866     54.95705     117.2264         6     1.127     0.411 -56.36   0
       441    550.0497    350.3075 307.7018801  +6.5472804     7399.517     11175.44     11781.45     78.03127     155.7526     311.9392      1.602     3.87     834.6827     54.95705     1090.011        32     1.481     0.983 -51.98   0
       442    774.3307    351.4211 307.6086735  +6.5543312     475.6842     676.8829     456.8584     77.78316     155.8766     311.6913      1.368     3.41     838.2875     54.95705     75.00116         5     1.077     0.313 -21.74   0
       443    279.0157    347.8315 307.8145510  +6.5392036     2663.406     4243.168     4604.328     77.78316     155.6905     311.6913      1.734     4.18     837.3397     54.95705     351.9336        23     1.467     0.884 -47.64   0
       444    412.9240    345.4335 307.7590067  +6.5446923     26453.76     39791.33     41411.82     78.03127     155.9386     311.7533      1.600     3.93     835.6246     54.95705     3887.994        48     1.601     0.986 -45.99   0
       445    591.7313    344.8575 307.6847483  +6.5509277     565.9716     822.2913     345.3405     78.27859     155.8766     311.7223      1.491     3.49     835.4877     54.95705      98.8269         5     1.013     0.347 -43.56   0
       446    520.6160    344.1906 307.7143127  +6.5488190     1301.222     1989.096     1708.698     77.90731     155.6905     311.6913      1.630     4.58      834.818     54.95705     210.1396        12     1.374     0.568 -40.42   0
       447    392.6091    343.5082 307.7675103  +6.5448052     1270.698     1910.124     2133.302     77.78316     155.6284     311.5362      1.523     4.38     835.6173     54.95705     193.7648        10     1.237     0.522 -43.89   0
       448    492.0632    340.7498 307.7262894  +6.5492820     1250.554     1773.338     2216.271     78.15503     155.8766     311.8463      1.626     4.58     835.1829     54.95705     186.7679        14     1.327     0.746 -28.55   0
       449    807.8403    337.8697 307.5952072  +6.5610470     881.9767      1245.06     1122.885     78.03127     155.9386     311.8463      1.461     4.07     837.9189     54.95705     160.2015        10     1.214     0.590 -52.10   0
       450    643.7699    337.9948 307.6633612  +6.5555047     584.4603      631.274     121.4626     77.65881     155.7526     311.5672      1.425     4.31     835.9407     54.95705     81.40344         5     1.053     0.503 -51.82   0
       451    502.0203    335.8367 307.7223183  +6.5516445     8819.319      13131.1     13441.71     77.78316     155.6905     311.5362      1.562     3.88     834.8354     54.95705     1240.013        34     1.541     0.925 -44.77   0
       452    389.6123    338.1389 307.7689359  +6.5469214     772.8748     1229.397     1781.664     77.65881     155.7526     311.5052      1.616     4.64     835.4437     54.95705     110.1684         9     1.105     0.560 -25.58   0
       453    771.0930    334.6070 307.6105823  +6.5611652     3189.902     4434.486      4448.97     77.78316     155.6284     311.5982      1.476     3.95     837.6791     54.95705     482.2546        20     1.333     0.808 -46.89   0
       454    926.2088    334.5285 307.5461457  +6.5663821     743.5731     1195.086     822.9299     77.65881     155.5042     311.6292      1.445     3.42     836.4948     54.95705     172.6745         7     1.187     0.447 -39.31   0
       455    719.1421    333.8374 307.6321897  +6.5597447     894.5987     1261.042     1334.279     78.15503     156.0006     311.7843      1.413     4.04     837.0696     54.95705     166.7709         7     1.126     0.415 -31.13   0
       456    328.3705    332.5880 307.7945627  +6.5471561     1009.124     1561.394     1236.952     77.65881     155.6905     311.6913      1.558     4.18     835.9715     54.95705     159.7291        12     1.261     0.675 -36.65   0
       457    116.9484    333.2582 307.8823635  +6.5397676     462.4014      451.277     398.6015     78.15503     155.9386     311.7843      1.279     4.28     841.4066     54.95705     83.90588         5     1.060     0.492 -36.48   0
       458    440.8687    326.2804 307.7480427  +6.5535383     450.2866     663.4059     854.1481     78.40197     156.1863     311.7533      1.875     4.56     834.8765     54.95705     75.87445         8     1.107     0.533 -55.50   0
       459    164.0887    326.5565 307.8630080  +6.5441215     1059.045     1244.002     1268.985     78.15503     155.8766     311.8153      1.412     4.85     840.2056     54.95705     163.3649        12     1.345     0.623 -36.84   0
       460    610.9531    324.8354 307.6774357  +6.5598386     649.6403     830.7061     539.2906     77.78316     155.8766     311.6602      1.395     4.00     834.9391     54.95705     91.74878         6     0.941     0.486 -37.73   0
       461    391.8936    319.9562 307.7686002  +6.5545052     7673.875     11614.69     12100.72     78.15503     155.9386     311.9082      1.574     3.82     834.9019     54.95705     1041.978        31     1.516     0.922 -46.54   0
       462    745.4551    320.0197 307.6217221  +6.5663303     1107.714     1356.112     1244.656     77.65881     155.9386     311.5982      1.399     4.37     837.0347     54.95705     170.6002        12     1.178     0.760 -44.41   0
       463    247.7134    320.4874 307.8284754  +6.5494407      2131.38     3286.373     3548.852     77.90731     156.1863     311.8773      1.593     4.42     837.3143     54.95705      317.538        16     1.320     0.716 -37.84   0
       464    759.7849    315.9036 307.6159071  +6.5685092     56034.55     81420.12     84399.06     77.90731     155.6905     311.5672      1.550     3.90     836.9476     54.95705     8337.223        64     1.571     1.004 -44.49   0
       465    431.3515    315.2682 307.7523667  +6.5577655     2475.617      3909.49     3972.545     78.15503     155.8766     311.7843      1.615     4.05     834.5283     54.95705     375.6456        20     1.444     0.799 -41.53   0
       466    994.5444    313.0055 307.5184771  +6.5775501      1651.68     2253.262     2365.353     77.65881     155.7526     311.5052      1.465     3.40     833.8046     54.95705     254.8478        15     1.296     0.678 -46.40   0
       467    935.6177    312.2599 307.5429824  +6.5758907     2253.816     3134.909     2935.815     77.78316     155.8766     311.5362      1.552     3.96     835.2088     54.95705     367.4875        19     1.400     0.778 -45.49   0
       468    577.6547    312.6450 307.6916780  +6.5637559     1331.746     1766.408     1741.089     78.15503     155.9386     311.7843      1.546     4.69     834.0117     54.95705     215.2056        12     1.336     0.583 -46.41   0
       469    468.2382    311.7110 307.7371631  +6.5604721     1120.671     1741.979     1952.985     78.15503     155.8766     311.8153      1.648     4.90     834.1667     54.95705     158.6644        11     1.113     0.708 -40.89   0
       470    417.8336    310.8046 307.7581324  +6.5591546     2022.313     3107.959     3426.683     77.40949     155.8146     311.5672      1.576     3.91     834.4766     54.95705     307.8054        18     1.423     0.782 -46.39   0
       471    297.7609    309.9154 307.8080417  +6.5554882     639.5052     862.8975    -48.75799     78.15503     155.8766     311.7223      1.406     3.46     836.1358     54.95705     104.9794         5     1.048     0.331 -45.52   0
       472    839.3451    305.2624 307.5832119  +6.5755634     1349.307     1899.202     1915.886     78.27859     155.8766     311.7533      1.613     4.53     835.9011     54.95705     180.6003        15     1.284     0.819 -42.12   0
       473    468.3376    305.9190 307.7373166  +6.5628669      723.655     1070.172     1574.418     78.27859     156.0006     311.7533      1.509     4.27      833.915     54.95705      111.759         7     1.042     0.499 -44.86   0
       474    971.3478    303.7415 307.5284238  +6.5806008     628.1074     990.8311     1573.855     78.15503     155.9386     311.7843      1.807     6.05     834.1689     54.95705     106.6159         6     1.208     0.853 -61.02   0
       475    448.3995    302.6167 307.7457103  +6.5635612     1128.656      1771.68     2106.548     77.78316     155.5042     311.4741      1.856     4.94     833.9566     54.95705     167.6915        10     1.300     0.531 -46.81   0
       476    194.5265    302.2576 307.8511838  +6.5551781      2342.17      3332.72     3484.282     78.15503     155.9386     311.7533      1.562     3.95     838.5775     54.95705     340.5216        17     1.281     0.801 -43.82   0
       477    758.2060    300.4971 307.6170797  +6.5748175     6353.181     9278.818     9906.365     77.90731     155.6284     311.5672      1.565     4.03      836.379     54.95705     854.9521        30     1.503     0.872 -45.30   0
       478    229.6726    300.5435 307.8366418  +6.5570682     770.6415     1104.954     1060.498     78.03127     155.8766     311.7533      1.428     4.55     837.3683     54.95705     132.5925         9     1.191     0.601 -50.58   0
       479    774.5999    298.4617 307.6103374  +6.5762063     2835.679     4057.412     3282.006      77.4095     155.6905     311.4431      1.576     4.05     836.3266     54.95705      395.807        18     1.320     0.800 -48.40   0
       480    348.9019    299.9974 307.7871313  +6.5613017     726.0938     1008.714     1180.932     77.90731     155.6905     311.4741      1.687     5.39     834.6941     54.95705     98.78589         9     1.301     0.630 -35.75   0
       481     91.0376    299.5424 307.8942646  +6.5528151     1133.066     1694.559     1743.739     78.15503     156.0006     311.7843      1.709     5.91     841.2442     54.95705     195.5845        14     1.281     0.910 -28.24   0
       482    476.7991    297.6181 307.7340807  +6.5665780     508.8756     681.4617     683.3766     77.78316     155.5042     311.4741      1.681     4.58     833.4963     54.95705     76.24207         5     0.843     0.707 -50.66   0
       483     77.5957    293.7192 307.9000449  +6.5547665     1243.059     1873.593     1904.312     77.65881     155.5042     311.5052      1.684     5.43     841.4066     54.95705     187.8042        14     1.296     0.826 -57.77   0
       484    363.9935    293.0880 307.7810947  +6.5646614     1737.898     3247.792     3242.277     77.65881     155.6284     311.5362      2.003     5.97     834.3347     54.95705     211.0954        25     1.761     0.932 -18.12   0
       485   1012.8251    289.4155 307.5116716  +6.5879002      6213.61     9005.736     9437.664     77.90731     155.8146     311.7223      1.565     3.97     833.2877     54.95705     922.0864        29     1.463     0.939 -44.86   0
       486    490.8993    289.0784 307.7285103  +6.5705769     2093.534     2948.828      2407.01     77.90731     156.1863     311.8153      1.511     4.19     833.0621     54.95705     293.3351        19     1.420     0.767 -44.88   0
       487    253.4505    284.7884 307.8272953  +6.5643727     5890.423     8863.376     9803.598     77.53425     155.8146     311.5052      1.641     3.82     836.6245     54.95705     893.9399        30     1.526     0.943 -45.83   0
       488    261.8361    286.1761 307.8237651  +6.5640817     545.0826     830.6718     1467.804     77.78316     155.7526     311.5672      1.446     3.87     836.4315     54.95705     87.73413         5     0.988     0.435 -45.29   0
       489    920.9576    283.8205 307.5500249  +6.5871434     662.8183     856.0108     1096.583     77.65881     155.8146     311.6602      1.386     4.33     834.1398     54.95705      101.765         7     1.155     0.462 -56.31   0
       490    818.3536    283.3788 307.5926660  +6.5838970     614.2061     933.4053     1014.346     77.78316     155.9386     311.6292      1.780     4.75     835.2782     54.95705     101.0803         5     1.302     0.492 -41.26   0
       491    944.7477    279.9253 307.5402718  +6.5895461     475.2927     609.3418      400.731     78.15503     156.0006     311.7843      1.327     3.34     833.7405     54.95705     100.2101         5     0.979     0.331 -46.68   0
       492    772.9700    278.2772 307.6116913  +6.5844856     780.6274     1067.673     512.6941     78.03127     156.0006     311.7843      1.478     4.73     835.4275     54.95705     116.4634         8     1.009     0.629 -62.42   0
       493    230.2844    277.7520 307.8371560  +6.5664987     766.1092     1205.962     515.1896     78.15503     155.9386     311.8153      1.681     5.56     837.0979     54.95705     133.9447         9     1.186     0.998   0.53   0
       494    387.7244    275.5759 307.7718259  +6.5726887     1814.453     2616.325     3097.382     77.78316     155.8146     311.7533      1.687     3.81     833.7525     54.95705     259.9755        17     1.253     0.893 -44.50   0
       495    974.7880    274.6139 307.5279693  +6.5927421     1053.095     1539.421     1944.939     78.03127     155.6284     311.7223      1.523     5.14     832.9867     54.95705     155.0621        12     1.352     0.666 -48.85   0
       496    194.8070    273.0175 307.8520534  +6.5672599     532.3498      929.938     734.3399     77.78316     155.6905     311.6292      1.658     5.03     838.0308     54.95705     87.89996         6     1.326     0.540  -6.32   0
       497    309.8267    271.3607 307.8043282  +6.5718119     1157.199     1786.012     1151.365     77.78316     155.7526     311.6292      1.630     5.10     835.0361     54.95705      184.047        12     1.287     0.703 -35.74   0
       498    157.2901    271.2212 307.8676989  +6.5667389     1893.962      3019.48     3259.872     78.15503     155.7526     311.6602      1.736     4.49      839.022     54.95705     288.7408        19     1.642     0.698 -39.99   0
       499    566.9799    266.9855 307.6976467  +6.5822499      2239.63     3379.052     3204.038     77.90731     155.6905     311.6913      1.518     4.25     832.2959     54.95705     352.1881        20     1.524     0.781 -48.41   0
       500    910.8765    266.4857 307.5547936  +6.5939640     1784.859     2664.055     2683.711     78.15503     156.2482     311.8463      1.507     3.65     833.5515     54.95705     327.4235        17     1.287     0.963 -50.64   0
       501    730.6680    264.7015 307.6297207  +6.5886755     5401.637     7935.746     8015.715     78.15503     156.0625     311.8153      1.561     4.21     834.5786     54.95705     861.4423        27     1.430     0.892 -49.20   0
       502    671.4256    264.5100 307.6543390  +6.5867713     2276.067     3259.632     4016.901     78.27859     155.6905     311.6292      1.602     4.10     832.8096     54.95705     343.8274        17     1.418     0.739 -45.55   0
       503    968.7424    264.3308 307.5308251  +6.5967861     669.2909     867.4321     484.9315     78.27859     155.8766     311.7533      1.590     5.27     832.5287     54.95705     105.1271         9     1.387     0.566 -41.88   0
       504    303.3857    259.9925 307.8073869  +6.5762891     537.8106      680.853     96.68197     77.78316     155.6905     311.6292      1.435     4.96      834.956     54.95705     76.14563         8     1.187     0.588 -20.84   0
       505    385.7934    259.0391 307.7731847  +6.5794514     622.4982     862.5269     984.6745     77.53425     155.6284     311.5052      1.486     5.14     833.4493     54.95705     121.4905         8     1.296     0.576 -32.01   0
       506    926.5922    256.7518 307.5485903  +6.5985079     1188.992     1607.415     1578.415     77.65881     155.8146     311.4431      1.522     4.50      833.223     54.95705      178.038        11     1.109     0.817 -61.20   0
       507    230.1597    249.7506 307.8381518  +6.5780554     2389.674      3653.97     4020.843     78.15503     155.9386     311.7223      1.638     4.17     836.8473     54.95705     342.4702        19     1.399     0.774 -39.88   0
       508    872.7311    248.9187 307.5712296  +6.5999427     1965.117     2570.138     2710.322     78.40197     156.1863     311.8153      1.370     4.07     833.0715     54.95705     306.7048        15     1.322     0.659 -45.61   0
       509    763.4203    248.2487 307.6166656  +6.5965644     1569.758     2249.579     2233.726     77.65881     156.0006     311.5982      1.502     3.73     833.8869     54.95705     214.7987        15     1.216     0.767 -39.89   0
       510    583.7114    243.8728 307.6914723  +6.5923535     481.1216     801.2116     732.6956     78.15503     156.1863     311.8153      1.411     3.45     831.4776     54.95705     94.61139         5     0.987     0.348 -44.70   0
       511    464.0636    239.7696 307.7413170  +6.5900349     23516.59     35526.97      36901.8     77.90731     156.0006     311.7223      1.591     3.86      831.533     54.95705     3319.681        49     1.602     1.002 -47.48   2
       512    469.5698    234.3308 307.7392124  +6.5924653     1518.778     2596.777     2971.791     78.03127     155.9386     311.7223      1.895     4.87     831.2177     54.95705     227.3967        17     1.490     0.755 -52.34   3
       513    325.3344    241.3285 307.7988975  +6.5847326     807.3036     1073.292      619.738     78.15503     156.0006     311.8463      1.584     6.76     834.2745     54.95705     109.4351        11     1.460     0.877 -51.60   0
       514    790.1359    238.8678 307.6058811  +6.6013313     13711.12     20556.53     22126.94     78.15503     155.9386     311.8463      1.603     4.24     833.4247     54.95705     2010.125        48     1.746     1.051 -35.82   0
       515    728.9905    234.7273 307.6314232  +6.6009951     898.3674     1342.217     1404.409     77.65881     155.5663     311.6292      1.783     6.24     833.0394     54.95705     140.0718        13     1.125     1.016  72.49   0
       516    152.1673    233.1611 307.8711111  +6.5822801     2379.088     3436.522     3817.375     77.78316     155.7526     311.5672      1.569     3.72     837.9148     54.95705      315.422        21     1.406     0.813 -47.80   0
       517    126.8906    232.2439 307.8816425  +6.5818078     1130.483     1586.069     1989.261     78.15503     155.8766     311.8773      1.517     4.95     838.7961     54.95705      164.811        10     1.126     0.616 -59.52   0
       518    179.3641    231.2601 307.8598770  +6.5839804     673.2514     1105.296     1535.133     78.15503     155.9386     311.7533      1.870     6.15     837.3329     54.95705     112.0279         9     1.350     0.789 -39.75   0
       519    782.9012    231.2753 307.6091414  +6.6042241     659.9777     1282.969     1614.454     77.65881     156.0625     311.6913      1.907     5.97     833.0139     54.95705     89.17755        10     1.551     0.647 -18.15   0
       520    926.6173    229.5345 307.5494912  +6.6097463     1436.854     1779.197     1504.548     77.65881     155.8766     311.6602      1.339     3.82     832.3111     54.95705     224.8609        12     1.176     0.645 -44.76   0
       521    588.1122    225.5016 307.6902612  +6.6000861     4853.822     7115.088      7180.42     78.15503     156.3719     311.8153      1.575     3.93     830.8157     54.95705     694.6729        27     1.467     0.892 -45.49   0
       522    550.6890    225.5873 307.7058058  +6.5987962     2243.529     3388.468     3309.641     77.90731     155.6905     311.6913      1.603     4.32     830.7397     54.95705      310.965        19     1.472     0.758 -46.81   0
       523    308.4110    226.4681 307.8064286  +6.5902992     1217.365     1800.951      1927.87     77.65881     155.7526     311.6292      1.667     3.96       834.22     54.95705     190.7722        14     1.230     0.787 -48.57   0
       524    392.7148    224.7879 307.7714623  +6.5938253     1599.919     2485.661     2328.485     77.78316     155.7526     311.6292      1.648     4.14      832.587     54.95705     231.2626        14     1.244     0.802 -48.39   0
       525    948.9664    222.6885 307.5404351  +6.6133193     2806.587     3936.363     3982.277     78.27859     155.8766     311.7843      1.496     4.55     831.2426     54.95705     402.5931        16     1.401     0.651 -43.46   0
       526    895.1241    222.1114 307.5628241  +6.6117592     11584.12     17028.15     17686.79     78.15503     156.2482     311.8773      1.555     4.13     832.1084     54.95705     1670.256        39     1.504     0.970 -45.01   0
       527    570.1524    222.2397 307.6978322  +6.6008308     871.1171     1123.643     715.4173     78.03127     155.9386     311.5982      1.415     5.46     830.6667     54.95705     134.3687        10     1.427     0.590 -49.56   0
       528    322.8782    222.4219 307.8005548  +6.5924560     874.9077     1414.372     1544.698     77.78316     155.6905     311.7843      1.684     6.31     834.0352     54.95705     129.3107        13     1.552     0.720 -44.37   0
       529    214.3443    222.5663 307.8456385  +6.5887469     628.0795     829.1065     876.6259     78.03127     155.9386     311.7843      1.536     4.08      836.871     54.95705     101.6459         7     1.126     0.422 -60.90   0
       530     21.3203    218.6508 307.9259574  +6.5838630      26475.7     39905.38      41447.1     78.15503     156.0006     311.7843      1.651     4.00     840.8994     54.95705     3667.108        52     1.598     1.049 -47.39   0
       531    981.8338    219.9418 307.5268716  +6.6155507     10001.91        14836     14891.89     78.03127     155.9386     311.7223      1.569     4.13      829.793     54.95705     1541.343        34     1.490     0.930 -44.22   0
       532    693.1688    219.9098 307.6468027  +6.6059139     2899.622     4320.494     4512.088     78.27859     155.7526     311.7533      1.517     4.20     831.7078     54.95705     417.6476        19     1.435     0.724 -46.83   0
       533    267.6205    219.6759 307.8236033  +6.5917322     1216.533      1769.69     1799.146     77.78316     155.7526     311.7223      1.451     4.31      835.186     54.95705     179.1254        12     1.191     0.652 -45.49   0
       534    501.8200    214.5943 307.7264780  +6.6016960     2000.915     3054.631     2837.627     77.78316     155.6284     311.5982      1.628     4.43     830.3795     54.95705     298.8784        18     1.528     0.720 -59.19   0
       535    833.5878    211.6178 307.5887419  +6.6140353     2265.259     3029.795     2729.838     77.90731     155.6284     311.6913      1.527     3.98     831.8969     54.95705     342.5268        16     1.280     0.745 -46.43   0
       536    745.3804    208.0716 307.6255080  +6.6125493     41533.27      61125.3     63644.04     77.78316     155.8146     311.7223      1.578     4.21     831.9207     54.95705     5502.429        57     1.549     1.021 -45.56   0
       537    513.7515    210.6723 307.7216529  +6.6037155     2595.801     3797.597     3777.731     78.15503     156.0006     311.8153      1.557     3.87     830.2576     54.95705     372.5352        20     1.420     0.810 -52.84   0
       538    886.0959    210.6337 307.5669594  +6.6161966     2054.454     3039.258     3222.161     78.27859     155.8146     311.9082      1.622     4.60     831.6389     54.95705     326.1436        16     1.320     0.692 -38.11   0
       539    348.4514    207.4480 307.7904349  +6.5994976     6329.122     12274.11     13147.49     78.27859     155.8146     311.7843      2.095     6.45     833.5643     54.95705     796.5652        47     2.101     1.100 -65.52   0
       540   1017.3871    205.7194 307.5125760  +6.6226095     1703.475     2508.063       2848.5     77.78316     155.6905     308.3242      1.594     4.58     827.8741     54.95705     261.7507        15     1.299     0.838 -59.73  16
       541    979.1220    206.8646 307.5284359  +6.6208595     2928.391      4107.23     4198.652     78.40196     156.0006     311.7533      1.472     3.81      829.401     54.95705     408.4487        19     1.369     0.773 -40.51   0
       542    913.2505    205.1763 307.5558603  +6.6193570     7893.434     11375.55     11782.94     77.78316     155.9386     311.6913      1.535     4.10     831.3101     54.95705      1078.52        30     1.465     0.867 -49.45   0
       543    456.7465    204.2109 307.7455530  +6.6044707      5256.69      7933.43     8808.915     77.53425     155.8766     311.5052      1.599     3.79     830.4044     54.95705      806.304        27     1.483     0.876 -48.05   0
       544    231.0527    200.8684 307.8394289  +6.5982674     690.7513     998.1252     902.2424     78.03127     155.8766     311.6913      1.485     3.95       836.33     54.95705     117.7748         6     0.920     0.484 -34.31   0
       545    114.1903    195.4537 307.8881603  +6.5965694      4923.17     7578.746     7812.657     77.53425     155.8766     311.5052      1.639     4.06      838.472     54.95705      667.642        27     1.484     0.924 -44.74   0
       546    933.7166    194.8062 307.5477044  +6.6243223     870.5674     1432.042     2319.406     77.78316     155.6284     311.5982      1.609     4.54     830.6538     54.95705     151.8864        11     1.465     0.552 -36.77   0
       547    259.7201    193.2702 307.8277755  +6.6023686     6916.937     10359.08     10953.55     78.40197     156.1863     311.7533      1.614     3.91     835.4139     54.95705     987.6689        30     1.550     0.886 -41.90   0
       548    284.4380    192.1994 307.8175426  +6.6036418     34422.47     52329.62     54778.21     77.28454     155.7526     311.5982      1.629     4.20      834.731     54.95705     4864.053        54     1.593     1.026 -45.25   0
       549    610.5451    193.8116 307.6820058  +6.6139219     655.7742     929.7755     1359.526     77.53425     155.8766     311.4741      1.532     4.65     830.3362     54.95705     108.4064         7     1.039     0.591 -40.95   0
       550    713.5583    191.7163 307.6392778  +6.6182371     924.6984      1177.27     1542.136     78.15503     155.8766     311.7223      1.395     3.93      831.106     54.95705     147.1609        10     1.181     0.572 -33.01   0
       551    199.2142    192.3988 307.8529415  +6.6006930     397.0555      442.415     1063.375     77.78316     155.6284     311.5672      1.375     4.55     836.5262     54.95705     65.44519         5     1.146     0.514 -57.44   0
       552    408.5052    187.7094 307.7661502  +6.6096643     52558.61     78086.41     81084.52     78.15503     156.4337     311.7843      1.638     3.99     830.7236     54.95705     7569.603        61     1.605     1.036 -43.96   0
       553    164.3802    188.9621 307.8675287  +6.6009395     4115.161     6247.196     6553.133     77.78316     155.6905     311.4741      1.639     4.12     836.6364     54.95705     534.0551        27     1.493     0.915 -43.23   0
       554    425.7587    188.3100 307.7589620  +6.6099956     1475.996     2182.165     2484.543     78.15503     155.9386     311.8153      1.502     4.38     830.2507     54.95705     238.5161        16     1.400     0.753 -49.09   0
       555    747.8156    183.9750 307.6253046  +6.6225798     34536.34     50429.36     52561.59     77.90731     155.8146     311.7223      1.529     3.83     830.8061     54.95705     5148.792        50     1.544     0.967 -44.68   0
       556    578.9036    186.5609 307.6953953  +6.6158551     461.5044     496.2222      795.748     78.15503     155.8146     311.9082      1.353     3.80     829.8882     54.95705     91.26147         6     1.233     0.336 -50.11   0
       557    312.5475    185.3921 307.8060940  +6.6073973     19008.54     28496.19     29626.12     77.65881     155.7526     311.5052      1.644     4.19     834.0804     54.95705     2775.419        45     1.543     1.023 -43.34   2
       558    320.0585    184.7538 307.8029951  +6.6079133     2035.872     3918.781     4768.339     78.15503     155.9386     311.9082      2.198     6.29     833.9199     54.95705     295.3909        28     1.960     1.007 -62.21   2
       559    695.6850    185.8591 307.6469001  +6.6200570      1084.76     1425.038     1295.588     78.15503     155.9386     311.8773      1.325     3.70     830.8806     54.95705     167.7444        11     1.116     0.641 -40.29   0
       560    796.2612    184.4407 307.6051611  +6.6240081     1293.551     1992.857     2323.853     78.15503     155.9386     311.8153      1.709     4.42     830.7039     54.95705     191.2028        14     1.264     0.732 -35.10   0
       561     34.8453    184.5047 307.9214924  +6.5984165     692.1144     995.6173     1253.022     78.15503     155.8766     311.9082      1.831     4.39     840.6429     54.95705     108.2449         7     1.138     0.481 -49.45   0
       562     64.6368    181.0896 307.9092315  +6.6008305     9484.742     14627.67     14978.74     78.15503     155.8766     311.8153      1.646     3.93     839.7364     54.95705     1354.245        38     1.545     1.010 -45.25   0
       563     98.3918    179.1435 307.8952742  +6.6027712     1709.633      2454.86     2330.228     77.53425     155.8146     311.5362      1.489     3.75     838.6917     54.95705      267.142        14     1.184     0.763 -47.63   0
       564   1006.1904    178.4855 307.5181392  +6.6334803     1219.044     1664.946     1872.869     77.78316     155.6284     311.6292      1.504     4.30     827.2555     54.95705     188.2078        14     1.352     0.725 -49.44   0
       565    974.4217    177.3426 307.5313768  +6.6328918     430.4559     583.1856     762.5524     77.78316     155.8766     311.5982      1.112     3.83     828.4038     54.95705     85.85132         5     1.402     0.300 -44.72   0
       566    732.3858    172.0495 307.6321153  +6.6269872     725.5322     1032.051     1029.303     77.53425     155.8766     311.5052      1.495     5.69     830.3094     54.95705     109.0917         9     1.396     0.654 -20.72   0
       567   1007.0520    164.5814 307.5182464  +6.6392499     2233.998     3676.625     4924.322      77.6588     156.0006     311.5672      1.937     3.78     826.7322     54.95705     304.0349        21     1.377     0.999 -60.04   2
       568    581.5855    168.5260 307.6948871  +6.6233913     850.6366     1203.057     1212.994     77.65881     155.6905     311.6292      1.431     3.76     829.5184     54.95705     163.3564         9     1.205     0.462 -49.03   0
       569    590.1934    162.2025 307.6915232  +6.6262906     1255.529     1712.608     1237.799     77.53425     155.6284     311.6292      1.474     4.60     829.4901     54.95705     160.9738        11     1.153     0.651 -37.51   0
       570    598.5485    160.3396 307.6881145  +6.6273398     2146.641     3329.244     3468.221     78.15503     155.8766     311.7843      1.683     3.69     829.5842     54.95705     306.6908        20     1.316     0.942 -53.73   0
       571    283.2990    158.4773 307.8191523  +6.6175264     31643.45     48068.54     50716.65     77.78316     156.1245     311.8153      1.672     4.01     834.8914     54.95705     4543.612        65     1.772     1.094 -39.03   0
       572    342.7753    160.5343 307.7943731  +6.6186762     1076.723     1634.624     1360.866     77.78316     155.9386     311.6602      1.655     4.77     833.1184     54.95705     160.7812        12     1.169     0.789 -45.28   0
       573     28.5430    157.0677 307.9250376  +6.6095317     4652.667     7204.236     8005.168     78.27859     155.8766     311.7533      1.718     4.09     840.8604     54.95705     628.1083        31     1.633     0.982 -57.26   0
       574    715.0168    155.1107 307.6399001  +6.6333996     8436.527     12217.53     12548.26     77.90731     155.6905     311.6602      1.517     3.95     829.7527     54.95705     1325.054        30     1.454     0.883 -48.63   0
       575    192.6453    156.1016 307.8568947  +6.6154578     914.7289     1603.079     1555.003     78.15503     155.8766     312.0012      1.786     5.40     836.0087     54.95705     117.3582        11     1.312     0.626 -47.82   0
       576    269.2990    153.6761 307.8251305  +6.6190379     914.8727     1256.121     1524.086     77.78316     156.0625     311.7533      1.627     5.47     835.1493     54.95705     125.0751        11     1.156     0.729 -36.68   0
       577    125.7186    152.1076 307.8848342  +6.6148537     5012.859     7640.507     7990.089     77.90731     156.1863     311.8463      1.619     3.87     837.0307     54.95705     721.2585        26     1.502     0.870 -47.51   0
       578    587.7933    150.2488 307.6929220  +6.6311456     787.2511     1067.419     850.0746     77.65881     155.7526     311.4121      1.511     4.52     829.1268     54.95705     139.6469         9     1.381     0.577 -58.16   0
       579    653.4482    149.0577 307.6656839  +6.6338372     779.7895     1284.294     1378.262     78.15503     155.9386     311.9082      1.583     4.31     829.7107     54.95705     136.4719         8     1.522     0.347 -47.54   0
       580    464.7119    149.3748 307.7440884  +6.6273784     1389.802     1963.123     1597.987     78.27859     155.7526     311.6602      1.592     4.54     828.6988     54.95705     200.2755        16     1.330     0.829 -48.65   0
       581    396.3710    148.2173 307.7725208  +6.6255620      3835.32     6491.308     7044.672     77.78316     155.7526     311.7223      1.876     4.15     830.3493     54.95705     508.2913        28     1.490     1.079 -61.93   0
       582    360.8089    147.1676 307.7873310  +6.6248008     3297.488     4957.275     5169.257     77.65881     155.7526     311.6292      1.577     3.79     832.3773     54.95705      476.783        23     1.499     0.856 -49.04   0
       583    573.2071    147.3934 307.6990782  +6.6318356     710.2947     1172.705     1442.932     77.53425     155.7526     311.6292      1.902     5.43     828.8525     54.95705     111.4067         9     1.335     0.623 -55.50   0
       584    115.2569    146.8277 307.8893587  +6.6166812     1730.367     2647.235     3108.361     77.78316     156.0006     311.6913      1.596     4.02     837.1785     54.95705     277.4279        15     1.305     0.707 -51.53   0
       585    676.7908    144.6623 307.6561330  +6.6364337     958.4029     1412.389     1501.547     77.53425     155.7526     311.5672      1.617     5.62     829.6212     54.95705     145.7343        13     1.351     0.658 -42.61   0
       586   1007.8812    141.1079 307.5186873  +6.6489694     1476.075     2572.931     2749.858     77.90731     156.1863     311.8463      1.672     4.22     825.0492     54.95705     240.6877        15     1.515     0.616 -40.68   0
       587    733.7048    141.4881 307.6325926  +6.6396496     679.8998     959.6122     1156.696     78.15503     156.3101     311.8463      1.560     4.25     828.9784     54.95705     95.53204         7     0.964     0.533 -57.88   0
       588    212.7173    135.9628 307.8492350  +6.6244478     5632.466     8544.203      8958.84     78.15503     155.8766     311.7533      1.604     3.76     835.7737     54.95705     786.1221        26     1.457     0.892 -49.47   0
       589    674.4864    134.8849 307.6574187  +6.6403934     6571.626     9512.695     9185.875     77.90731     156.1245     311.8463      1.572     4.05     829.1257     54.95705     931.3936        30     1.469     0.893 -44.76   0
       590     95.4156    135.9452 307.8979691  +6.6205059     2145.394     3433.176     3732.293     77.53425     155.9386     311.4741      1.691     4.72     837.3102     54.95705     278.7491        21     1.590     0.797 -34.71   0
       591    851.6700    135.5327 307.5837790  +6.6460540     554.2665     918.8004     1121.812     78.15503     156.0625     311.7843      1.416     3.44     828.2104     54.95705     83.67053         5     1.082     0.316 -21.89   0
       592    822.6780    134.5522 307.5958579  +6.6454896     1107.738     1782.262     1500.266     78.15503     156.0006     311.7223      1.709     5.01     828.2684     54.95705      153.525        11     1.231     0.608 -42.70   0
       593    626.7220    132.1480 307.6773560  +6.6399235     9807.993     14477.09     15560.69     78.15503     155.9386     311.7843      1.577     3.73     828.8527     54.95705     1510.219        33     1.489     0.925 -45.99   3
       594    630.2986    123.6350 307.6761559  +6.6435581      56303.1     82215.81     85520.83     78.15503     155.8146     311.9392      1.590     4.01     828.5433     54.95705     8092.886        62     1.572     1.025 -44.55   2
       595    261.1380    132.8936 307.8292216  +6.6273439     828.8997     954.0916     1058.454     78.15503     155.9386     311.8463      1.280     4.22     835.2277     54.95705     133.0941        10     1.069     0.716 -25.22   0
       596    564.6015    131.5114 307.7031874  +6.6381043     678.8772     990.4837     1267.737      77.4095     155.5042     311.5672      1.483     4.73     828.4152     54.95705       94.005         8     1.204     0.527 -39.14   0
       597     25.4695    131.1236 307.9271910  +6.6201393     1033.156      1452.25      1227.51     78.27859     156.0625     311.7843      1.710     4.51     841.1656     54.95705     169.2949        12     1.257     0.676 -60.68   0
       598    353.7932    127.8531 307.7908963  +6.6325395     3892.664     6122.961     6291.944     77.65881     155.7526     311.5052      1.678     4.40     832.8216     54.95705     563.6213        26     1.643     0.886 -45.02   0
       599    535.5204    127.2362 307.7154137  +6.6388944     1888.809     2784.872     2981.332     78.03127     156.0006     311.7843      1.573     4.30     828.1741     54.95705     273.4539        17     1.449     0.782 -56.07   0
       600    999.7485    127.1357 307.5225340  +6.6544669     893.2126     1392.696     1772.335     78.15503     155.8766     311.7533      1.771     5.15     824.3715     54.95705     139.9658        12     1.263     0.746 -37.90   0
       601    309.2986    117.3345 307.8097368  +6.6353870     3669.329     5376.989     6011.096     78.15503     156.0006     311.8153      1.626     4.14     834.2206     54.95705     546.4911        25     1.496     0.843 -45.26   0
       602    709.0466    112.0403 307.6438261  +6.6509826      809.088     1202.008     781.8867     78.03127     155.9386     311.5982      1.421     4.35     827.8373     54.95705     143.6905         7     1.393     0.388 -35.21   0
       603    680.8870    110.7826 307.6555685  +6.6505590     1427.869      2058.13     1936.275     77.90731     155.6905     311.6602      1.480     4.26     827.8596     54.95705     203.9446        15     1.271     0.770 -43.49   0
       604      6.9633    100.2786 307.9359217  +6.6322500     727568.4      1548144      1684082     78.03127     156.0006     303.9358      2.172    11.90     842.7748     54.95705     61982.98       396     2.267     1.740 -56.51  28
       605    694.6087    107.4928 307.6499776  +6.6523768     3371.409      4853.51     4895.608     77.78316     155.6284     311.5982      1.618     4.29     827.6318     54.95705     487.5081        24     1.422     0.890 -42.13   0
       606    436.4452     98.5249 307.7575436  +6.6474241     4518.019     6609.622     6771.709     78.03127     156.0006     311.8153      1.622     4.11     828.4664     54.95705     657.9579        28     1.513     0.883 -40.86   0
       607    890.9595     94.8798 307.5688163  +6.6641519     2280.874     3254.241      2836.31     78.03127     155.9386     311.7533      1.471     3.92     826.1598     54.95705     319.4767        16     1.277     0.746 -45.27   0
       608    908.9375     94.0573 307.5613739  +6.6650921     4053.108     5776.017     5395.592     78.27859     155.8766     311.8153      1.504     3.76     826.0974     54.95705     585.4349        21     1.358     0.818 -40.31   0
       609    588.5783     94.8289 307.6944580  +6.6540534     720.1383     1193.841     1142.175     77.53425     155.6905     311.6602      1.656     4.89     827.5937     54.95705     111.9749        10     1.270     0.617 -49.81   0
       610    601.1623     92.5163 307.6893072  +6.6554300     1747.621     2617.381     2117.157     78.15503     155.8766     311.7223      1.527     3.90     827.5599     54.95705     260.6886        15     1.289     0.717 -44.09   0
       611    399.8436     90.3384 307.7730265  +6.6495751     2067.771     2989.225     2677.867     78.15503     155.8766     311.9082      1.533     3.80     829.7327     54.95705     293.1699        19     1.364     0.815 -51.02   0
       612    246.7548     91.9513 307.8365777  +6.6437638     817.1583     1112.762     1624.835     78.15503     155.8146     311.8153      1.508     4.80      835.214     54.95705     131.6042        10     1.214     0.610 -40.26   0
       613    147.6810     87.2579 307.8778985  +6.6423673     3300.905     5244.053     5410.855     78.15503     155.9386     311.8153      1.683     3.88     834.8242     54.95705     504.4012        30     1.586     0.987 -57.01   0
       614     29.5752     85.1326 307.9270392  +6.6392655     12856.51     19448.96     20307.94     77.78316     155.8146     311.6913      1.611     3.98     839.7492     54.95705     1764.518        39     1.500     1.050 -48.78   0
       615    296.0857     85.6377 307.8162946  +6.6480293     1295.773     2343.465     2690.877     78.15503     155.8766     311.7843      1.951     4.84      834.631     54.95705     181.7344        17     1.397     0.948 -50.40   0
       616    569.5791     84.6187 307.7026953  +6.6576320      637.348     798.6245     692.7184     77.90731     155.8766     311.6913      1.485     4.50     827.3914     54.95705     129.3132         7     1.245     0.462 -40.58   0
       617    556.5805     84.7176 307.7080928  +6.6571554     824.4167     1234.709     1282.707     77.78316     155.6284     311.7223      1.689     4.77     827.3802     54.95705     150.7142        10     1.390     0.620 -35.88   0
       618    950.8890     83.1816 307.5443068  +6.6709837      624.763     1115.381     756.7526     77.90731     155.6905     311.6913      2.060     5.32     824.5313     54.95705     87.75024         9     1.423     0.561 -53.48   0
       619    764.4113     84.2492 307.6217545  +6.6643098     678.9049     993.8322     1450.176     77.53425     155.8766     311.4741      1.461     4.04     826.5562     54.95705     112.6373         6     0.871     0.535 -49.05   0
       620    421.4562     80.6955 307.7643714  +6.6542821     1083.238     1679.594     1292.955     78.03127     155.9386     311.9702      1.679     4.54     828.4236     54.95705     161.4808        12     1.292     0.642 -53.68   0
       621    898.0897     80.6286 307.5663311  +6.6702742     710.3447     995.0627     665.2991     78.27859     155.6905     311.6913      1.581     4.29     825.7801     54.95705     99.92114         7     1.116     0.470 -47.62   0
       622    831.3561     79.7799 307.5940882  +6.6683941     6520.046     9239.753     9759.146     77.65881     155.8146     311.6292      1.540     4.30     825.9932     54.95705     959.3148        25     1.452     0.822 -46.75   0
       623    776.5264     80.0808 307.6168604  +6.6664362     3498.189      5031.47      4819.19     78.40196     156.1863     311.8463      1.513     4.08     826.3344     54.95705     488.3641        21     1.411     0.816 -49.48   0
       624    100.6345     81.0230 307.8976554  +6.6433569      557.624     782.1789       809.72      77.6588     155.6905     311.5672      1.481     3.73     835.0205     54.95705     106.2765         6     0.802     0.663 -58.95   0
       625    763.1169     79.6453 307.6224467  +6.6661674     663.8276     1056.302     1269.621     78.15503     155.9386     311.7843      1.455     3.40     826.4575     54.95705     109.3936         5     0.809     0.414 -20.19   0
       626    538.4849     78.2622 307.7158285  +6.6592138     1140.004       1752.1     2098.105     78.27859     156.0006     311.7843      1.780     6.27     827.2546     54.95705     165.3544        12     1.611     0.686 -34.85   0
       627     69.8135     76.9499 307.9105981  +6.6440000     3356.972     5053.739     5000.738     77.53425     155.8766     311.5052      1.602     4.00     836.5587     54.95705     464.6719        21     1.431     0.822 -50.92   0
       628     54.2557     77.8154 307.9170326  +6.6431184     1092.814     1438.762     1206.975     77.53425     155.8766     311.4741      1.577     4.84      837.589     54.95705     139.7545        13     1.231     0.832 -42.65   0
       629    658.7553     76.7781 307.6659059  +6.6638575     629.3537     674.9857     542.9871     77.65881     155.8146     311.5982      1.321     4.72     826.7276     54.95705     112.6521         6     1.033     0.611 -49.90   0
       630    431.3928     76.5489 307.7603824  +6.6563277     914.0451     1366.567     1538.192     77.65881     155.7526     311.4121      1.587     4.95     828.2384     54.95705     128.5616        10     1.321     0.526 -47.85   0
       631    593.7484     73.6783 307.6930206  +6.6629592     1295.804     1975.315     1788.558     78.15503     156.0006     311.7843      1.727     4.57     827.2114     54.95705     175.2332        14     1.414     0.676 -41.49   0
       632     12.3615     72.4504 307.9346195  +6.6439210     2603.891     3996.607     4433.471     77.90731     155.8766     311.7533      1.679     4.79     839.4302     54.95705     368.2972        22     1.570     0.778 -47.60   0
       633    720.6138     69.9549 307.6404323  +6.6687459     585.9252     987.9219     1081.034     77.53425     155.7526     311.5362      1.646     3.70     826.4032     54.95705     105.4377         6     1.195     0.329 -39.05   0
       634    770.9902     67.5978 307.6195794  +6.6714049     2153.562     3106.402     3218.816     77.65881     155.6284     311.5672      1.526     4.29     826.0657     54.95705     324.6647        17     1.395     0.719 -48.40   0
       635    411.3203     67.8489 307.7690152  +6.6592457     1144.835     1740.399     1314.034     78.15503     156.0006     311.7843      1.597     6.08     828.7761     54.95705     155.6899        15     1.527     0.736 -35.75   0
       636     84.7128     68.0768 307.9047075  +6.6481654     753.0817     921.7614     712.0564     78.15503     156.2482     311.8773      1.418     3.69     835.3099     54.95705     122.0213         8     1.030     0.614 -51.49   0
       637    108.9786     66.5074 307.8946788  +6.6496309     937.1179     1428.708     1520.192     78.03127     155.7526     311.5982      1.700     5.00     834.6295     54.95705     137.9506        10     1.380     0.514 -39.82   0
       638     97.5754     61.2556 307.8995938  +6.6514150     9877.954     15137.13     15294.26     77.78316     155.9386     311.5982      1.642     3.94     834.5267     54.95705     1400.082        38     1.511     1.032 -53.25   0
       639    426.7777     61.1382 307.7628186  +6.6625354     2691.019     3994.145     3915.436     77.78316     155.9386     311.6913      1.586     4.00     828.1002     54.95705     397.8354        21     1.500     0.775 -47.34   0
       640    247.5229     61.3699 307.8372897  +6.6564156     702.0778     942.5442     956.7678     78.03127     156.0006     311.7843      1.466     4.77     835.0118     54.95705     102.0993         6     0.968     0.666  62.15   2
       641    640.4367     53.3737 307.6743034  +6.6729070     19404.21     28380.74     29515.51     77.78316     155.7526     311.5982      1.598     4.11     826.3925     54.95705     2793.592        45     1.548     0.975 -46.27   0
       642    264.4101     55.1411 307.8304833  +6.6595553     1476.285      2607.16     3307.678     77.53425     155.8146     311.5052      1.903     5.54      834.921     54.95705     191.4334        18     1.400     0.964 -52.00   0
       643    949.1482     53.2034 307.5460339  +6.6833030     510.3957     881.6495     767.2566     77.53425     155.7526       311.35      1.814     4.58     823.8118     54.95705     122.7271         5     1.422     0.539 -70.18   0
       644    540.2150     49.3932 307.7160803  +6.6711911     5476.139     7771.813     7484.729     77.78316     155.6905     311.6292      1.545     3.93     826.6111     54.95705     774.2947        25     1.417     0.843 -43.89   0
       645    258.3438     49.6295 307.8331896  +6.6616267     2051.609     3267.325     4596.899     77.90731     156.0006     311.6913      1.784     4.13     834.9175     54.95705     326.4951        19     1.434     0.755 -40.84   0
       646    775.8008     48.8591 307.6182091  +6.6793027     467.1141     670.2726     1156.877     77.40949     155.6905     311.4741      1.646     3.38     825.5145     54.95705     96.56818         5     0.988     0.335 -45.69   0
       647    695.9556     48.5959 307.6513950  +6.6767390     509.1493     868.4894     1240.548     77.53425     155.5663     311.4741      1.979     4.84     825.7921     54.95705     78.49542         7     1.175     0.564 -26.39   0
       648    627.6827     47.3100 307.6798066  +6.6749832     1007.924     1752.776     2001.931     77.90731     156.1863     311.8773      1.950     3.72     826.4557     54.95705     162.7643        10     1.043     0.684 -50.72   3
       649    626.4772     43.0904 307.6804492  +6.6766850     3132.318     4573.936     5523.021     77.90731     156.1863     311.7843      1.523     3.88      826.408     54.95705     460.3088        19     1.349     0.802 -50.92   2
       650    445.7675     45.0132 307.7554711  +6.6698305     23373.68      35172.1     36252.11     77.65881     155.6905     311.7223      1.583     3.91     827.5183     54.95705     3405.216        46     1.514     1.025 -44.79   0
       651    266.3451     45.3630 307.8300090  +6.6636574     9624.673     14777.52     16493.01     78.03127     155.9386     311.8153      1.687     4.06     834.8793     54.95705     1367.525        38     1.553     1.007 -42.42   0
       652      7.3481     47.5282 307.9375447  +6.6540413     1231.323     1914.418     1471.336     78.03127     155.9386     306.7214      1.585     5.63     836.6993     54.95705     163.5914        11     1.291     0.692 -45.27  16
       653    326.2147     45.6431 307.8051240  +6.6655546     1129.646     1937.351     2122.897      77.4095     155.7526     311.5362      1.838     6.47     833.7465     54.95705     176.2772        16     1.341     0.964 -43.44   0
       654    923.6766     45.0793 307.5568900  +6.6858066      2026.24     2890.572     2574.302     78.40196     156.1863     311.9082      1.519     4.23     824.7189     54.95705     297.2563        17     1.375     0.760 -45.60   0
       655     31.8329     44.8780 307.9274615  +6.6559610     2482.833     3928.672     4188.572     78.03127     155.9386     311.7533      1.697     4.45     835.7111     54.95705     333.1698        22     1.450     0.879 -40.28   0
       656    558.6105     45.1087 307.7085808  +6.6735769      630.517     956.8066      469.558     77.90731     155.5663     311.5672      1.193     3.69     826.5522     54.95705     140.7694         5     0.830     0.486 -36.74   0
       657    254.2697     42.0353 307.8351384  +6.6646251     3217.725      5166.34     6623.171     78.03127     155.9386     311.8773      1.808     3.97     834.8853     54.95705     402.5435        26     1.444     0.953 -43.77   0
       658    307.2341     40.2344 307.8131927  +6.6671496     1046.949     1604.068     1666.708     77.90731     155.6905     311.5362      1.737     4.83     834.3067     54.95705     181.9491        10     1.205     0.549 -44.85   0
       659    944.2732     35.4404 307.5486544  +6.6904742      956.719       1441.2     982.7969     78.03127     156.0006     311.8463      1.531     3.94     823.5897     54.95705     155.4077        11     1.201     0.722 -32.60   0
       660    695.4490     34.5941 307.6520755  +6.6825031     2071.083     3045.541     2702.135     77.65881     155.7526     311.4431      1.555     4.02      825.395     54.95705     274.7618        16     1.276     0.789 -52.99   0
       661    100.3288     35.2145 307.8993292  +6.6622590     608.5788     962.8527     1149.254     77.65881     155.8146     311.6913      1.357     4.03     833.8585     54.95705     107.7793         6     0.936     0.495 -49.53   0
       662    261.2046     29.5749 307.8326771  +6.6700028     915.4638     1371.744      1392.29     77.65881     155.6905     311.6292      1.640     5.24     834.8246     54.95705     118.4896        11     1.302     0.768 -51.27   0
       663    206.2413     30.4877 307.8554833  +6.6677768     675.7062     686.1439     -51.4599     78.15503     155.8766     311.8153      1.237     3.36      834.496     54.95705     115.1062         5     0.761     0.430 -23.94   0
       664    183.8574     27.4320 307.8648867  +6.6682850     11151.09     16726.74     17276.69     78.03127     155.9386     311.7223      1.607     3.91     834.0912     54.95705     1633.201        35     1.481     0.979 -45.64   0
       665    929.4338     25.2015 307.5551635  +6.6942060     4271.744     6143.928     6194.095     77.28454     155.7526     311.5672      1.512     4.33     824.1404     54.95705     593.1438        22     1.439     0.769 -46.79   0
       666    528.0550     25.6437 307.7219314  +6.6805887      3193.45     4668.216     4448.643     78.15503     155.9386     311.7843      1.548     3.83     826.1629     54.95705     419.2331        22     1.439     0.802 -46.86   0
       667    730.3412     23.8533 307.6379375  +6.6881058     2010.034     2829.531     2299.895     78.15503     155.9386     311.7843      1.528     4.80     825.1518     54.95705     290.6444        18     1.435     0.780 -45.38   0
       668    466.2831     23.9588 307.7476552  +6.6792118     1943.128     2787.539     2481.358     78.15503     155.9386     311.7223      1.500     3.75     826.6951     54.95705      267.559        16     1.267     0.754 -51.51   0
       669    994.2016     21.4248 307.5283767  +6.6979279     2063.596     3139.671     2818.251     77.78316     155.6284     311.5672      1.644     4.66     820.4438     54.95705     300.7041        18     1.492     0.756 -45.84   0
       670    789.0508     21.0563 307.6136360  +6.6912251     617.4802     985.4492     457.2855     78.15503     155.9386     311.7533      1.692     4.60     824.6601     54.95705     90.89984         6     0.927     0.647 -42.33   0
       671    737.2500   1020.7818 307.6016398  +6.2767205      996.525     1639.464     1442.334     77.65881     155.2554     276.1098      1.682     4.48     857.4146     54.95705      159.295        13     1.266     0.742 -52.68  16
       672    368.0262   1019.3572 307.7549834  +6.2649369     1736.547      2715.44     2926.338     77.78316     155.9386      292.231      1.675     4.09     858.8578     54.95705     242.5266        17     1.412     0.759 -46.63  16
       673    335.8078     16.7708 307.8021109  +6.6777974     1029.564     1405.673     1953.415     77.78316     155.7526     311.5672      1.467     4.42     833.4516     54.95705     147.9357        11     1.208     0.621 -45.90   0
       674    520.5520   1010.9952 307.6919387  +6.2735055     1157.074     1863.115     2021.205     77.53425     155.7526     311.4741      1.608     3.91     858.9059     54.95705     194.1445        13     1.218     0.759 -36.13   0
       675    389.1400     15.6668 307.7799881  +6.6800451     674.4417     753.1722     792.4323     78.27859     155.8766     311.7843      1.435     4.51     830.0607     54.95705     132.2921         8     1.183     0.488 -51.87   0
       676    755.0192   1008.9454 307.5946587  +6.2822018     7509.668      12458.6     12721.18     77.65881     155.9386     311.5982      1.732     4.00     856.9766     54.95705     930.0244        38     1.595     1.093 -44.92   0
       677    550.4945   1009.4692 307.6795582  +6.2751391     4325.963     6679.425     6876.857     78.03127     156.0006     311.8153      1.712     3.76     858.8728     54.95705     594.3281        28     1.482     0.983 -46.85   0
       678    300.7764   1008.0818 307.7832831  +6.2673340     14792.17     23451.43     25516.25     78.03127     155.6905     311.7223      1.732     4.19     858.1232     54.95705     2005.636        52     1.929     1.010 -39.69   0
       679    816.2650   1008.1687 307.5692556  +6.2845701     1171.746      2066.36      2058.46     77.90731     156.0006     311.7223      1.804     4.97     856.3279     54.95705     151.2444        18     1.339     1.081 -32.94   0
       680    425.3536   1008.5267 307.7315464  +6.2713324     1113.226     1629.491     1952.151     78.03127     156.0006     311.7843      1.748     5.32     858.8373     54.95705     140.7131        11     1.275     0.625 -46.86   0
       681    272.2486   1005.8716 307.7952014  +6.2672881     944.4776     1429.188     1486.942     78.15503     156.0006     311.8153      1.838     5.37     857.8829     54.95705     121.2821        13     1.380     0.826 -58.25   0
       682    916.3743   1002.4120 307.5278826  +6.2902911     7884.191     13601.77     14295.39     77.78316     155.7526     311.7223      1.858     4.13     854.0686     54.95705     893.7968        43     1.594     1.263 -43.67   0
       683    547.6432   1001.7258 307.6810020  +6.2782406     8300.988        12971     13752.45     78.03127     156.0006     311.8153      1.691     3.88     858.7122     54.95705     1120.115        36     1.566     1.019 -47.17   0
       684    890.0040    998.5366 307.5389613  +6.2910106     11015.05     19361.94     20324.77     77.53425     155.6905     311.5672      1.872     4.21      855.041     54.95705     1245.379        50     1.699     1.270 -37.68   0
       685    602.4850    999.1459 307.6583187  +6.2811431     1345.951     2234.546      1844.99     78.15503     155.9386     311.9392      1.724     4.94     858.6492     54.95705     208.1168        17     1.552     0.865 -55.20   0
       686   1011.7391    997.9580 307.4884353  +6.2953127     4042.507     7509.579     7714.537     78.15503     155.9386     311.8773      1.972     4.52      849.436     54.95705     448.4965        37     1.674     1.211 -46.73   0
       687    534.3379    997.5604 307.6866660  +6.2795146      4076.74     6559.636     7326.269     78.15503     155.9386     311.8463      1.778     4.18     858.6103     54.95705     564.2646        32     1.660     1.174 -21.55   0
       688    643.7913    996.8446 307.6412457  +6.2834764     1426.714     2148.344     2344.975     77.65881     155.8146     311.5052      1.703     5.69      857.744     54.95705     173.9639        15     1.294     0.814 -46.34   0
       689     68.9411    996.1360 307.8799362  +6.2644699     918.1098      1413.58     1468.717     78.27859     155.8766     311.8153      1.507     5.51     855.4324     54.95705     122.0759        11     1.298     0.659 -45.22   0
       690    487.2733    993.9944 307.7063265  +6.2794092      2194.18     3618.555      3510.61     77.78316     155.5042     311.6913      1.725     4.96     858.4678     54.95705     274.2839        22     1.582     0.866 -41.33   0
