#   1 NUMBER                 Running object number                                     
#   2 X_IMAGE                Object position along x                                    [pixel]
#   3 Y_IMAGE                Object position along y                                    [pixel]
#   4 ALPHA_J2000            Right ascension of barycenter (J2000)                      [deg]
#   5 DELTA_J2000            Declination of barycenter (J2000)                          [deg]
#   6 FLUX_APER              Flux vector within fixed circular aperture(s)              [count]
#   9 FLUXERR_APER           RMS error vector for aperture flux(es)                     [count]
#  12 FLUX_RADIUS            Fraction-of-light radii                                    [pixel]
#  13 FWHM_IMAGE             FWHM assuming a gaussian core                              [pixel]
#  14 BACKGROUND             Background at centroid position                            [count]
#  15 THRESHOLD              Detection threshold above background                       [count]
#  16 FLUX_MAX               Peak flux above background                                 [count]
#  17 ISOAREA_IMAGE          Isophotal area above Analysis threshold                    [pixel**2]
#  18 A_IMAGE                Profile RMS along major axis                               [pixel]
#  19 B_IMAGE                Profile RMS along minor axis                               [pixel]
#  20 THETA_IMAGE            Position angle (CCW/x)                                     [deg]
#  21 FLAGS                  Extraction flags                                          
         1     69.1422     24.1430 307.9002079  +6.6509950     3259.718     10683.33     13900.59      87.4278     174.2339     348.2603      3.000     8.31     1064.585     61.38043     409.9049        70     2.456     1.881 -32.62   0
         2    398.3638     24.8807 307.7631691  +6.6616721     1044.383     2817.366     4080.431     87.15157     174.2339     348.2256      3.143     7.94     1051.836     61.38043     131.8425        18     1.892     0.931 -33.20   0
         3    611.6177     15.5404 307.6747298  +6.6726243     5991.528     20540.47     27989.08     86.87446     174.0262     347.9485      3.067     7.99     1043.637     61.38043     660.8578        89     2.511     2.036 -33.73  16
         4    511.7047     11.8868 307.7164370  +6.6708124     1889.871     5894.152      8041.37     87.28979     174.5796     348.2949      3.041     8.60     1046.701     61.38043     216.3829        60     2.348     1.791 -21.92  16
         5    237.5162      8.0654 307.8306807  +6.6632583     2940.404     10374.29     15930.86      87.4278     174.4414     347.0117      3.769    12.29     1061.494     61.38043     376.5781        91     3.322     1.992 -31.73  18
         6    417.0230      7.4333 307.7559937  +6.6695015     6868.571     25001.27     35126.43     86.73557      173.957     343.0634      3.176     8.34     1050.963     61.38043     853.7333       103     2.654     2.132 -31.07  16
         7      3.6347      8.4082 307.9280041  +6.6553058     930.3599     2482.746     2786.151     86.73557     168.8932     299.8181      2.499     8.83     1065.314     61.38043     114.1545        17     1.611     1.351 -46.40  24
         8    597.7810      6.0404 307.6808095  +6.6760894     1204.966     3790.815     5736.053     86.87446      173.957     330.5711      3.190     9.74     1043.782     61.38043     151.6409        35     1.996     1.675 -38.37  16
         9    893.7388      7.3142 307.5575855  +6.6853827     747.5295      1995.52     2941.216      87.4278     174.3031     342.3598      2.100     4.31     1036.821     61.38043     107.3005         7     1.501     0.352  23.57  16
        10    226.0837      4.6993 307.8355528  +6.6642675     1089.196     3554.503     5520.308     87.28979     174.7177     315.0724      4.055    10.89     1061.732     61.38043     134.5505        23     2.171     1.522  31.19  19
        11    693.9529    995.9155 307.6074107  +6.2703194     4591.386     10056.13     11300.52     87.28979     174.1647     348.2603      2.312     5.41     1098.723     61.38043     500.8789        49     1.987     1.411 -24.98   0
        12    590.3456   1023.4011 307.6495718  +6.2555250      499.236     780.3521     628.5846     79.02596     142.6564      266.524      1.471     4.20     1099.373     61.38043     108.2906         5     1.211     0.415 -13.27  24
        13    211.1530   1023.6243 307.8072529  +6.2428176     641.3344     1075.224     1224.166     76.23045     139.0616     262.6968      1.701     2.90     1099.372     61.38043     133.9294         5     0.754     0.420 -22.62  24
        14    550.2278    995.2377 307.6672053  +6.2658282     2465.075     5729.514     7339.363     86.73557     173.8876     348.0525      2.571     5.81     1098.425     61.38043     267.6338        44     1.894     1.510 -31.33   1
        15    686.3801    994.4789 307.6106085  +6.2706617     829.8339     1616.989     2552.213     86.87446     173.8183      348.191      3.175     5.84     1098.595     61.38043      131.374         9     1.145     0.840 -68.95   0
        16    724.8667    991.0192 307.5947192  +6.2733676     846.6723     1556.599     2417.427     86.87446     174.1647     348.1218      2.215     4.75     1098.384     61.38043     141.7528         7     1.021     0.629 -21.55   0
        17    933.2644    985.2194 307.5082443  +6.2826679     4993.347     9848.224     11211.53     86.87446     174.1647     348.0525      2.134     4.79     1094.778     61.38043      604.774        43     1.824     1.300 -26.42   0
        18    218.3263    986.5267 307.8055255  +6.2583830      773.135     1448.513     919.8899      87.5656     174.4414     348.2949      1.922     5.73     1098.591     61.38043     86.19324         9     1.205     0.768 -25.70   0
        19    692.6552    983.5071 307.6083684  +6.2754029     1910.894     4481.938     5745.592     87.15157     174.0955     348.3987      2.960     7.79     1097.981     61.38043     209.1399        41     2.171     1.423 -19.48   0
        20    415.6665    984.3036 307.7235345  +6.2658723     736.8596     1499.048     1600.094     87.28979     174.2339     348.2603      1.890     4.33     1098.366     61.38043     102.4976         7     1.218     0.438 -29.08   0
        21    340.1718    980.8994 307.7550452  +6.2647665     1121.248     2661.607     2746.285     87.28979     173.8876      348.191      2.305     7.56     1098.776     61.38043     123.0658        18     1.765     0.907   4.99   0
        22    726.8267    970.4910 307.5945954  +6.2819139     4929.972     10745.15     12675.87      87.4278     173.8876     348.0525      2.361     5.39     1096.761     61.38043     553.2668        52     2.103     1.396 -28.04   0
        23    522.5578    971.4383 307.6795156  +6.2747414     2359.116     5592.858     6702.521     87.01312     174.1647     348.0871      2.463     6.08     1098.124     61.38043     252.2367        38     1.783     1.476 -40.90   1
        24    272.6105    970.2795 307.7835007  +6.2669041     8079.179     19832.46      24786.4     86.87446     173.8876     348.0871      2.626     6.06     1098.514     61.38043       833.05        80     2.299     1.717 -24.88   0
        25    492.3235    971.7405 307.6920791  +6.2736117     681.1263     1092.999     740.5142      87.4278     174.2339      348.191      1.601     5.51     1098.403     61.38043     84.23523         8     1.388     0.617  -8.24   0
        26    787.0797    969.8641 307.5695578  +6.2841704     706.7697     1328.371     1235.641     87.56559     174.2339      348.191      2.223     6.17     1094.985     61.38043     113.7812         8     1.385     0.772 -41.24   0
        27    396.0118    969.7640 307.7321994  +6.2712254     530.5201     828.9926     1171.946     86.73557      173.957     347.8792      1.749     3.92     1098.359     61.38043     81.49121         5     0.857     0.513 -49.84   0
        28    887.9941    963.8594 307.5277900  +6.2899943     6068.107     12596.08     14230.41     86.73557     174.0262     347.9832      2.194     5.11      1093.71     61.38043     671.4436        52     1.964     1.362 -33.40   0
        29    519.5328    963.6007 307.6810381  +6.2778790     4409.081        10880      13550.7     86.45712     173.6795     347.9485      2.540     5.98     1098.004     61.38043     450.7964        56     2.049     1.613 -31.79   0
        30    861.5478    960.0801 307.5389161  +6.2906800     8518.296     17848.58     20354.86     87.28979     174.1647     348.2256      2.260     5.10     1093.543     61.38043     940.8015        59     1.987     1.448 -26.21   0
        31    983.1276    959.4717 307.4883714  +6.2949555     3730.016     7209.618     7840.354     87.56559     174.3031     348.2256      2.057     5.03     1092.012     61.38043      500.286        37     1.818     1.156 -31.62   0
        32    505.8844    959.4705 307.6868536  +6.2791318     2220.277     5553.765     6633.944      87.4278     174.4414     348.2603      2.574     6.77     1098.004     61.38043     239.7773        44     2.086     1.416 -16.71   0
        33    575.0891    960.1349 307.6580501  +6.2811566     765.3384      1704.81     1370.212     87.28979     174.3723     348.2603      2.111     5.07     1097.692     61.38043     122.2732         8     1.328     0.826 -84.70   0
        34    615.4832    957.9841 307.6413233  +6.2833865     855.7345     1706.579     1353.455     86.87446     173.8183     348.1218      2.021     7.82     1097.502     61.38043      96.0946        14     1.457     1.174  81.64   0
        35    459.0213    955.6842 307.7064709  +6.2791381     1127.005     2578.369     2681.071     87.01312     173.8183     348.1218      2.264     8.52     1098.124     61.38043     128.0645        23     1.858     1.092 -28.12   0
        36    893.3776    947.6249 307.5260968  +6.2968799     29116.73     61023.11     68978.86     86.73557      173.957      348.191      2.229     5.03     1092.691     61.38043      3546.33        89     2.111     1.521 -28.74   0
        37    200.7319    946.2525 307.8142056  +6.2744352     927.5015     2263.865     2592.415     87.15157     174.0955     348.1564      2.364     7.18     1097.126     61.38043     112.5271        16     1.314     1.098 -48.00   0
        38    791.2455    941.5106 307.5687795  +6.2960228     1663.829     3714.673     4172.585     87.28979     174.0262     348.3641      2.341     5.69     1093.286     61.38043     216.0388        31     1.807     1.218 -27.15   0
        39    739.4755    939.3890 307.5903821  +6.2951831     3877.104     8804.688     10798.01     86.87446     173.8183     348.0179      2.447     5.89     1094.084     61.38043     430.2504        50     2.047     1.471 -27.52   0
        40    209.1286    938.7531 307.8109675  +6.2778134     941.9005     1726.828     2049.447     87.28979     174.1647     348.2256      2.084     6.54     1097.084     61.38043     122.6161        12     1.241     0.995  29.94   0
        41     33.8811    937.3308 307.8838949  +6.2725543     1463.418     3843.777     3960.396     87.56559     174.4414     348.2603      2.532     8.57     1094.053     61.38043     161.2594        34     1.917     1.433 -26.09   0
        42    927.6332    934.4821 307.5122915  +6.3034439     4752.598     9659.771     10298.88     87.28979     174.0955     348.1564      2.173     4.92     1091.735     61.38043     559.5742        47     1.854     1.383 -27.37   0
        43    901.5104    926.1223 307.5234373  +6.3060331     1594.409     2931.691     3381.363     87.01312     174.4414     348.3641      1.988     5.83     1091.406     61.38043     206.7269        24     1.709     1.045 -33.06   0
        44    234.5306    922.7315 307.8009457  +6.2852792     2148.032     5750.699     6752.665     87.28979     174.3031      348.191      2.594     7.11     1097.104     61.38043     242.8358        48     2.013     1.655 -27.50   0
        45    622.2344    922.1417 307.6397239  +6.2984189     2633.953     6412.701     7381.195     87.15157     174.1647     348.1564      2.488     6.51     1096.019     61.38043      276.015        43     1.963     1.453 -25.09   0
        46    760.2202    922.0724 307.5823374  +6.3030254     766.8905     1906.813     2549.405     86.87446     174.0262      348.191      3.001     4.62     1092.764     61.38043     109.6184         7     1.111     0.927  -2.28   2
        47    971.7732    922.0018 307.4943526  +6.3100608     608.8968     1068.096     1668.606     86.73557     173.8183     347.9832      1.810     4.42     1090.489     61.38043     117.3396         6     1.073     0.517  -9.56   0
        48      3.5401    920.5120 307.8970828  +6.2784894     1176.187     2790.306     3134.158     87.28979     168.3212     298.7708      2.513     8.33      1093.63     61.38043     166.2108        20     1.769     1.226 -18.15  24
        49    443.5670    919.6444 307.7141151  +6.2935138     671.4149     1204.453     1296.738     86.87446     174.0955     348.0871      1.805     4.95     1097.546     61.38043     83.76099         6     0.992     0.699 -22.42   0
        50    855.1501    917.3625 307.5430137  +6.3081170     629.1098     1242.138     1544.064     87.01312     174.0262     348.0525      1.863     3.48     1091.368     61.38043     104.5869         5     0.823     0.425  18.59   0
        51    977.7528    914.0590 307.4921324  +6.3135403     672.1381     1609.718     1598.074     87.28979     174.1647     348.3295      2.551     6.08     1090.052     61.38043     93.41089         9     1.641     0.633 -46.93   0
        52    546.6793    914.5828 307.6714021  +6.2990326     722.9174     1799.319     2059.902     86.87446     173.8183     348.1564      2.613     4.84     1096.815     61.38043     104.9559         5     1.156     0.575  29.80   0
        53    266.2259    908.0438 307.7882613  +6.2924034     783.1618     1639.947     1701.268     86.87446     174.2339     348.0871      2.176     5.90     1097.322     61.38043     93.23364         7     1.307     0.748   8.09   0
        54    870.3439    901.3165 307.5372341  +6.3152497     4323.562     9456.812        10085     87.28979     174.1647     348.3295      2.249     5.47      1090.84     61.38043     530.3738        45     1.940     1.340 -34.67   0
        55    734.9658    904.0171 307.5934489  +6.3096476     480.3463     999.1478     987.7744     86.87446      173.957     348.0525      1.948     3.70     1092.598     61.38043     85.02332         5     1.022     0.385  57.83   0
        56    406.3739    898.6409 307.7302930  +6.3009541     1052.308     2643.782      3023.77     86.87446      173.957     348.0179      2.416     8.03     1097.315     61.38043     118.9489        21     1.798     1.176  61.72   0
        57    308.1325    897.2643 307.7711975  +6.2982527     4676.573     12160.75     14898.42     87.28979     174.1647     348.2603      2.657     6.46     1097.384     61.38043     452.0231        65     2.237     1.669 -32.79   0
        58    228.3505    896.3181 307.8044099  +6.2959856      3342.71     8833.956     10296.84     87.28979     174.1647     348.2603      2.651     6.72     1096.755     61.38043     346.6819        55     2.048     1.706 -29.95   0
        59    555.8047    890.6375 307.6684147  +6.3092286     498.3404     1308.288     2006.091     86.31757     173.8876     347.9485      1.565     3.57      1096.05     61.38043     110.6814         5     1.801     0.204  39.65   0
        60    886.9346    885.9226 307.5308513  +6.3221592     720.2888     1721.952     2129.956      87.4278     174.1647      348.191      2.520     7.69      1090.45     61.38043     97.47961         8     1.394     1.186  12.42   0
        61    722.0564    879.7337 307.5996360  +6.3192521     1018.534     2429.352     2816.695      87.4278     174.0955     348.2256      2.477     7.83     1091.987     61.38043     139.5995        16     1.471     1.313 -49.59   0
        62    953.5784    875.2435 307.5034913  +6.3287773     793.2533     1743.487     2245.742     86.73557     174.0262     348.0179      2.031     6.81     1089.286     61.38043     100.0934        10     1.830     0.710 -40.60   0
        63    640.9218    872.9139 307.6336112  +6.3193777     1207.288     2786.427     3149.496     87.28979     174.5105     348.3295      2.432     7.34     1092.898     61.38043     139.7964        23     1.657     1.239 -52.41   0
        64     37.7676    869.6752 307.8845727  +6.3006346     1329.548     3503.997     3823.705     87.15157     174.1647      348.191      2.585     8.92     1094.042     61.38043     157.5966        31     1.701     1.598 -51.54   0
        65     55.7788    869.1856 307.8770988  +6.3014383     957.2269     2336.594     2459.895     87.01312     173.8876     348.1218      2.416     7.80     1094.058     61.38043       114.23        16     1.513     1.126  35.47   0
        66    181.3871    868.3387 307.8248887  +6.3059793     985.3058     2585.149     2951.465     86.73557      173.957     347.9139      2.414     8.44     1095.535     61.38043     130.0278        19     1.531     1.300  27.09   0
        67    635.7708    862.0688 307.6361192  +6.3236873     3423.263     8678.242     10932.43     87.01312     174.1647     348.1564      2.674     6.54      1092.38     61.38043     376.5165        59     2.269     1.635 -25.62   0
        68    873.2079    858.2746 307.5374904  +6.3331275     1762.137     3812.158      4376.06     86.87446     173.6795     348.0525      2.288     7.40     1089.517     61.38043     192.9052        28     1.852     1.176 -24.13   0
        69    318.8776    855.6050 307.7681375  +6.3158216     7079.403     20268.48     26134.78     86.87446     173.6101     348.0179      2.810     6.72     1096.582     61.38043     678.7379        77     2.309     1.828 -24.89   0
        70     53.5721    856.0418 307.8784622  +6.3067947     654.1343     1420.268      1664.69     86.87446     174.0955     348.0871      2.272     4.12     1093.642     61.38043     85.91064         5     0.780     0.622  -6.26   0
        71     82.8763    846.2003 307.8666086  +6.3118389     817.2552     2002.125     2292.687     86.45712     173.4711     347.9832      2.583     8.18     1093.513     61.38043     104.9514        15     1.645     1.138  42.34   0
        72     66.1955    840.0078 307.8737559  +6.3138403     1168.835     3081.785     4231.875     86.59646     173.8183     348.0525      2.973    10.70      1093.11     61.38043     134.6068        28     2.103     1.516 -53.64   0
        73    863.2535    839.8784 307.5422496  +6.3403983       1070.1     2382.529     2854.081      87.4278     174.1647     348.2603      2.260     8.44     1088.512     61.38043     144.1375        17     1.672     1.189 -31.20   0
        74    834.2381    839.1441 307.5543429  +6.3397405     1164.233     2839.177     3354.309     87.28979     174.2339     348.2603      2.598     7.44     1088.631     61.38043     153.2177        22     1.598     1.403 -63.40   0
        75    797.9274    838.8631 307.5694553  +6.3386534      1685.66     4080.905     4297.649     87.28979     174.1647     348.2949      2.408     6.92     1088.868     61.38043     202.2059        33     1.896     1.302 -33.20   0
        76    533.8131    830.5814 307.6795878  +6.3333099     150324.9     409717.3     508218.2     87.01312     173.8183     348.1218      2.730     6.51     1093.898     61.38043     14480.35       200     2.456     1.983 -29.17   0
        77    378.2458    833.2365 307.7442019  +6.3270394     3436.155     9197.406     11297.07     87.01312     174.1647     348.1218      2.698     6.70      1095.58     61.38043     341.8763        64     2.156     1.818 -24.52   0
        78    321.3300    831.8793 307.7679199  +6.3257053     5530.361     15274.11     19807.15     87.56559     174.4414      348.191      2.833     6.80     1095.989     61.38043     549.0586        75     2.265     1.871 -28.31   0
        79    639.3386    827.8262 307.6357896  +6.3379531     1657.223     4501.405     5701.175     86.87446     174.1647     348.1564      2.822     8.02     1089.893     61.38043      204.522        42     2.112     1.577 -27.91   0
        80    871.9081    826.5312 307.5390988  +6.3461994     3085.821     7158.792     8294.344     87.28979     174.3031     348.2256      2.469     5.53     1087.689     61.38043     401.1768        45     1.886     1.469 -36.34   0
        81    614.6826    821.7641 307.6462493  +6.3396390     1480.731     3835.778     5509.417     87.28979     174.0955      348.191      2.978     8.41     1089.941     61.38043      155.543        37     2.054     1.391 -40.60   0
        82   1005.4861    820.5773 307.4837375  +6.3530802     3211.866     6498.049     7310.026     87.28979      173.957     348.0525      2.152     5.15     1084.996     61.38043     417.0511        40     1.991     1.197 -33.75   0
        83    802.2335    820.5910 307.5682793  +6.3463453     982.1295     2208.139     2526.779     86.73557      173.957     348.0525      2.207     6.58      1087.91     61.38043     140.6359        14     1.555     0.966 -58.91   0
        84    606.6315    818.1012 307.6497215  +6.3408850     914.2228     3101.961     5572.736     87.28979      173.957     348.3641      3.694     9.87      1089.86     61.38043     130.1028        24     2.544     1.068 -30.85   2
        85    890.8083    814.2617 307.5316499  +6.3518945     1705.133      4140.45     4564.721     86.59646      173.957     347.9832      2.343     7.97      1086.68     61.38043     198.9467        37     2.125     1.285 -22.51   0
        86    350.1619    809.2870 307.7566921  +6.3359991     1017.288     2905.317     4396.523     87.28979     174.0955     348.2256      3.105    10.68     1095.371     61.38043     136.6621        24     2.042     1.557   5.03   2
        87    485.5262    800.6039 307.7006837  +6.3440900     1425.452     3836.057       4820.7     86.73557     173.6795     348.0871      2.629     9.19      1093.01     61.38043     154.3617        29     1.665     1.552 -41.12   0
        88    830.3428    798.4150 307.5573336  +6.3564388     704.9951     1261.947     1790.045     86.59646     174.0955     347.9139      2.588     4.91     1086.456     61.38043     90.69995         6     1.012     0.675 -68.46   0
        89    532.3118    796.5275 307.6813616  +6.3473293     2657.049     7677.522     9930.137     87.28979     174.4414     348.2603      2.956     7.99     1091.981     61.38043     266.3181        60     2.372     1.708 -22.02   0
        90     93.2511    795.1113 307.8640254  +6.3332916     666.3763     1621.108     2327.151     87.28979      173.957     348.3641      2.824     6.91     1092.424     61.38043     92.60413         9     1.540     0.868 -20.89   0
        91    867.4079    794.3315 307.5420537  +6.3593538     813.1946     2009.418     1704.627     86.73557     173.8876     348.1218      2.258     8.18     1085.918     61.38043     106.9318        15     1.455     1.285 -20.41   0
        92    502.8905    790.2903 307.6938095  +6.3489283     8587.143     23970.48     30158.78     87.28979     174.7177     348.3295      2.768     6.63     1092.077     61.38043     827.6843        85     2.341     1.867 -29.23   0
        93    916.6526    788.1847 307.5217768  +6.3635240      2067.63     5055.738     5587.111     86.59646     174.2339     347.9139      2.495     7.05     1085.015     61.38043     239.2291        41     2.089     1.382 -32.61   0
        94    296.3054    778.2516 307.7801421  +6.3470276     1308.778     3584.183     5270.053     87.15157     174.0955     348.5025      3.192    10.13     1094.111     61.38043     149.1366        32     2.086     1.425  -1.03   2
        95    760.9837    774.6414 307.5869841  +6.3639621     26928.07     69009.18     83078.34     86.73557      173.957     347.9832      2.576     6.14     1085.413     61.38043     2795.382       101     2.317     1.754 -29.16   0
        96    217.9365    751.5620 307.8136414  +6.3554425     784764.5      2604604      3444406     87.28979     174.0955     348.2949      3.031     7.31     1093.228     61.38043     64838.91       669     2.856     2.491 -44.83   4
        97    327.9895    767.0123 307.7673438  +6.3527262      8130.02     24670.14     31386.81     87.01312      173.957     348.1564      2.878     7.21      1093.53     61.38043     758.5378        83     2.313     1.953 -28.05   0
        98    389.7443    764.7819 307.7417331  +6.3557036     8806.033     26574.93     34502.28     86.73557     174.0955     347.9485      2.897     7.17     1092.975     61.38043     855.6924        94     2.419     1.965 -25.75   0
        99    926.1732    763.3607 307.5186512  +6.3740953     1341.483      2942.92     2825.924     86.87446      173.957     348.0525      2.183     6.64     1084.144     61.38043     149.9103        24     1.600     1.185 -59.15   0
       100    883.1302    761.2040 307.5366282  +6.3735613     3747.201     9119.084     11380.22     86.59646     173.7489     348.0525      2.603     6.06     1084.339     61.38043     395.0858        52     2.091     1.491 -28.59   0
       101    623.7058    760.5693 307.6445597  +6.3652212     2750.228      7468.21     9478.708      87.4278      173.957      348.191      2.804     7.73     1087.138     61.38043     307.7527        58     2.354     1.642 -37.52   0
       102    684.1622    766.4839 307.6192132  +6.3647842     34289.14     103563.2     159130.3     87.28979     174.0955     348.1564      3.394     9.09      1086.23     61.38043     4014.328       187     3.512     2.222  21.10   0
       103    658.7515    750.9330 307.6303072  +6.3703658     1173.373     2947.306      3137.76     87.15157     174.0955     348.2603      2.405     8.62     1086.331     61.38043     147.3093        24     1.626     1.276 -53.89   0
       104    392.7124    747.4614 307.7410840  +6.3629582     21147.62     63345.05     82468.48     87.28979     174.3723     348.2603      2.913     7.28     1092.346     61.38043     2043.763       118     2.496     2.023 -27.91   0
       105    510.3424    746.3510 307.6921934  +6.3673293      2685.08     8123.959      10304.6     87.28979     174.1647     348.3295      2.871     8.00     1089.349     61.38043     270.9177        59     2.301     1.763 -29.09   0
       106    427.5077    745.2526 307.7266856  +6.3650285      1835.37     5287.126     7557.749     87.15157     174.0262     348.4679      3.095    12.39     1091.804     61.38043      194.266        49     2.217     1.928 -28.63   2
       107    423.4909    738.9893 307.7285680  +6.3674825     1047.131     2841.089     3669.532     87.01312     173.8183     348.0179      3.062     8.03     1091.821     61.38043     128.4111        22     1.925     1.207 -81.34   3
       108    755.4987    742.8376 307.5903367  +6.3769201     5473.118     14487.94     17622.05     87.28979     174.0262     348.4679      2.639     6.54     1083.513     61.38043     525.1844        62     2.203     1.654 -30.24   0
       109    113.7003    734.8920 307.8575613  +6.3588527     4693.426     14047.91     21845.59     87.28979     174.7177      348.191      3.952    13.45     1090.714     61.38043     445.9139       151     4.910     2.077  10.44   2
       110    106.4178    725.4128 307.8609116  +6.3625258     868.9014     2031.205     2861.377     87.01312     173.8183     348.1218      2.478     6.51     1089.923     61.38043      106.613        13     1.727     0.689  53.00   3
       111    886.1556    769.7318 307.5350829  +6.3701382     4804.822     11062.13     13193.69     87.28979     174.0955     348.2603      2.425     5.77     1084.683     61.38043     505.3599        51     1.998     1.480 -30.97   0
       112    900.9964    731.2479 307.5302039  +6.3865294     3470.695     8144.463     9468.786     86.59646     173.8876     347.8446      2.420     6.11     1082.895     61.38043     369.4226        48     2.097     1.393 -33.81   0
       113    656.9140    728.5377 307.6318265  +6.3795574     853.5486     1665.432     1445.266      87.4278     174.3723     348.2256      1.959     6.24      1085.42     61.38043     95.63831        10     1.333     0.821 -80.68   0
       114    544.0806    728.7253 307.6787547  +6.3757326     993.8022     2407.363     3709.451     87.56559     174.4414     348.2949      2.933     7.37     1087.495     61.38043     119.5316        15     1.459     1.043  17.00   0
       115    924.3012    722.6379 307.5207991  +6.3908582     1609.461     3911.637     4192.188     87.28979     174.0262     348.4679      2.404     7.23     1082.232     61.38043     211.8973        33     1.971     1.241 -31.18   0
       116    895.2108    723.6240 307.5328670  +6.3894877     1544.847     3646.717     4575.214     86.87446      173.957     348.1218      2.552     6.91      1082.37     61.38043      178.651        29     1.751     1.236 -19.43   0
       117    955.0748    722.6625 307.5079971  +6.3918666      1039.22     2306.776      2850.97     87.56559     174.1647     348.2256      2.246     7.79     1081.974     61.38043     108.0977        18     1.517     1.119 -14.18   0
       118    647.5747    721.0087 307.6359651  +6.3823581     643.6539     1373.844      1458.05     86.87446      173.957     348.0525      2.270     3.32     1084.981     61.38043     128.5715         6     0.954     0.712 -25.30   0
       119    220.1851    716.1359 307.8139056  +6.3701533     770.5671     1828.723     3074.455     86.73557     174.0262     348.0871      3.285     6.43      1091.54     61.38043     93.29309        11     1.472     0.788  -1.88   2
       120    794.4500    719.2697 307.5749277  +6.3879485     484.1213     847.9029     1290.723     87.28979     174.0955     348.2603      2.118     4.24     1081.976     61.38043       105.24         5     0.855     0.600 -39.95   0
       121    939.4833    710.3712 307.5148961  +6.3964288     1358.158      3141.61     3863.588     87.15157     173.8876     348.0871      2.317     8.17     1081.098     61.38043     161.3907        24     1.701     1.098 -42.21   0
       122   1013.3221    704.4861 307.4843778  +6.4013033     4567.577     9881.433     10874.06     87.28979     174.5105     348.2949      2.293     5.31     1080.186     61.38043      498.652        52     1.959     1.464 -29.91  16
       123    981.2429    703.6515 307.4977505  +6.4005870     1065.742     2068.327     1968.551     87.28979     174.1647     348.2603      2.090     8.49     1080.375     61.38043     119.9441        19     1.928     1.044 -32.53   0
       124    868.7502    699.9792 307.5446695  +6.3983803      777.751      1520.33     1706.314     86.73557     174.2339     348.0871      2.205     5.12     1080.696     61.38043     97.82886         7     1.019     0.726   1.99   0
       125     25.7306    690.5687 307.8956539  +6.3742269     1045.696     2816.372      3745.41     87.15157     174.1647     348.2256      2.754     8.24     1087.708     61.38043     112.6256        20     1.484     1.279  66.57   0
       126    825.6553    690.7754 307.5629061  +6.4007552     667.6897     1643.933     1504.549     86.87446     174.1647     348.0179      2.478     6.28      1080.08     61.38043      93.3103         9     1.679     0.659 -34.62   0
       127    637.6968    678.7708 307.6414983  +6.3994807     2390.542     7136.808     9116.946      87.4278     173.8876     348.2256      2.816     7.98     1082.118     61.38043     232.9745        56     2.190     1.725 -30.65   0
       128    584.6325    677.0712 307.6636294  +6.3984206     692.4796     1958.096     2659.878     87.15157     174.1647      348.191      2.784     7.17     1082.997     61.38043     101.5607        10     1.510     0.954  -6.37   0
       129    101.2869    675.4014 307.8647411  +6.3830159     1393.597      4388.64     6328.029     86.45712     173.6795     347.9139      3.132    10.28     1086.868     61.38043     165.6333        37     2.293     1.372 -49.89   2
       130    609.5563    674.9251 307.6533340  +6.4001351     566.5012     1661.395      2470.51     87.15157     174.2339     348.2603      3.575     7.82     1082.238     61.38043     106.6058        10     2.288     0.748 -50.56   2
       131    974.4745    673.6457 307.5015745  +6.4127601     1499.676     3480.364     3420.646     87.15157     174.2339     348.2603      2.349     7.35     1078.243     61.38043     207.7394        28     1.692     1.392 -12.77   0
       132    754.4937    670.7283 307.5931835  +6.4066788     8732.479     24300.87      30189.2     87.15157     174.2339     348.2603      2.757     6.91     1079.328     61.38043     852.2264        83     2.349     1.806 -29.12   0
       133    884.5842    670.3325 307.5390800  +6.4111535     1798.084     4566.076     5429.491     86.73557     174.0262     348.1218      2.555     7.18     1078.439     61.38043     198.7185        39     1.801     1.589 -27.02   0
       134    229.4709    666.5253 307.8117229  +6.3909589     1755.514     3560.571     4773.823      87.5656     174.3031     348.2256      2.398     6.77     1088.741     61.38043     217.5793        15     1.657     0.776 -34.00   3
       135    228.0231    663.6718 307.8124217  +6.3920895     2070.348     5552.565     8193.021     86.87446      173.957     348.2256      3.189    10.14     1088.484     61.38043     201.0146        50     2.561     1.564 -20.61   2
       136    635.0990    663.4743 307.6430948  +6.4057142     2714.028     7879.469      10272.9     86.73557     174.3031      348.191      2.831     7.61     1081.242     61.38043      283.452        58     2.238     1.786 -31.21   0
       137    894.6920    654.5778 307.5354052  +6.4179973     674.1368     1345.306     1651.973     87.28979      173.957     348.0525      1.799     4.51     1077.544     61.38043     103.0983         8     1.327     0.436 -50.12   0
       138    706.7183    652.3217 307.6136778  +6.4126989     1496.219     4402.154     5926.228      87.4278     174.4414     348.3641      3.118     9.90     1079.331     61.38043     171.4946        43     2.116     1.619 -44.52   0
       139    972.9847    648.4515 307.5030411  +6.4231200     4929.108     11743.27     13626.05     86.59646     174.2339     347.9139      2.463     6.25     1076.863     61.38043     531.2365        56     2.118     1.505 -32.63   0
       140    911.4990    648.6540 307.5286127  +6.4210012     1322.911     3030.624     3436.332     87.15157     174.1647     348.5025      2.340     8.36     1077.079     61.38043      147.158        23     1.605     1.216  -5.05   0
       141     50.7197    644.0773 307.8868368  +6.3942685     9666.248     30080.35      39194.9     87.56559     174.4414     348.3987      2.954     7.44     1085.458     61.38043     915.0726        96     2.418     2.057 -30.22   0
       142    511.9872    645.0383 307.6949298  +6.4092409     715.2343     2260.851     2672.498     86.87446      173.957     347.9139      2.890     8.19     1083.066     61.38043      92.1781        13     1.921     0.976 -33.03   0
       143    696.4713    635.8074 307.6184971  +6.4191818     1417.432     3965.192     5127.065     86.73557     173.6101     348.1564      2.881     8.96     1078.789     61.38043     176.9619        36     1.909     1.568 -33.78   0
       144    718.0437    634.0240 307.6095831  +6.4206343      1598.37     4731.423     6472.018     86.73557     174.0955     348.0179      3.056     8.99     1078.219     61.38043     203.1691        43     2.013     1.716 -43.27   0
       145    549.9882    632.0210 307.6795612  +6.4158820     1203.764     3777.944     5476.093     86.87446     173.8183     348.0871      3.216     9.51     1081.051     61.38043     162.1061        41     2.027     1.692 -33.84   0
       146    991.0887    629.8618 307.4961344  +6.4313994     2930.277     6680.605     7855.559     87.28979     174.3031     348.2949      2.442     6.02     1075.921     61.38043     299.3359        47     2.035     1.435 -39.60   0
       147    212.6586    630.9324 307.8199215  +6.4051031     713.5415     1491.788      2588.24      87.4278     174.0955     348.2256      3.001     5.91     1085.765     61.38043     105.2579         8     1.340     0.924 -37.58   0
       148    956.5930    628.7829 307.5105213  +6.4307038     4404.021     10236.62        12299     86.87446     173.8876     348.0525      2.449     5.79     1075.869     61.38043     504.8909        53     2.139     1.474 -27.13   0
       149    115.3391    622.9745 307.8606731  +6.4051442     8583.256     28067.15     37584.05     86.87446     174.1647     348.1564      3.034     7.73     1084.937     61.38043     816.8882        94     2.437     2.099 -30.77   0
       150    403.0281    625.3422 307.7409208  +6.4137541     888.1781     2000.504     3496.014     86.87446     174.2339     348.1218      3.089     8.20     1083.663     61.38043     115.9027        13     1.675     1.123 -30.68   2
       151    400.6925    622.9781 307.7419723  +6.4146531     924.3362     2144.707     3381.002     87.28979      173.957     348.0525      3.729     8.17     1083.549     61.38043     125.4994        11     2.441     0.764 -32.45   2
       152    951.5676    611.8489 307.5131813  +6.4375338     3932.515     9654.339     11743.45     87.01312     174.1647     348.1564      2.573     5.94     1074.979     61.38043     418.6401        55     2.120     1.576 -24.46   0
       153   1006.8262    606.8802 307.4903596  +6.4414150     51142.93     120191.2     140493.5     87.15157      173.957     348.2603      2.433     5.61       1074.7     61.38043     5106.554       117     2.239     1.702 -32.53   0
       154    545.2518    607.4208 307.6823620  +6.4258881     16735.74     54353.48     72123.05     86.73557     174.2339     348.0179      2.989     7.66     1079.511     61.38043      1588.88       114     2.534     2.075 -28.09   0
       155    154.6793    604.7571 307.8449261  +6.4139831     920.3418     2449.024     3741.101     87.28979     174.1647      348.191      3.107     8.57     1085.018     61.38043      120.408        17     2.007     1.023 -48.92   2
       156    442.5113    591.3156 307.7256460  +6.4291257     20983.24     70380.95     95525.57     87.01312     174.4414     348.3295      3.070     7.86     1080.877     61.38043     1936.648       127     2.603     2.141 -30.84   0
       157   1020.3651    590.1758 307.4852883  +6.4487643     1988.526     4418.491     4667.654     86.73557      173.957     313.9608      2.176     5.68      1073.63     61.38043      239.511        32     1.725     1.235 -37.19  24
       158    289.2474    583.0479 307.7896829  +6.4274387     569.9103      1585.01     2739.123     87.28979     174.0262     348.2603      3.453     6.07     1081.213     61.38043     91.38928         7     1.678     0.617  16.47   2
       159    117.0684    583.0944 307.8613057  +6.4216777     551.5584     1081.376     2103.408     87.15157     174.3723     348.2603      2.465     3.75      1083.32     61.38043     101.5658         5     1.040     0.389  32.38   1
       160    714.4991    574.7084 307.6130566  +6.4450230     1997.351     6010.481     7624.024     87.28979     174.7177      348.191      2.884     8.65     1075.766     61.38043     197.3138        53     2.263     1.669 -34.31   0
       161    767.9501    569.7905 307.5909855  +6.4488277     5653.106     16628.55     21020.44     86.73557     174.0262     347.8792      2.788     7.05     1074.722     61.38043     545.3269        77     2.361     1.835 -29.21   0
       162   1007.2863    568.5278 307.4914570  +6.4572757     1207.279     2686.404     2947.586      87.4278     174.4414     348.2256      2.361     7.43     1072.374     61.38043     135.9187        19     1.477     1.047 -32.23   0
       163    591.9921    567.9518 307.6642496  +6.4437475     995.9039     3337.085     4105.281     86.73557     174.0262     347.8446      2.984    10.75     1076.274     61.38043     138.0179        29     1.942     1.657  -7.14   2
       164    843.8124    552.7245 307.5599992  +6.4583930     1118.348     3106.283     3772.107     86.87446     173.8183     348.0179      2.763     8.97     1073.424     61.38043     143.7357        30     1.868     1.452 -39.07   0
       165    802.0324    552.4382 307.5773907  +6.4571267     804.1592     2488.701     3316.182     86.87446      173.957     347.9832      2.910    10.01      1073.39     61.38043     117.3717        15     2.900     0.963 -33.75   2
       166    230.7934    546.0412 307.8152525  +6.4407793     2402.807       8281.8     11094.09     86.59646     173.8183     347.9139      3.091     8.42     1081.256     61.38043     291.4094        71     2.379     2.032 -31.60   0
       167    783.2452    541.7669 307.5855661  +6.4609128     61883.14       186084     238287.3     86.87446     174.1647     348.0525      2.868     7.19     1073.317     61.38043     5845.231       177     2.714     2.011 -28.60   0
       168    165.2208    540.6092 307.8427147  +6.4408365     18845.92     65135.35     89141.52     86.87446     173.8183     348.0179      3.112     8.13      1081.35     61.38043     1908.518       122     2.576     2.182 -30.59   0
       169     89.1423    537.1245 307.8744813  +6.4397371     2082.038     6839.896      9402.12      87.4278     174.1647      348.191      3.130     8.28     1081.469     61.38043     229.9827        68     2.393     1.952 -35.02   0
       170    953.4354    535.3179 307.5149773  +6.4692148      651.618     1063.158     1640.245     87.28979     174.0955      348.191      1.981     4.76      1070.47     61.38043     87.46899         6     1.058     0.608  32.01   0
       171    338.5687    527.5203 307.7710439  +6.4520224     5403.614     18854.97     26426.86     87.15157     174.0955      348.191      3.159     8.27     1076.698     61.38043     547.2625        93     2.560     2.110 -34.17   0
       172    954.5335    531.6564 307.5146436  +6.4707639     603.0742     1355.085     1724.211      87.4278     174.0955      348.191      2.296     4.08     1070.191     61.38043     100.2345         5     0.974     0.488  83.04   1
       173    819.8953    529.0646 307.5707461  +6.4673756     1864.349     4914.922     6307.673     87.15157     174.3031     348.2603      2.693     7.75     1071.865     61.38043     178.3616        41     2.102     1.393 -31.00   0
       174    773.9072    522.3971 307.5901036  +6.4686058     2337.244      6773.98     8245.268     86.87446     173.8183     347.9139      2.782     7.85     1071.877     61.38043     252.1736        53     2.057     1.775 -49.78   0
       175    504.6884    522.4796 307.7021050  +6.4596328     2146.507     6943.805     9465.712     87.01312     174.4414     348.3641      3.130     8.61      1074.65     61.38043     240.1334        63     2.313     1.908 -32.79   0
       176    141.6118    526.0590 307.8530292  +6.4460600     769.6339     2083.834     3567.958     86.59646     174.0955     347.9139      3.278     6.13     1080.825     61.38043     91.90393        11     1.553     0.680  17.07   0
       177    153.0053    516.8518 307.8486015  +6.4502440      2098.58     4674.979     6516.333     86.59646     173.8876     347.8446      2.657     8.11     1080.424     61.38043     239.6591        23     1.865     1.128 -44.50   3
       178    152.0315    514.1082 307.8490996  +6.4513449     2159.217     5228.616     7601.484      87.4278      173.957     348.2603      2.754    10.76     1080.305     61.38043     225.5569        42     2.686     1.490 -16.66   3
       179    247.1503    512.1310 307.8095962  +6.4553342     26520.57     93168.03     131619.3     87.15157     174.0955     348.2256      3.200     8.36     1077.762     61.38043     2616.718       143     2.654     2.262 -34.39   0
       180    549.6573    513.3308 307.6837055  +6.4649074      850.852     2520.411     4389.084      87.4278     174.0955      348.191      3.655     7.89     1073.087     61.38043     117.6404        13     1.701     1.023  36.81   2
       181     23.8915    514.5590 307.9023908  +6.4468802     1713.539      5722.24     7327.336     87.28979     174.1647     348.2949      2.989     9.23     1080.791     61.38043      196.684        54     2.066     1.978   6.50   0
       182    789.9815    514.0297 307.5836978  +6.4725958     580.9761     1533.407     1887.693     86.87446      173.957     348.1564      2.551     5.42     1070.984     61.38043     80.49744         5     1.487     0.558 -76.40   0
       183    770.0098    504.1029 307.5923413  +6.4760349     6102.529     18370.52     23761.66     87.01312     173.7489     348.0179      2.883     7.13     1070.453     61.38043      594.356        82     2.346     1.972 -34.39   0
       184    748.7723    506.6874 307.6010900  +6.4742628     2250.038     2517.528      2856.59      87.4278     173.8876     348.0871      0.753     1.52     1070.979     61.38043     967.6418         5     0.733     0.408  61.08   0
       185    473.8565    502.7062 307.7155999  +6.4667768     13739.44     46904.33     67591.62     87.15157     174.1647     348.4333      3.241     7.99     1074.094     61.38043     1258.002       126     2.678     2.246 -25.66   0
       186    186.7182    499.4670 307.8351658  +6.4585509       735.22     1739.531     2100.819      87.4278     174.4414     348.2949      2.441     4.43     1078.763     61.38043     101.7349         7     1.407     0.397  80.94   0
       187    642.9155    499.9839 307.6453570  +6.4735195     450.1666     1210.893      2599.72     86.87446     173.8876     348.1217      2.966     5.39     1071.495     61.38043     100.3827         5     1.479     0.555 -12.55   0
       188    633.7164    497.0030 307.6492848  +6.4744456     899.9534     3100.456     4878.762     86.59646     173.7489     347.8792      3.945    11.08     1071.328     61.38043     121.1234        28     2.004     1.706  -5.30   0
       189    118.2295    490.6554 307.8639566  +6.4599059     8278.431     28508.08     38866.71     87.01312     174.2339     348.1564      3.116     8.00     1079.403     61.38043     862.8917        97     2.494     2.141 -26.91   0
       190    303.0842    492.1424 307.7870032  +6.4654563     1207.259     4079.575     5533.195     87.28979     174.1647     348.2949      3.122     9.88     1074.841     61.38043      152.905        48     2.191     1.966   1.49   0
       191    483.0637    490.9853 307.7121654  +6.4719254     803.9858     2467.357     3244.246     86.73557     174.0262     348.0871      3.108     9.23     1073.105     61.38043     114.3468        16     1.876     1.268  29.28   0
       192     85.1156    489.2033 307.8777816  +6.4594003     910.8563     2477.387     3023.982     86.59646     173.7489     347.9139      2.788     8.52     1079.427     61.38043     123.8726        17     1.890     1.074 -47.40   0
       193    845.8549    489.1555 307.5612892  +6.4847244     780.4713     1559.792     1912.245     87.28979     174.1647     348.2603      2.164     4.43     1068.255     61.38043      102.005         6     0.956     0.583  22.53   0
       194    943.4227    484.6412 307.5208473  +6.4898207     2435.849     6532.025     8205.885     86.87446      173.957     347.9832      2.709     6.96     1066.481     61.38043     243.8329        49     2.056     1.576 -30.91   0
       195    519.4424    475.8567 307.6975414  +6.4793853     613.1201     1161.967     2104.212     87.15157     174.0955     348.2256      2.318     4.81      1071.49     61.38043     86.68176         6     1.375     0.476  23.57   0
       196    415.1648    471.5274 307.7410714  +6.4777054     12930.08     45633.25     64557.86     87.15157     174.1647     348.2256      3.200     8.38     1073.009     61.38043     1290.362       120     2.641     2.202 -26.14   0
       197    622.9939    471.0504 307.6546214  +6.4848118     4062.096     13352.85     17855.58     86.73557      173.957     347.8099      3.035     7.71     1069.707     61.38043     392.6588        82     2.441     1.999 -32.28   0
       198    180.4080    469.3578 307.8388111  +6.4707796     6059.542     21179.31      30421.4     86.73557      173.957     347.9139      3.225     8.17     1076.731     61.38043     565.5511       101     2.529     2.261 -29.99   0
       199    956.5135    470.6194 307.5158722  +6.4960472     557.1298     974.0004     1497.114     87.01312     173.8876     348.0871      1.721     3.48     1064.947     61.38043     96.08472         5     1.134     0.308  20.10   0
       200    546.0358    469.3409 307.6866974  +6.4829613     826.1867     2050.726     3270.642     87.28979     174.1647      348.191      3.047     7.58     1070.557     61.38043     113.3448        13     2.410     0.668  -3.11   2
       201    544.9897    466.6497 307.6872235  +6.4840383      882.991     2310.256     3355.835     86.73557     174.0262     347.8792      3.314     7.64     1070.408     61.38043     104.7681        13     1.790     0.913  -7.39   2
       202    918.4368    464.6290 307.5319161  +6.4972617     2089.168     5573.958     6204.784     86.87446     173.8876     348.0179      2.604     8.03     1065.458     61.38043     202.2018        42     2.054     1.508 -46.13   0
       203    592.9045    465.3872 307.6673312  +6.4861521     953.4892     2079.145      3482.46     87.01312     173.8876     348.0179      2.131     4.50     1069.616     61.38043      231.293         7     1.716     0.335 -30.13   3
       204    591.6530    462.6991 307.6679426  +6.4872211     2140.846     6126.651     8598.958     87.15157     174.1647     348.4679      3.062     9.49     1069.496     61.38043     200.7349        60     2.508     1.892 -17.51   2
       205    941.1429    457.1049 307.5227219  +6.5011220     1649.706     4138.386     4737.128     87.15157     174.1647     348.4333      2.453     7.65     1064.243     61.38043     184.3667        34     1.860     1.390 -13.11   0
       206    504.1858    454.7977 307.7046001  +6.4875784     2150.587     7495.759     10414.08     86.87446     173.8183     348.0525      3.146     9.36     1069.859     61.38043     240.2606        63     2.282     1.983 -35.58   0
       207    351.0497    455.6628 307.7682824  +6.4821252      888.821     2667.282     3703.895     87.28979     174.0955     348.2949      2.977     6.86     1072.129     61.38043     116.6952        14     1.914     0.688 -40.70   2
       208    868.4840    445.1427 307.5533556  +6.5036581     974.3202     2587.382     3719.156     87.28979     174.1647     348.3295      3.118     9.33     1065.603     61.38043     120.7843        20     1.635     1.486  10.65   2
       209    860.8071    452.4007 307.5563054  +6.5004052     1003.344     1688.025     2821.218     86.59646     173.8183     348.0179      1.970     6.22     1066.041     61.38043     115.7931        13     1.683     0.646 -22.77   3
       210    860.1461    449.2102 307.5566878  +6.5017014     1246.975     3245.299     4961.538     86.59646     174.0955     347.9139      3.636     9.62     1065.921     61.38043      159.021        29     2.465     1.048 -20.64   3
       211    693.6546    441.7668 307.6262101  +6.4992561     994.5183     2516.588      3705.68     87.15157     174.1647      348.191      2.875     7.58     1067.696     61.38043     111.5552        16     1.909     0.843 -56.69   2
       212    689.3430    442.4197 307.6279820  +6.4988432     913.0908      1859.44     2858.319     86.87446     174.0955     348.0179      2.906     3.72     1067.734     61.38043     146.6042         6     1.016     0.559 -27.89   3
       213    362.8312    439.3957 307.7639310  +6.4892381     952.1722     3825.716     5118.307     86.59646     174.0262     347.9832      3.050    12.59     1070.844     61.38043     145.8821        43     2.322     1.901 -35.18   0
       214     53.0199    442.6017 307.8927148  +6.4775809     632.9928     1361.183      2051.99     86.87446     173.7489     347.9139      2.501     5.22     1077.511     61.38043     96.63257         7     1.259     0.611  49.19   2
       215    590.6033    437.5898 307.6692267  +6.4975600     3094.684     6935.376     9557.194     86.73557     173.8183     348.1218      2.511     7.75     1067.834     61.38043     304.4963        36     2.426     0.995 -14.44   3
       216    589.8380    434.3284 307.6696552  +6.4988820     3170.672     7982.144     10580.64     87.15157     174.1647     348.2949      2.817     9.48     1067.569     61.38043     299.9279        42     2.393     1.262  -8.98   3
       217    753.3514    431.9018 307.6017047  +6.5053123     5933.646     18534.43     24719.37     87.28979     174.0955     348.4333      2.997     7.49     1066.643     61.38043     555.2645        86     2.571     1.924 -33.55   0
       218    274.1691    434.9099 307.8009702  +6.4881376     778.4128     1788.684     3156.792      87.4278      173.957      348.191      2.449     6.13     1071.078     61.38043     121.4189         7     1.525     0.693 -26.70   0
       219    938.0752    425.3275 307.5250671  +6.5141494     766.2161     1494.554      1661.42     87.56559     174.4414     348.2256      2.601     3.17      1061.71     61.38043     127.5851         7     0.771     0.702 -32.88   2
       220     92.1140    425.6319 307.8770262  +6.4858973     1440.567     4123.818     6655.925     87.28979      173.957     348.1564      3.387    10.84     1076.473     61.38043     190.0706        47     2.537     1.655 -20.25   2
       221    727.8128    421.8385 307.6126698  +6.5086228     854.4306     2379.797     3124.736     86.87446      173.957     347.9139      2.696     5.20     1066.662     61.38043     112.7706         8     1.303     0.585 -48.62   2
       222    992.0774    421.5595 307.5027245  +6.5174933     2214.738      5371.99     7296.667     87.15157     174.1647     348.2603      2.856     6.08     1059.917     61.38043     269.8685        42     1.862     1.537 -27.09   0
       223    328.2237    419.3220 307.7790086  +6.4963787     1042.953      3092.74     4740.486     86.87446      173.957      348.191      3.093     9.14     1069.692     61.38043     153.4069        25     1.906     1.401 -37.52   2
       224    691.7419    403.7946 307.6282862  +6.5148807     4892.051      16333.6     22028.14     86.73557     174.0262     347.9139      3.043     7.86     1065.188     61.38043     470.0142        82     2.440     2.009 -29.31   0
       225    830.8745    406.4762 307.5703057  +6.5183871     3487.073     3511.841     3086.154     87.56559     174.4414     348.2949      0.708     0.94     1063.535     61.38043     1415.376         6     0.500     0.442  85.96   0
       226    794.3682    406.7309 307.5854867  +6.5170718       736.97     1965.862     1920.023     87.15157     174.1647     348.2256      2.376     4.45     1063.946     61.38043     126.2582         6     1.120     0.504  62.20   2
       227    612.0761    400.9210 307.6615301  +6.5134229     951.5237     2719.789     3888.224     87.56559     174.4414     348.3295      3.057     9.06     1064.893     61.38043     120.1187        18     1.603     1.428  -3.23   2
       228    585.0746    395.0009 307.6729645  +6.5149717     5339.242     17839.86     28438.59     86.45712     173.5406     348.0525      3.421     8.29     1064.203     61.38043     557.5824       117     2.861     2.338  11.79   0
       229    916.8843    393.5786 307.5349523  +6.5265649     1611.718     4515.627     5363.188     87.01312     173.8183     348.1218      2.595     9.61     1060.142     61.38043     189.0618        42     2.009     1.642 -33.86   0
       230    356.2402    389.9572 307.7683457  +6.5094435     8437.813     30714.18     43649.67     87.01312     174.1647     348.0871      3.227     8.65     1066.823     61.38043     869.5245       103     2.561     2.211 -32.86   0
       231    885.5180    383.9245 307.5483284  +6.5295148     2274.843     6172.269     7163.492     87.56559     174.4414     348.2949      2.630     6.94     1060.423     61.38043     227.9008        48     2.032     1.624 -46.44   0
       232    213.7442    380.7242 307.8279450  +6.5085090     3949.639     14903.97        21437     87.28979     174.0955     348.1564      3.292     8.73     1069.266     61.38043     460.0992        91     2.514     2.239 -37.35   0
       233   1018.2715    370.5510 307.4935399  +6.5394342     4563.088     11021.38     12081.87     87.28979     174.1647     337.5366      2.453     5.89     1056.443     61.38043     428.1946        58     2.005     1.649 -30.77  16
       234    114.9945    371.4771 307.8693436  +6.5090341     1620.318     2874.502     4618.282     86.87446     173.6101     348.0525      2.551     9.97     1072.165     61.38043     201.0504        24     2.290     1.211 -16.72   3
       235    114.5191    368.7558 307.8696337  +6.5101425     1537.867     4642.884      6739.25     87.28979     174.1647      348.191      3.157     9.67     1072.051     61.38043     182.8101        33     2.112     1.352   7.61   3
       236    137.0783    365.4943 307.8603585  +6.5122430     902.0319     2586.035     3140.884     87.01312     174.3723     348.2603      2.865     9.57     1071.058     61.38043     129.0541        18     2.060     1.241 -63.29   0
       237    105.3237    389.4348 307.8727581  +6.5012924     651.7626     1673.318     1797.343     87.15157     174.2339     348.2256      2.503     4.90     1073.698     61.38043     97.73242         6     1.018     0.666 -65.51   0
       238     10.2535    354.6186 307.9134932  +6.5125001     1125.775     3580.294     4653.377     86.73557     174.1647     347.9832      3.029    11.21     1077.581     61.38043      147.542        33     2.012     1.738 -51.62  16
       239    413.4130    353.3512 307.7457959  +6.5264704     2083.742     7653.416     11091.55     86.59646     174.0955     347.9139      3.198     9.29     1062.146     61.38043     253.0016        68     2.419     2.009 -31.44   0
       240    753.3168    352.1512 307.6044066  +6.5382601     4132.782     9702.357        13144     87.28979     174.1647     348.2603      2.739    10.50     1059.723     61.38043     386.6825        43     2.665     1.153 -18.20   3
       241    753.0186    348.8269 307.6046427  +6.5396236     4079.033     8810.931     12180.25     86.87446      173.957     348.1218      2.748     7.59     1059.486     61.38043     412.4814        35     2.245     0.996 -16.38   3
       242    997.3120    345.5083 307.5031031  +6.5490874     1739.208     4444.099     4660.369     87.28979     174.6486     348.3295      2.451     7.54      1055.38     61.38043     169.7578        36     1.800     1.488 -49.70   0
       243    463.0346    338.3439 307.7256566  +6.5343218     841.2909     2131.837     3148.609     87.15157     174.1647     348.2256      2.659     8.99     1060.364     61.38043     102.3129        16     2.104     1.073 -36.16   2
       244    460.1002    335.2363 307.7269826  +6.5355080     919.2073      2135.24     3222.787     87.28979     174.0262     348.4333      2.712     8.00     1060.253     61.38043     118.7313        15     1.728     1.035 -17.35   3
       245    433.5854    339.3112 307.7378773  +6.5329422      781.242     1933.489     2453.512     87.01312      173.957     348.0871      2.365     5.45     1061.131     61.38043     105.3842         9     1.417     0.590   7.75   0
       246    819.0919    333.2343 307.5776749  +6.5482565     12892.31     38647.33     50874.83      87.4278     174.0262     348.2949      2.928     7.01     1057.393     61.38043     1104.311       103     2.441     2.033 -38.82   0
       247    434.9942    336.1315 307.7373986  +6.5343028     683.4137     1452.521      2407.69     86.73557     173.8183     348.0179      2.367     5.77     1060.964     61.38043     92.63892         8     1.555     0.603   7.19   0
       248    590.1869    324.7505 307.6732087  +6.5441651     806.0447     2318.548     3499.356     86.59646     174.0955     347.9139      3.366     7.94     1057.396     61.38043     98.16565        12     1.825     0.967   0.89   2
       249    675.6452    319.3884 307.6378304  +6.5492186     25649.62     87216.47     118991.1     86.73557      173.957     347.9139      3.080     8.09     1057.003     61.38043      2503.84       130     2.604     2.149 -30.35   0
       250    538.3223    315.4465 307.6951037  +6.5462854     736.3123     2423.302     3475.922     87.15157     174.2339     348.2256      3.275     6.65     1056.528     61.38043     120.7104        10     1.826     0.679  55.56   2
       251     75.5618    315.4022 307.8876521  +6.5308835     1804.552     6767.286     9548.839     86.31757     173.8876     347.9832      3.179     9.37     1072.016     61.38043     216.2969        66     2.377     1.994 -29.50   0
       252    521.5189    312.3508 307.7022001  +6.5470057     2173.746     7798.452     10584.13     87.28979     174.1647     348.2603      3.150     9.48     1056.756     61.38043     250.9703        67     2.316     2.029 -42.31   0
       253    384.3871    307.7564 307.7594152  +6.5443411     7385.921      27718.1     40179.73     86.73557     174.0262     347.9485      3.270     8.98     1060.848     61.38043     862.5652       108     2.665     2.209 -30.02   0
       254    250.1233    313.3370 307.8150916  +6.5375620     756.6935     1122.077     1594.445     87.56559     174.1647      348.191      1.460     3.41     1065.093     61.38043     136.2036         5     1.439     0.233 -16.83   2
       255    251.5595    309.5921 307.8146208  +6.5391571     861.6151     2224.555     2577.346     86.59646      173.957     347.8792      2.564     8.07     1064.882     61.38043     142.5206        15     1.716     1.061  31.00   2
       256    473.5794    298.1144 307.7226287  +6.5512930     2528.208     9052.588     12992.09     87.01312     173.8876     348.1564      3.216     9.02     1057.308     61.38043     327.3914        77     2.521     2.063 -35.20   0
       257    742.4402    296.9375 307.6107934  +6.5607107     1230.033     3497.438     4648.623     87.28979     174.0955     348.2603      2.927    10.33     1055.356     61.38043     141.0566        30     1.980     1.502 -18.19   0
       258    363.4916    282.3701 307.7689685  +6.5541333     2116.314     7991.614     10902.84      87.4278     173.8876     348.1564      3.164     9.32     1060.172     61.38043     238.2319        71     2.414     2.058 -28.95   0
       259    219.4578    285.5053 307.8287938  +6.5480376     642.2743     1341.761     2386.002     87.15157     174.1647     348.3987      2.616     4.51     1065.019     61.38043     87.69458         7     1.039     0.556 -31.07   2
       260    731.0421    277.9106 307.6161778  +6.5681934     18315.07     60070.82     80304.03     87.28979     174.0955     348.2603      3.032     7.67     1054.174     61.38043     1761.842       115     2.513     2.110 -30.73   0
       261    405.0786    278.5211 307.7517944  +6.5571082      653.541      1504.51     2504.296     87.56559     174.4414     348.3295      2.725     5.19     1059.205     61.38043     111.9053         7     1.212     0.629 -42.67   0
       262    965.7875    275.2830 307.5185826  +6.5770579     824.3199     1782.099     1558.606     86.87446     173.8876     348.0525      2.256     6.78     1051.748     61.38043      108.406        13     1.598     0.807 -68.98   0
       263    906.8155    274.4284 307.5431514  +6.5754586     968.8239     2550.915     3150.644     86.87446     173.8876     348.1218      2.602     9.26     1053.106     61.38043     131.6753        20     1.635     1.464 -88.09   0
       264    402.5782    275.2678 307.7529448  +6.5583690     581.1972     1493.811     2684.556     86.87446     174.0955     348.1564      1.881     3.63     1059.012     61.38043     99.39294         5     1.570     0.241 -48.10   0
       265    388.1610    274.3453 307.7589751  +6.5582701     658.2138     1615.595     2270.268     87.28979     174.2339     348.2256      2.680     7.34     1059.346     61.38043      83.9906        10     1.427     1.058 -86.80   0
       266    168.4627    264.1710 307.8507354  +6.5551502       699.96      1945.53     2853.314     87.01312     174.1647     348.1564      2.931     6.43     1066.868     61.38043     92.59326        10     1.550     0.748  65.27   2
       267    729.4303    262.5197 307.6173673  +6.5744986     2152.035     6873.168     8920.532     87.15157     174.0955      348.191      2.966     8.60     1053.538     61.38043     222.0253        54     2.061     1.852 -33.64   0
       268    744.9191    262.6700 307.6109170  +6.5749504     865.9501     2029.709     3315.681     87.56559     174.5105     348.2603      2.796     8.64     1053.755     61.38043     116.0181        11     2.023     1.029  88.89   2
       269    748.5824    261.1284 307.6094445  +6.5757088     659.5133     1712.326     2836.286     86.73557     174.0955     348.1564      2.451     4.35     1053.697     61.38043     129.9385         5     1.491     0.361 -60.97   2
       270    334.7366    255.4471 307.7818446  +6.5642983     749.2249     2350.999      3359.42     87.15157     174.0262     348.3295      3.127     7.64     1060.667     61.38043     102.3961        11     1.808     0.904 -53.86   2
       271    462.7797    253.7495 307.7286221  +6.5692626     667.4504     1372.902     2636.143     86.73557     174.2339     348.0871      2.706     4.37     1053.902     61.38043      91.8241         5     1.002     0.542  44.17   2
       272    983.9645    251.0717 307.5118327  +6.5876624     2847.142      7301.24     8918.624     87.15157     174.1647     348.2256      2.573     6.64     1049.907     61.38043     286.8353        47     2.018     1.534 -23.99   0
       273    225.8048    248.7666 307.8273977  +6.5634272     1878.949     5188.756     8723.928     86.45712     174.0262     347.9832      3.490    12.12     1063.958     61.38043     222.1136        52     2.778     1.934  -6.60   2
       274    357.1360    239.9216 307.7730495  +6.5714586     554.6843     1352.687     2266.625     87.56559     174.2339     348.2256      2.197     3.82     1059.617     61.38043     93.40857         5     1.263     0.331  26.78   0
       275    129.4438    235.3867 307.8679470  +6.5657394     545.3591     1429.326     2160.992     86.59646      173.957     347.9485      2.441     3.52      1068.06     61.38043      87.9657         5     1.112     0.322 -20.09   0
       276    539.8462    230.4679 307.6973398  +6.5814442     773.2219      1766.74     2626.966     87.28979     174.0955     348.2256      2.892     7.12     1049.314     61.38043     93.87891        12     1.401     1.013 -32.27   0
       277    880.5275    228.1903 307.5556471  +6.5936911      835.713     2369.144     3181.969     86.73557     173.7489     348.0525      2.943     7.77     1051.424     61.38043     110.1561        13     1.607     1.050  56.21   2
       278    702.1522    228.4086 307.6298688  +6.5876863     1890.075     4133.766     6511.766     86.73557     174.0262     347.8446      3.120    10.11     1050.921     61.38043     209.4216        42     2.198     2.128  52.68   2
       279    702.4679    224.7527 307.6298607  +6.5892072     1035.979     2443.648     3668.566     87.28979     174.0955     348.2603      2.646     5.93      1050.75     61.38043      206.011        10     2.109     0.469  27.67   3
       280    640.2187    226.1570 307.6557174  +6.5865603     641.8504     1878.586     2947.868     86.73557     174.0262     347.9832      3.392     6.94     1049.196     61.38043     91.30371         7     2.097     0.643  49.11   2
       281    202.3132    213.6376 307.8383631  +6.5771565     866.4852     2115.831      3185.62     87.28979     174.0955     348.2256      2.999     7.09     1064.346     61.38043     101.0021        12     1.656     0.852 -22.39   0
       282    844.0373    209.0293 307.5714775  +6.6003983     604.5134      1674.89     2571.599     86.87446     173.8876     348.0871      3.285     5.58     1050.551     61.38043     104.0571         5     1.427     0.615  83.17   2
       283    435.6727    201.8874 307.7416553  +6.5897867     6298.566     24164.16     35364.66      87.4278     174.4414     348.2256      3.303     9.05      1051.79     61.38043     736.3921       113     2.792     2.217 -35.52   0
       284    761.1497    202.4417 307.6061930  +6.6003719     4659.779     11052.55     14477.19      87.4278     174.1647     348.2256      2.635     9.38     1050.569     61.38043     455.9155        52     2.573     1.471 -16.88   3
       285    761.3368    199.3164 307.6062204  +6.6016693     4419.905     9434.418     11981.39      87.4278     174.2339      348.191      2.377     5.91     1050.334     61.38043      426.954        26     1.819     1.136 -15.90   3
       286    124.6366    194.9683 307.8713181  +6.5822768     777.3239     2388.385     3546.507     86.87446     173.8876     347.9485      3.216     7.54     1067.414     61.38043     119.9091        12     1.884     0.846  29.72   2
       287    896.3015    191.8689 307.5503055  +6.6092197     672.3842     1475.141     1815.556     87.28979     174.3031     348.2603      2.654     5.12     1048.188     61.38043     89.72778         6     1.101     0.674 -10.84   0
       288    558.8299    185.4589 307.6909603  +6.6006703     1197.991     2529.526     3909.719     87.01312     174.1647     348.1564      2.314     8.71     1047.948     61.38043     166.0221        21     2.195     0.964  -8.99   3
       289    560.1671    189.5982 307.6902641  +6.5990046     1508.694     3134.773     4497.569     86.45712      173.957     347.9832      2.400     7.68     1048.069     61.38043       166.25        21     1.768     0.933 -34.83   3
       290    557.3182    189.0386 307.6914685  +6.5991411     1184.087     2383.228     3374.431     87.28979     174.2339     348.1564      2.246     5.15     1048.017     61.38043     158.2184        10     1.318     0.568 -62.31   3
       291    866.3884    183.9819 307.5630195  +6.6114872     4435.495     13061.04     16646.55     86.87446     173.8183     348.1218      2.854     7.06     1048.155     61.38043     409.5304        73     2.281     1.886 -29.35   0
       292    920.1292    184.6062 307.5406338  +6.6130095      1175.33     3268.871     4018.137     86.73557     173.7489     348.1218      2.675     9.44      1047.13     61.38043     147.8708        27     1.803     1.379 -86.86   0
       293    521.2036    185.5452 307.7066153  +6.5993837     555.3884     1366.411     2144.479     86.59646      173.957     347.8446      2.998     6.09     1047.926     61.38043     88.22083         6     1.085     0.962  -1.34   0
       294    952.8655    181.7706 307.5271056  +6.6152648     4449.398     11984.28     14215.53     87.01312     174.1647     348.1564      2.621     6.45     1046.211     61.38043     432.1577        59     2.057     1.709 -30.32   0
       295    663.7365    182.6450 307.6473989  +6.6053179     1022.979      3204.43     4629.836     87.28979     174.0955     348.2603      3.072     9.87     1048.656     61.38043     131.8087        26     1.729     1.571 -84.40   2
       296    805.9075    173.8316 307.5885311  +6.6136763     847.7147      2144.53     2699.303      87.4278      173.957     348.2603      2.669     7.99     1047.858     61.38043     116.9502        15     1.592     1.123  86.02   0
       297    716.3477    171.6898 307.6258742  +6.6115904     13960.88     33099.82     42610.69     87.28979      173.957     348.3641      2.608     9.52     1048.513     61.38043     1378.141        72     2.745     1.434 -19.12   3
       298    715.8206    168.3940 307.6262047  +6.6129346     11710.88     26059.54     31527.75     86.87446     173.8183     348.0179      2.359     6.88     1048.295     61.38043     1163.422        40     2.152     1.201 -15.90   3
       299    486.7224    171.5348 307.7214378  +6.6040251     692.4149     2071.929      3578.92      87.4278     174.1647      348.191      3.556     7.05     1047.565     61.38043     98.87292        10     2.241     0.622 -36.72   2
       300    856.9725    172.5028 307.5673246  +6.6159178     907.6959     2605.248     3117.412      87.4278     173.8876      348.191      2.660     8.53     1047.294     61.38043     99.22095        20     1.770     1.148 -76.28   0
       301    321.2483    170.4747 307.7903337  +6.5989539     2483.866     6377.401     10629.81     87.15157     174.2339     348.2603      3.329    10.88     1060.024     61.38043      247.891        65     2.802     2.173 -53.04   2
       302    318.0000    170.0158 307.7917009  +6.5990352     1756.223      3203.96     5230.126     86.73557     173.6101     347.9139      2.870     6.93     1060.275     61.38043      230.058        16     2.225     0.606  84.76   3
       303    950.5635    168.5060 307.5285099  +6.6206689     1388.352     3535.095     4061.335      87.4278     174.0262     348.3295      2.587     7.43      1045.33     61.38043     193.5992        27     1.677     1.385 -28.76   0
       304    884.4670    167.1761 307.5560618  +6.6190295     3158.352     8781.846     10350.19     86.87446     174.0955     348.1564      2.626     7.20     1046.376     61.38043     324.5681        54     2.112     1.632 -30.18   0
       305    428.0666    166.6057 307.7460136  +6.6041097     1286.538      5062.52     6815.712     86.73557     173.8183     348.0179      3.113    12.08     1049.628     61.38043     167.4198        51     2.155     1.885 -38.90   0
       306    987.4710    167.7052 307.5131772  +6.6222213      874.493     1681.968     1758.067     87.15157     174.2339      348.191      2.128     6.53     1044.556     61.38043     102.0154        11     1.244     0.962  53.88   0
       307     86.4850    159.3526 307.8884019  +6.5957164     1666.844     3970.404      5802.71     87.28979     174.0955     348.2256      2.840     9.92     1067.981     61.38043     176.8945        41     2.533     1.238 -36.85   2
       308     85.3189    156.0414 307.8889995  +6.5970454     1356.634      2803.46     4128.826     87.28979     174.1647     348.1564      2.784     7.51     1067.971     61.38043     158.3356        19     1.833     0.941 -20.03   3
       309    255.9139    154.6949 307.8180559  +6.6032952     9718.277     36395.39     51805.19     87.28979     174.5796     348.2949      3.245     8.75     1063.646     61.38043     1184.784       116     2.671     2.243 -32.44   0
       310    231.1884    155.7268 307.8283100  +6.6020443     1870.279     7213.034     10032.26     86.73557     173.7489     348.0525      3.207     9.34      1064.28     61.38043     255.0771        73     2.394     2.216 -10.52   0
       311    379.8414    150.1108 307.7666401  +6.6093187     13956.46     52654.87     76231.63     87.28979     174.0955     348.2603      3.267     8.86     1053.656     61.38043     1749.457       128     2.705     2.273 -32.74   0
       312    135.9836    151.7503 307.8680623  +6.6005101     1094.563     4416.437     6209.049     86.73557     174.2339     347.8792      3.309    11.45     1066.104     61.38043     169.6725        48     2.271     2.046 -41.74   0
       313    284.4758    147.8483 307.8064022  +6.6070760     5479.001     19376.37     30055.64     87.15157     174.2339     348.2603      3.493     9.01     1062.908     61.38043     643.1611       122     3.113     2.284 -14.85   0
       314    718.9986    145.9772 307.6256381  +6.6223014     11090.03     36796.75     49468.98     86.87446     173.8183     347.9832      3.016     7.78     1047.125     61.38043     1168.472       101     2.496     2.058 -29.29   0
       315     36.6881    145.6784 307.9095875  +6.5997018     2936.047     6673.318      8475.29     87.01312     174.4414     348.3641      2.487     7.46     1070.325     61.38043     360.5436        27     2.180     0.989 -12.44   3
       316     38.2673    143.2517 307.9090128  +6.6007571     2935.876     7098.321      9707.33     87.15157     174.0955      348.191      2.751    11.51     1070.213     61.38043     298.4821        45     3.019     1.371   8.20   3
       317    978.9791    124.5919 307.5181614  +6.6397524     861.7234      2298.18     3660.989     86.87446      173.957     347.9832      4.240     8.40     1042.098     61.38043     113.2201        14     2.034     0.969  81.81   2
       318    255.4534    122.2248 307.8193476  +6.6166942     10196.19     26949.47     36674.11     86.73557     174.2339     348.0525      2.901     8.49     1063.351     61.38043     1065.057        80     2.850     1.576 -35.50   3
       319    253.2068    119.0001 307.8203917  +6.6179515     6885.527     13633.47     16829.34     86.59646     173.8183     348.0179      2.200     5.52     1063.362     61.38043      748.036        35     1.849     1.179 -34.96   3
       320    686.3156    117.1872 307.6402108  +6.6331110     2641.984     8979.506      12333.7     86.87446     174.0262     348.0525      3.122     8.05      1046.14     61.38043     297.7966        68     2.244     2.028 -34.52   0
       321      2.0567    119.2799 307.9248948  +6.6094499     1604.066     3058.355     3227.209      84.6249     149.9895     274.9843      2.086     8.20     1071.704     61.38043     207.5494        22     1.792     1.049 -86.68  24
       322     97.2249    114.7551 307.8854460  +6.6144994      1515.04     5522.371     7561.203     86.73557     174.2339     348.0871      3.288     9.19     1066.456     61.38043     204.7452        56     2.180     2.105 -65.49   0
       323    368.3582    110.8907 307.7727460  +6.6251394     1318.408     4344.899     6536.375     87.28979     174.1647     348.2949      3.264    11.35     1054.093     61.38043      140.515        47     2.157     1.815 -56.89   0
       324    332.4471    110.0536 307.7877189  +6.6242889     1328.145     3942.427     5698.646     87.28979     174.1647     348.2603      3.287    11.24     1057.786     61.38043     164.8542        39     2.222     1.815 -17.89   0
       325    184.3489     98.6479 307.8497365  +6.6240625     1746.181     6119.815     8731.225      87.4278     174.0262     348.2256      3.127     9.46     1064.218     61.38043     216.3904        64     2.489     1.947 -42.97   0
       326     66.4720    101.3174 307.8986995  +6.6190235     734.3262       1756.2     3418.938      87.5656     174.5105     348.2603      3.162     6.90     1067.859     61.38043     98.28735        10     2.007     0.665   6.68   2
       327    645.7251     97.1113 307.6577809  +6.6400573     2071.558     6894.937     9504.707     87.28979     174.5105     348.3295      3.052     7.75     1046.158     61.38043      280.155        59     2.129     1.909 -40.83   0
       328    600.9748     87.0476 307.6767447  +6.6427285     18010.48     54367.77     87179.66     86.87446     174.2339     348.0871      3.606     9.98     1046.625     61.38043     1929.151       191     4.032     2.311 -62.90   0
       329    325.4595     90.4720 307.7912898  +6.6321458     1385.777     4512.297     6865.796      87.4278     174.1647     348.2256      3.402    11.55     1058.213     61.38043     141.4674        50     2.279     1.886 -53.10   0
       330    507.9396     89.3191 307.7153869  +6.6386972     644.8012     1396.794     1940.268      87.4278     174.1647      348.191      2.515     6.66     1046.632     61.38043     102.7909         7     1.319     0.942 -23.29   0
       331    279.6073     77.7765 307.8108016  +6.6358624     968.8439     2927.355      5379.47     86.73557      173.957     348.0525      4.313    14.50     1062.194     61.38043     144.3959        25     2.740     2.134  -2.23   2
       332    665.8410     71.4742 307.6502743  +6.6513170     1178.947     2557.949     3464.002     87.15157     174.2339     348.2603      2.893     7.94     1044.249     61.38043     153.8448        20     1.963     0.898 -15.49   2
       333    665.2648     67.4845 307.6506487  +6.6529462     953.6969     1910.537     2573.187      87.4278     174.3723     348.2949      2.349     6.02      1044.07     61.38043     116.4478        12     1.246     0.817 -23.85   3
       334    408.3860     61.8948 307.7577457  +6.6467142     1380.502     3982.971     5595.403     87.01312     173.8876     348.0525      3.018    10.69     1050.778     61.38043      176.746        36     2.438     1.307 -15.37   2
       335    863.6722     57.9425 307.5683945  +6.6634699     656.9114     1287.049     1669.491      87.4278     174.1647     348.2256      1.593     3.48     1040.471     61.38043     111.4156         5     1.156     0.303 -66.40   3
       336    861.3850     57.1463 307.5693732  +6.6637230     826.4987     1879.844     2598.251     86.59646     174.0955     347.9139      2.414     6.38     1040.436     61.38043     108.3141        11     1.706     0.669  81.42   2
       337    879.9918     56.2467 307.5616594  +6.6647112     1736.095     4600.755     5433.894     86.73557     174.0955     347.8446      2.672     8.44     1039.957     61.38043     191.9017        41     2.146     1.474 -27.16   0
       338    370.5454     53.3234 307.7737840  +6.6489951     810.1769      2180.63      2843.11      87.4278     174.1647     348.2256      2.859     7.94     1053.488     61.38043     107.3291        12     1.365     1.293  27.91   0
       339    117.6183     48.1481 307.8792194  +6.6426974     967.6758     2313.872     3952.952     86.73557     174.2339     347.9485      3.303     6.01     1064.038     61.38043     115.6516        11     1.222     0.830 -50.29   3
       340    119.1171     51.8053 307.8784716  +6.6412366     1114.512     3014.038     4303.738     86.73557     173.7489     347.9485      3.057     7.57     1064.137     61.38043     172.1708        17     1.707     1.023 -22.31   2
       341      2.6069     47.6968 307.9270972  +6.6390406     4454.851     10057.16     12101.66     87.01312     157.4405     284.1271      2.408     8.88     1067.993     61.38043      535.994        45     2.188     1.326 -73.91  24
       342    802.4286     41.8520 307.5944262  +6.6680874     2489.272     7327.442     9388.965     87.01312     174.3031     348.1218      2.833     7.15     1039.801     61.38043     271.3394        54     2.016     1.810 -44.21   0
       343    747.7426     42.1880 307.6171753  +6.6661348     1185.084     3738.905     5321.469     86.59646     174.0262     347.9139      3.216    11.23     1041.171     61.38043      156.955        40     2.116     1.754 -28.13   0
       344     42.1282     40.4251 307.9108973  +6.6433659     1097.614      3146.12     4566.195     86.87446     174.0262     348.1564      3.292    11.57     1066.154     61.38043     120.8093        29     2.187     1.704 -25.83   2
       345    742.1154     31.2220 307.6198872  +6.6704786     869.4617     2286.751     3582.242     87.15157     173.8183     348.1564      3.479     8.00     1040.727     61.38043     127.2407        14     1.919     0.932 -20.54   2
       346    775.7283   1015.6212 307.5727386  +6.2648896     9070.902     18969.86     21002.48     86.87446     174.0262      348.191      2.206     5.10     1098.256     61.38043     1055.625        59     2.025     1.414 -29.96  16
       347     46.5588   1016.5660 307.8759365  +6.2402432     4698.646     10426.11     11874.79     87.01312     174.1647     348.0525      2.347     5.31     1094.605     61.38043     466.2256        53     1.937     1.531 -26.87  16
       348    559.2563   1006.6882 307.6630644  +6.2613974     90869.41     210898.4     251741.6     87.28979     174.0262     348.3641      2.463     5.55     1098.727     61.38043     9961.427       134     2.295     1.733 -29.32   3
       349    560.9919    999.4144 307.6625880  +6.2644601     42076.04     97470.64     114265.1     86.87446     173.8876     348.0525      2.405     5.69     1098.565     61.38043     4521.042        92     2.215     1.552 -17.96   3
       350    193.3241   1009.7435 307.8151368  +6.2479580     2238.694     5125.572     6234.508     87.28979     174.0955     348.1564      2.431     5.97     1098.367     61.38043     255.0029        35     1.826     1.342 -17.66   0
       351    770.0294   1003.3643 307.5755212  +6.2697647     4475.485     9350.006     10841.67     86.87446     173.8876     348.0179      2.246     5.37     1097.731     61.38043     499.9208        43     1.965     1.247 -27.40   0
       352    867.9951    999.5945 307.5349059  +6.2745680     893.8504     1865.776     2179.016     86.59646     173.8876     348.0871      2.291     7.54     1096.044     61.38043     127.7675        13     1.720     0.926 -23.84   0
       353    190.9990    998.7033 307.8164775  +6.2524415     1103.704     2630.139     3290.427     86.73557     173.7489     347.8446      2.332     6.79     1098.066     61.38043     150.3126        20     1.735     1.131 -19.62   0
       354    408.9307    996.2964 307.7259306  +6.2606935      2221.96      5377.34     6740.122     87.15157     174.3031     348.2256      2.615     5.95     1098.527     61.38043     253.9854        43     1.845     1.586 -28.96   0
