#   1 NUMBER                 Running object number                                     
#   2 X_IMAGE                Object position along x                                    [pixel]
#   3 Y_IMAGE                Object position along y                                    [pixel]
#   4 ALPHA_J2000            Right ascension of barycenter (J2000)                      [deg]
#   5 DELTA_J2000            Declination of barycenter (J2000)                          [deg]
#   6 FLUX_APER              Flux vector within fixed circular aperture(s)              [count]
#   9 FLUXERR_APER           RMS error vector for aperture flux(es)                     [count]
#  12 FLUX_RADIUS            Fraction-of-light radii                                    [pixel]
#  13 FWHM_IMAGE             FWHM assuming a gaussian core                              [pixel]
#  14 BACKGROUND             Background at centroid position                            [count]
#  15 THRESHOLD              Detection threshold above background                       [count]
#  16 FLUX_MAX               Peak flux above background                                 [count]
#  17 ISOAREA_IMAGE          Isophotal area above Analysis threshold                    [pixel**2]
#  18 A_IMAGE                Profile RMS along major axis                               [pixel]
#  19 B_IMAGE                Profile RMS along minor axis                               [pixel]
#  20 THETA_IMAGE            Position angle (CCW/x)                                     [deg]
#  21 FLAGS                  Extraction flags                                          
         1    181.8502     20.4171 307.8654146  +6.6683842     5106.857     13142.79     17586.65     90.67259     182.1426     363.7423      2.749     6.50     1178.406     64.16656     585.3323        70     2.401     1.680 -32.45   0
         2    927.2678     18.0003 307.5554376  +6.6941789       2485.8     5340.152     6108.559     90.52717     181.4904     363.7423      2.283     5.67     1139.507     64.16656     312.5371        36     1.977     1.142 -27.11   0
         3    525.8362     18.4954 307.7224018  +6.6806449       1458.2     3767.194     3448.903     91.39625     181.9255     364.1767      2.503     8.49     1151.056     64.16656     158.9655        32     1.847     1.367 -34.18   0
         4    464.5208     17.0907 307.7479538  +6.6791844     916.4552      2382.09     2658.664     90.96275     182.2872     364.1044      2.385     9.00     1153.939     64.16656     112.1559        17     1.696     1.335 -27.70   0
         5    727.9927     17.0427 307.6383623  +6.6879648     1069.576     2515.738     2576.726     90.67259     181.7806     363.7061      2.338     7.04     1145.445     64.16656     126.8792        15     1.549     0.896 -16.79   0
         6    992.0652     13.9533 307.5286203  +6.6979975     1251.646     2741.576     3203.796     91.25198     181.9979      364.032      2.380     6.80     1132.049     64.16656     177.7769        22     1.993     1.022 -25.79   0
         7    711.4566     10.7706 307.6454534  +6.6900073     4049.933     9181.425     10817.06     90.81779     182.1426     363.9234      2.468     6.09     1145.673     64.16656     447.2594        52     2.220     1.444 -27.72  16
         8    631.6501     10.1902 307.6786697  +6.6875956     2051.908     4902.236     5374.713     90.67259     181.9255     363.6699      2.418     7.40     1148.548     64.16656     231.6116        39     2.141     1.336 -27.35  16
         9    432.0055      6.3018 307.7618453  +6.6825595     3209.479     8053.896     10253.03     90.96275     181.6356     348.2725      2.672     7.22     1157.089     64.16656     372.6998        56     2.371     1.521 -24.17  16
        10     32.9490      6.1996 307.9278314  +6.6692823     4398.211     10844.44     13453.63     90.38151      181.563     347.1357      2.586     6.10      1181.24     64.16656     506.6824        64     2.314     1.597 -27.71  16
        11    328.3352      2.4265 307.8050987  +6.6807058     6242.187      11542.7     13487.26     90.81779     162.4111     293.9921      2.062     6.27     1169.515     64.16656     729.0291        40     2.205     1.044 -14.97  24
        12    102.4639      2.3001 307.8990515  +6.6732177     1299.141      2285.99     2739.152     90.38151     160.5344     291.6523      2.014     7.03     1180.409     64.16656     178.1832        16     1.799     0.771 -22.32  24
        13     94.0545      1.6175 307.9025724  +6.6732187     729.8387     1156.427      2064.14     83.09012     149.9247     279.1887      2.065     5.27     1180.569     64.16656     105.0345         8     1.383     0.568 -18.74  24
        14    813.5341   1000.9235 307.5694764  +6.2842487     878.5249     1542.647     2058.225     91.39625     182.0703     363.9958      2.046     5.35     1207.138     64.16656     133.4399        10     1.293     0.624 -22.86   0
        15    577.7470   1023.7739 307.6667030  +6.2669805     1041.822     1369.706     1248.303     77.51151       143.09     271.8239      1.527     4.52     1213.498     64.16656     241.3892         8     1.397     0.415   2.27  24
        16    914.4402    994.7078 307.5277455  +6.2901608     7074.267      12655.2     14029.57     91.39625     181.9979     364.1044      1.980     5.38     1206.661     64.16656     930.2053        41     2.097     0.939 -29.08   0
        17    545.7858    994.2162 307.6809891  +6.2781319     5884.687     11486.21     14457.65     90.96275     181.7081     363.9596      2.160     5.43     1212.862     64.16656      656.405        44     2.092     1.116 -26.56   0
        18    887.9398    990.8900 307.5388894  +6.2908606     9967.435     18340.57      20491.8     91.10748      182.215     364.0682      2.016     5.33     1206.508     64.16656     1272.546        45     2.061     0.997 -26.19   0
        19   1009.8317    990.2061 307.4882482  +6.2951789     4165.411     7316.383     7720.485     90.52717     181.8531     363.7785      1.854     5.78     1201.354     64.16656     629.5232        29     1.888     0.822 -26.54   0
        20    600.6130    991.5046 307.6582931  +6.2810744     946.3477     1658.446       1729.9     90.96275     181.7806     363.8148      2.074     6.41     1212.461     64.16656     163.5826        10     1.427     0.808 -15.75   0
        21    532.1496    990.0725 307.6867973  +6.2793908     3041.316     6091.793     7460.183     91.25198     182.1426     364.0682      2.409     5.38     1213.191     64.16656     387.4937        36     2.044     1.114 -18.99   0
        22    641.8642    989.1867 307.6412262  +6.2834024     993.1091     1764.557     2339.886     90.67259     181.8531     363.8872      2.076     5.83     1211.829     64.16656     141.4669        12     1.597     0.599 -28.07   0
        23    485.3369    986.4374 307.7063773  +6.2793363     1576.306      3056.78     3154.379     91.25198     182.1426      364.032      2.069     6.65     1214.512     64.16656     219.7888        21     1.824     0.795 -15.89   0
        24    919.7816    978.4403 307.5260750  +6.2970598     35590.29     64958.31     71186.13     90.81779     181.8531     363.7423      1.977     5.56     1205.468     64.16656     4989.424        70     2.098     1.114 -26.60   0
        25    227.2246    976.9254 307.8139777  +6.2746707     987.6317     2001.876     2451.096     90.81779     181.8531     363.9596      2.370     5.75     1216.779     64.16656      127.968        11     1.266     0.735 -31.82   0
        26    625.3359    975.5187 307.6485592  +6.2885012     671.8428     1206.085      1137.48     91.39625     182.1426      364.032      1.879     4.90     1211.536     64.16656     96.34424         7     1.085     0.627 -19.10   0
        27    817.4011    972.2565 307.5688386  +6.2962227     1770.893     3350.417     3669.947     90.52717     181.7081     363.7061      2.020     5.63     1206.358     64.16656     222.7495        23     1.816     0.835 -34.74   0
        28    765.9332    970.1198 307.5903035  +6.2953989     4974.341     9305.967     10661.82     91.39625     182.2872      364.032      2.054     5.15     1208.012     64.16656     650.8798        40     2.008     1.045 -27.08   0
        29    235.6978    969.4941 307.8107089  +6.2780239     950.1101     1717.849     2181.093     91.25198     182.7204     363.8872      2.133     6.05       1216.7     64.16656     121.9446        11     1.243     0.828  -7.19   0
        30     60.6972    967.4821 307.8835099  +6.2730153      1859.51     3459.074     3326.709     91.10748      182.504     364.1044      1.999     5.58     1217.022     64.16656     203.9326        21     1.581     0.957 -23.23   0
        31    954.1953    965.2237 307.5122173  +6.3036607      5304.46     9941.735     10961.85     90.67259     181.7806      363.851      1.991     5.52      1203.41     64.16656     754.9591        35     1.966     0.951 -27.02   0
        32    927.8683    956.7927 307.5234452  +6.3062728     1653.914     3043.712     3032.989     90.67259     181.7806     363.8872      1.852     5.32     1204.002     64.16656     216.1217        20     1.686     0.781 -28.95   0
        33    261.1453    953.2575 307.8006846  +6.2855813     2931.541     6067.881     6641.203     91.39625     182.1426     364.0682      2.217     5.81     1216.703     64.16656     338.0719        37     1.954     1.197 -22.28   0
        34    648.6545    952.8530 307.6396349  +6.2986415       3236.6      6465.02     7660.124     91.54029     181.9979     363.9958      2.255     5.90     1209.516     64.16656      408.087        34     1.942     1.076 -22.54   0
        35    787.1621    953.5796 307.5820394  +6.3029377     1019.937     1694.995     1805.868     90.81779     181.7806     363.7423      1.946     5.49     1206.814     64.16656     153.4299        14     1.420     0.714 -29.45   0
        36     29.7640    950.4971 307.8969448  +6.2790000      1404.98      3012.26     3529.229     91.25198     181.9255     364.2129      2.193     7.14     1216.533     64.16656     222.2299        20     1.820     0.920 -24.97   0
        37    471.9201    950.8932 307.7131600  +6.2935772     712.3859     1208.167     1519.604     90.96275     182.2872     364.1044      1.692     5.05     1212.763     64.16656     99.01526         8     1.235     0.584 -27.85   0
        38    880.4489    949.0969 307.5434156  +6.3078822     667.6936     1034.172     1102.905     91.10748     181.9979     364.2129      1.899     5.72     1203.617     64.16656     135.0598         8     1.587     0.580 -23.49   0
        39    952.2342    946.2835 307.5136722  +6.3114223     716.7385     1295.476      1193.98     91.25198     182.0703     363.9958      1.938     5.46     1202.469     64.16656     110.4689         8     1.193     0.851 -30.42   0
        40    573.2349    945.3273 307.6712380  +6.2992457     1066.669     2114.345     2258.083     91.10748     182.0703      364.032      2.205     6.77     1211.339     64.16656     131.0248        14     1.797     0.714 -33.01   0
        41   1004.9205    944.7867 307.4918229  +6.3137846     763.8582     1591.022     1394.666     90.81779     181.7806     363.8148      2.011     4.44      1200.65     64.16656     104.2618         6     0.952     0.588 -24.67   0
        42    612.5192    941.4987 307.6550393  +6.3021331     820.9404     1541.838      1114.28     91.10748     182.5761     364.1044      1.829     4.61     1210.705     64.16656     126.6493         8     1.208     0.499  -1.52   0
        43    294.0727    938.9131 307.7874868  +6.2926059     894.9659     1978.507     1852.025     91.39625     182.3595      364.032      2.282     6.83     1216.857     64.16656     110.9788        11     1.287     1.017 -28.43   2
        44    896.6946    932.0278 307.5372398  +6.3154737     5523.818     10021.84      10397.6     91.39625     181.7806     363.9234      1.957     5.19     1202.384     64.16656     728.8784        37     1.940     1.000 -23.32   0
        45    432.7652    929.4874 307.7301611  +6.3011195     1446.792     2798.822     3558.958     91.25198     181.9255      364.032      2.199     7.10     1212.623     64.16656     182.1383        18     1.820     0.775 -23.69   0
        46    334.5529    927.7723 307.7710404  +6.2985581     6305.456     12939.91     15135.96     90.81779     182.1426     363.9596      2.245     5.16     1216.078     64.16656     698.9279        53     2.096     1.318 -28.97   0
        47    254.7146    926.7758 307.8042580  +6.2963092     4608.515     9555.978     11122.53     91.25198     181.7806      363.851      2.251     5.77     1216.349     64.16656     502.3201        45     2.058     1.261 -27.79   0
        48    582.4600    920.5968 307.6682420  +6.3097713     840.6471     1675.952     1739.887     90.52717     181.7806     363.7061      2.041     6.06      1210.36     64.16656     107.2373         9     1.218     0.848 -45.33   0
        49    913.4591    916.6447 307.5307912  +6.3223856     684.1639     1166.656     1765.732     91.10748     181.9979     364.1405      1.741     4.96     1201.366     64.16656     145.2457         7     1.279     0.545 -22.31   0
        50    748.6040    910.3527 307.5995293  +6.3195208     1218.693     2156.375     2255.839     90.52717     181.7806     363.6699      1.802     5.79     1204.971     64.16656     197.3098        14     1.546     0.729 -30.26   0
        51      1.8030    907.5866 307.9100287  +6.2957961     554.5466     810.4432     1082.452     85.43555      152.452     282.6127      1.581     4.46      1214.99     64.16656     80.27075         5     1.166     0.485  55.93  24
        52    613.8372    906.8026 307.6556674  +6.3165138     583.7816     971.4456     1112.539     90.23561     181.8531     363.8148      1.811     5.42     1208.521     64.16656     101.6846         7     1.338     0.620 -26.56   0
        53    534.3426    905.9536 307.6887390  +6.3142227     752.9836     1564.881      1314.61     91.25198     182.0703     364.1767      2.371     6.26     1210.746     64.16656     109.2058         9     1.795     0.613 -31.64   0
        54    979.9357    905.8661 307.5035226  +6.3290406     1012.481     1725.483     2651.921     91.25198     182.0703     364.0682      2.002     4.87     1198.475     64.16656     193.0231        10     1.300     0.517 -29.08   0
        55    667.3387    903.5934 307.6335375  +6.3196168     1735.669     3428.343     3919.602     90.52717     181.8531     363.7423      2.061     5.95     1206.218     64.16656     213.7063        25     1.808     1.010 -31.16   0
        56     64.4523    899.8513 307.8842537  +6.3010855     1938.728     4073.154     4289.552     91.39625     181.9255     364.0682      2.314     6.03     1215.374     64.16656     206.7992        25     1.587     1.220 -40.51   0
        57     81.9632    899.5946 307.8769845  +6.3017764     1179.975     2541.555      2739.02     90.23561     181.7806     363.8148      2.246     6.52     1215.487     64.16656     188.9368        17     1.546     1.045 -25.05   0
        58    208.1428    898.7132 307.8245698  +6.3063518     1371.207     2852.337     3724.871     91.25198     182.0703     364.1767      2.407     7.84      1215.56     64.16656     161.5532        21     1.898     0.907 -21.97   0
        59    662.1738    892.9115 307.6360463  +6.3238592     4778.104     9660.609     10758.95     91.39625     181.7806     363.8872      2.223     5.84     1206.056     64.16656     506.5056        48     2.216     1.183 -22.33   0
        60     33.5893    890.5164 307.8973995  +6.3039116     785.9898     1479.885     1804.734     90.81779     181.7806      363.851      1.707     3.88     1215.133     64.16656     104.7473         5     1.016     0.425 -74.39   0
        61    899.7680    888.9915 307.5374168  +6.3333590     2136.493     3943.508     4514.776     90.67259     181.8531      363.851      1.977     5.55     1199.793     64.16656     257.4949        23     1.701     0.918 -25.97   0
        62    345.2193    886.1483 307.7680216  +6.3161127     10147.81      21592.6      25936.8     90.67259     182.1426     363.8148      2.307     5.52     1214.306     64.16656      1083.58        65     2.233     1.363 -27.68   0
        63     78.8061    887.7382 307.8787006  +6.3065700     836.7135     1827.509     2163.411     90.52717     181.8531     363.7785      2.533     5.36       1215.3     64.16656     112.7662        10     0.960     0.845  22.97   2
        64    215.8926    886.3768 307.8217684  +6.3117077     991.6675     1703.392     1767.625     91.25198     181.8531      363.851      1.921     5.26     1215.369     64.16656     133.1447        11     1.228     0.927 -16.50   0
        65    108.2855    876.5328 307.8668296  +6.3121844     1020.993     2183.811     2928.166     91.25198     182.3595     364.0682      2.474     6.98     1215.205     64.16656      142.051        14     1.475     1.010 -10.27   0
        66     90.5201    871.0103 307.8744018  +6.3138731     992.9086     1961.615     2746.627     90.81779     181.7081      363.851      1.893     5.01     1215.075     64.16656     148.5115         8     1.190     0.596  73.12   3
        67     93.0000    870.0006 307.8734054  +6.3143731     1295.854     2113.854     2960.834     90.38151     181.4904     363.6699      2.178     4.41     1215.061     64.16656     189.3842        12     1.023     0.872 -81.57   2
        68    890.1433    870.6825 307.5420366  +6.3406058     1452.814     2567.323     2316.896     91.25198     182.0703     364.1405      1.840     6.33     1198.953     64.16656     189.7493        15     1.625     0.693 -20.55   0
        69    860.8247    870.2211 307.5542395  +6.3398250      1375.61     2891.281      3080.31     90.81779     181.8531      364.032      2.187     6.21     1199.648     64.16656     198.3735        15     1.771     0.611 -26.41   0
        70    824.2557    869.5844 307.5694622  +6.3388760     2173.332     4136.251     4665.318     90.52717     181.9979     363.7061      2.044     5.52     1201.208     64.16656     278.2018        26     1.733     1.061 -23.99   0
        71    560.1890    861.2568 307.6795115  +6.3335512     213957.7     449679.8     524704.8     90.52717     181.9979     363.6699      2.282     5.53     1208.508     64.16656     22050.57       168     2.355     1.526 -26.76   0
        72    404.4606    863.8625 307.7441546  +6.3272941     4797.431     10118.21     11571.91     91.25198     182.0703     364.0682      2.323     5.76     1211.476     64.16656     529.0989        56     2.226     1.398 -24.59   0
        73    347.6124    862.3690 307.7678350  +6.3260182     8004.426     17195.26     20279.55     90.67259     181.7806     363.9596      2.338     5.85     1213.271     64.16656     766.3822        58     2.268     1.320 -27.30   0
        74    648.8127    863.9172 307.6425825  +6.3353964     828.4306     1441.322      1602.63     90.81779     181.7806      363.851      1.821     6.07     1205.114     64.16656     110.8817         9     1.828     0.566 -35.67   0
        75    665.9233    858.4354 307.6356557  +6.3382298     2374.469     4661.669     5529.242     91.10748     182.1426     364.0682      2.152     6.51     1204.734     64.16656     254.4836        29     1.921     0.988 -32.96   0
        76    898.2374    857.2321 307.5391266  +6.3464320      3978.26     7284.433     8642.311     90.81779     181.7806     363.7785      2.029     5.34     1197.886     64.16656     563.9163        31     1.945     0.930 -23.93   0
        77    640.8351    852.5594 307.6462835  +6.3398247     2069.988     4477.667     5846.056     90.96275     182.0703     363.8148      2.692     6.84     1204.587     64.16656     246.8597        35     2.038     1.173 -30.07   0
        78    828.8811    851.5480 307.5681496  +6.3464823       1195.5     2421.896     3284.499     91.25198     182.0703      364.032      2.278     6.41     1199.604     64.16656     165.8143        16     1.574     0.788 -27.26   0
        79    955.4299    851.4642 307.5155469  +6.3507095     629.4642     1247.079     1546.821     90.96275     182.1426     363.9596      2.144     4.12     1195.179     64.16656     97.74695         5     0.978     0.495   4.29   0
        80    634.2192    847.0681 307.6492197  +6.3418740     1195.362     2896.246      4340.19     90.81779     181.9255     363.9234      3.224    10.49     1204.348     64.16656     144.7853        24     2.882     1.065 -52.24   2
        81    917.2429    845.1917 307.5316331  +6.3520369     2330.004     4447.273     5239.526     90.67259     181.8531     363.7423      2.146     5.90     1196.596     64.16656      298.958        27     1.978     0.864 -26.88   0
        82    375.7043    841.1910 307.7568778  +6.3357047     1672.253     3566.536     4311.678     90.96275     181.6356     363.7785      2.352     7.86     1211.188     64.16656     186.1263        26     1.942     1.090 -26.03   0
        83    511.7425    831.1181 307.7006720  +6.3443941     1870.912     3948.129     4651.819     91.39625     182.0703     364.0682      2.332     7.28     1207.625     64.16656     237.7592        32     2.022     1.154 -28.39   0
        84    856.5454    829.5782 307.5573927  +6.3564777     785.5336     1263.776     1289.382     90.67259     182.0703     363.8148      1.814     6.53     1197.147     64.16656     111.4379        12     1.367     0.876 -16.57   0
        85    558.7390    827.1720 307.6812702  +6.3475873     3637.186     8157.687     10839.66     90.81779     182.1426     363.9596      2.719     8.11     1206.223     64.16656      400.042        51     2.564     1.307 -16.54   2
        86    476.6594    826.2530 307.7154205  +6.3452375     1035.181      1669.43     2633.979     91.25198     181.9979      364.032      1.972     5.59     1207.709     64.16656     144.1652        10     1.327     0.664 -50.90   0
        87    118.6299    825.4112 307.8642713  +6.3336531     998.0205     1924.247     2012.179     90.67259     181.8531      363.851      2.109     6.80     1214.273     64.16656     113.7582        13     1.345     0.963  -9.72   0
        88    894.4245    824.8873 307.5418050  +6.3596712     1102.224     1922.518         1755     91.25198     181.8531     363.8872      1.824     5.90     1195.871     64.16656     135.1381        12     1.279     0.765 -11.11   0
        89    529.2723    820.9402 307.6937305  +6.3491827     12317.26     26404.26     30687.37     91.39625     182.0703     364.0682      2.326     5.43      1206.64     64.16656      1234.19        68     2.244     1.419 -27.57   0
        90    942.8121    819.0033 307.5218889  +6.3637053     2800.062     5451.149      5583.76     90.81779     181.7081     363.8872      2.015     5.85     1194.016     64.16656     363.8662        27     1.895     0.886 -26.64   0
        91     39.9267    811.7717 307.8974497  +6.3366603      879.442         1964     2116.135     91.10748     182.0703     363.9596      2.322     5.90     1214.803     64.16656     107.4172        10     1.500     0.652 -60.66   0
        92    321.9686    809.8318 307.7802802  +6.3468726     1994.926     4503.185     5522.703     90.67259     181.7806     363.7423      2.366     6.49     1211.919     64.16656     229.2777        34     1.881     1.293 -25.66   0
        93     22.1872    808.3365 307.9049403  +6.3374869     1441.947     3085.333     3110.897     90.67259     181.8531     363.8148      2.184     7.70     1215.056     64.16656     169.4465        20     1.717     0.967 -27.73   0
        94    787.3800    805.4003 307.5869628  +6.3641754      37719.8      75038.3     86137.12     90.81779      181.563     363.6699      2.185     5.45     1196.736     64.16656      4103.92        90     2.248     1.374 -27.77   0
        95    244.2597    782.0873 307.8135257  +6.3557464     779073.6      2347974      2985564     91.25198      182.215     364.1405      2.844     8.39     1212.339     64.16656     63228.12       652     2.882     2.351 -40.94   4
        96    912.5562    800.6458 307.5350869  +6.3702889     6155.821     11886.94     13840.77     91.25198     182.0703     363.9596      2.131     5.50      1193.75     64.16656     679.3512        50     2.178     1.161 -24.52   0
        97    715.6064    799.8392 307.6169876  +6.3640920     13604.56     29197.63     34567.38     90.38151     181.7081     363.7061      2.301     5.70     1200.183     64.16656     1548.785        58     2.201     1.305 -28.49   3
        98    709.3453    796.5618 307.6197014  +6.3652385     57047.42     117872.7     138103.9     91.25198     182.1426      364.032      2.274     5.65     1200.085     64.16656     5757.686       100     2.327     1.433 -27.79   3
        99    354.3448    797.5985 307.7672378  +6.3530061     12302.42      27622.5     33317.91     90.52717     181.7081     363.6699      2.430     5.70     1209.664     64.16656     1184.345        73     2.291     1.540 -25.82   0
       100    416.1394    795.3704 307.7416264  +6.3559845     13153.19     29259.94        34820     90.96275     182.0703     363.9958      2.401     5.68     1207.102     64.16656     1339.398        76     2.310     1.512 -28.51   0
       101    403.2309    797.8432 307.7469083  +6.3545329     796.9092     1700.708     1974.783     90.81779     181.9979      363.851      2.662     5.36     1207.763     64.16656     121.3734         8     1.302     0.623 -23.26   0
       102    953.1733    793.9330 307.5184287  +6.3744079     1613.983     2929.815     2588.433     90.81779     181.9255     363.9234      1.958     6.69     1192.357     64.16656     206.8507        20     1.845     0.800 -30.38   0
       103    909.5417    792.0264 307.5366314  +6.3737508     4925.471     9364.519     10376.76     90.81779     182.1426     363.8148      2.060     5.51     1193.273     64.16656     601.6621        41     2.051     1.061 -27.28   0
       104    650.2667    791.2943 307.6444390  +6.3654536     4024.359     8489.159     9994.697     91.10748     182.2872      364.032      2.300     6.04     1201.045     64.16656     419.4484        44     2.151     1.202 -30.05   0
       105    439.2527    789.5951 307.7322146  +6.3591402     1085.756     2559.109     3199.435     90.52717     181.7806     363.5974      2.534     8.75     1206.294     64.16656     136.1046        18     1.772     1.206 -35.63   0
       106    155.3483    782.5462 307.8504687  +6.3525906     711.5299     1152.859     1238.772     91.39625     181.9979     364.0682      1.973     4.90     1212.842     64.16656     107.8857         7     1.145     0.593 -47.10   0
       107    685.5259    780.9779 307.6301311  +6.3708873     1600.569     3133.843      3366.66     90.81779     181.9255     363.9596      2.153     6.63     1199.368     64.16656     172.4049        24     1.764     1.046 -21.23   0
       108    419.1056    778.0855 307.7409805  +6.3632255     31312.95     70301.48     84384.59     91.25198      182.504     364.1044      2.421     5.83     1206.138     64.16656     2922.027        96     2.399     1.542 -27.20   0
       109    536.8307    777.1011 307.6920758  +6.3675489     4214.144     9378.994     10208.01     91.25198     181.7806     364.1405      2.320     6.01     1203.266     64.16656     426.3119        49     2.135     1.353 -31.42   0
       110    453.6127    775.6638 307.7267182  +6.3653746     2645.093     6060.895     7798.586     90.67259     181.8531      363.851      2.634     7.00      1205.32     64.16656     279.9993        42     2.240     1.276 -25.86   0
       111    782.0178    773.5547 307.5902697  +6.3771567     7654.277     15709.86     17686.15     90.81779     181.9255     363.7423      2.179     5.51     1195.257     64.16656     787.6971        50     2.173     1.222 -27.94   0
       112    450.0145    769.0121 307.7284399  +6.3680034     1315.022     2997.816     3886.962     91.10748     181.7081     363.9596      2.432     8.23     1205.084     64.16656     155.6744        22     1.840     1.066 -28.47   0
       113    141.3026    765.9080 307.8568737  +6.3589967     6059.198      15012.4     22203.04     91.25198     182.6483     363.9596      3.304     9.27     1211.892     64.16656     728.6298       102     3.802     1.647  -2.55   2
       114    132.2252    763.0396 307.8607447  +6.3598789     1718.294     4031.901     5643.475     90.81779     181.8531     363.7785      2.831     7.64     1211.708     64.16656     160.3922        29     1.647     1.344 -38.49   3
       115    132.3699    756.9578 307.8608917  +6.3623967      1277.33      2910.79     3567.705     90.81779     181.9979      363.851      2.409     8.29     1211.375     64.16656        160.2        21     1.507     1.275 -83.66   3
       116    804.4417    767.5210 307.5811519  +6.3803936     756.1143     1448.358     2063.401     91.10748     182.0703      364.032      2.249     5.94     1194.107     64.16656     111.5375         7     1.020     0.974 -43.05   0
       117    927.5854    762.1215 307.5301410  +6.3867058      4629.46      8958.05     10355.65     90.81779     181.7806      363.851      2.133     5.69     1191.129     64.16656     530.7704        41     2.112     1.138 -31.09   0
       118    977.2300    761.6857 307.5095173  +6.3885297     1155.384      2143.47      3029.94     91.39625     181.7806     363.8872      2.452     6.13     1190.184     64.16656      150.271        12     1.300     0.812 -43.02   0
       119    683.2917    759.9429 307.6317725  +6.3795051     1050.346     2136.506      2758.94     91.10748     181.9979     364.1405      2.331     7.32     1197.814     64.16656     157.2971        16     1.645     1.025 -18.45   0
       120    568.7570    759.7754 307.6793916  +6.3757694     1079.969       2264.7     2413.666     90.81779     181.9255      363.851      2.266     7.33     1200.945     64.16656     148.8184        13     1.300     1.216  40.52   3
       121    571.8375    758.3906 307.6781580  +6.3764440     1029.771     1870.094     2602.091     90.38151     181.8531     363.7061      2.441     5.95      1200.69     64.16656     134.0846        13     1.183     0.983  -9.66   3
       122    951.1316    753.5720 307.5206412  +6.3910184     2076.962     3992.455     4381.505     90.96275     181.9979     363.9596      2.145     6.26     1190.259     64.16656     299.7386        27     2.006     0.982 -27.05   0
       123    921.5233    754.0320 307.5329347  +6.3898478     2151.796     4146.543     5371.175     91.10748     182.0703     363.9596      2.160     5.85     1190.753     64.16656     249.6655        28     1.910     0.975 -24.83   0
       124    982.3733    753.2504 307.5076640  +6.3921856     1380.655      2535.91     2606.894     90.81779     182.1426     363.9596      1.920     6.63     1189.636     64.16656      181.901        16     1.579     0.817 -35.66   0
       125    820.3980    751.5820 307.5750579  +6.3875090     805.0687     1304.178     635.6363     90.81779      181.563     363.7061      1.905     4.05     1192.905     64.16656     118.5095         7     0.961     0.746 -36.72   0
       126    674.6062    752.0853 307.6356494  +6.3824636      696.928     1534.534     1688.401     90.67259     181.7081     363.7785      2.105     4.68     1197.485     64.16656     105.5182         5     1.121     0.554  17.98   0
       127    246.5811    748.3313 307.8137093  +6.3697720     1198.785     2871.937     3910.823     90.81779     181.9255     363.9958      2.656     8.93     1210.152     64.16656     155.5554        23     1.888     1.180 -19.95   0
       128    939.8765    743.4103 307.5256637  +6.3948448     911.4292     1447.639     1591.994     90.81779     181.6356     363.8148      1.822     5.55     1189.859     64.16656     117.4912        11     1.313     0.662 -42.73   0
       129    966.0826    741.3930 307.5148371  +6.3965461     1774.419     3082.515     3392.543     90.81779     181.7081      363.851      1.956     5.84     1189.307     64.16656     255.9487        19     1.716     0.827 -21.83   0
       130    913.5773    742.4657 307.5366290  +6.3943640     773.9932     1478.898     1947.581     90.81779     182.0703     363.9234      2.719     5.98     1190.122     64.16656     100.1189         6     1.402     0.717 -28.79   0
       131   1007.9245    734.7163 307.4976675  +6.4006900     1430.787     2275.076     2127.327     91.39625     182.4317     364.1405      1.552     4.90     1188.312     64.16656     203.5465        14     1.309     0.779 -31.92   0
       132    895.2595    730.5493 307.5446471  +6.3986813     1049.505     2172.531     2837.972     91.25198     182.0703      364.032      2.417     7.19     1189.583     64.16656     151.8308        14     1.651     0.877 -28.24   0
       133    809.2082    732.6461 307.5803505  +6.3949627     718.9095     1414.704     1752.661     90.67259     181.9255     363.6336      2.000     4.31     1192.421     64.16656      95.6637         5     1.141     0.464  -6.32   0
       134    852.4738    722.0632 307.5627216  +6.4007701     881.4097     1926.835     1885.345     91.54029     182.0703     363.9958      2.184     7.23     1189.894     64.16656     144.2684        11     1.582     0.924 -48.15   0
       135     51.7554    721.2506 307.8956187  +6.3744585     1577.561     3793.669     4140.142     91.39625     181.9255     364.0682      2.446     7.41     1209.837     64.16656     180.4319        33     1.790     1.439 -22.26   0
       136    664.0432    709.4415 307.6414857  +6.3997340     3731.269      8143.35     9751.438     90.96275     182.0703     363.8872      2.342     5.94     1194.513     64.16656      376.119        45     2.072     1.292 -34.26   0
       137    611.0144    709.0894 307.6635433  +6.3981180       965.67     2008.693     2436.455     90.96275     181.8531      363.851      2.114     5.04     1195.738     64.16656     112.1071         8     1.032     0.696 -72.57   0
       138   1000.7302    704.6289 307.5016747  +6.4128847     1892.892     3644.628     3358.612     90.96275     182.0703     363.9596      2.068     6.94     1186.981     64.16656     240.6564        25     1.954     0.952 -24.81   0
       139    637.6132    705.2081 307.6526170  +6.4006054       1133.6     2652.973     3614.007     90.81779     181.8531     363.8872      2.734     8.47     1194.819     64.16656      136.807        20     1.694     1.182 -38.54   0
       140    127.3822    705.5639 307.8647158  +6.3834661     1997.354     4651.941     5399.539     90.67259     181.8531     363.7785      2.316     7.24     1208.723     64.16656     209.1881        32     1.830     1.270 -13.81   0
       141    780.9514    701.5849 307.5931490  +6.4068606     12423.13     26525.77     30631.59     90.52717     181.9979     363.7423      2.315     5.84     1191.122     64.16656      1277.87        72     2.272     1.392 -28.25   0
       142    910.9290    701.2308 307.5391239  +6.4113155      2529.47     5344.105     6205.604     91.10748     182.0703     363.9596      2.278     6.59     1187.544     64.16656     319.8827        37     2.110     1.125 -27.43   0
       143    480.3196    702.1708 307.7181112  +6.3966314     879.9234     1867.001     2529.565     91.10748     182.0703     363.9958      2.455     4.39     1200.324     64.16656     122.6992         8     1.182     0.725  -8.34   0
       144    254.6475    695.3841 307.8121576  +6.3919189     3428.939     8038.911     9476.004     90.67259     181.9979     363.7423      2.450     6.51      1206.32     64.16656     322.8765        49     2.115     1.455 -23.50   0
       145    661.4635    694.4006 307.6430679  +6.4058635     4123.989     9258.706     10632.38     90.38151     181.8531     363.7423      2.360     6.56     1193.455     64.16656     418.2976        45     2.178     1.252 -29.63   0
       146    920.8983    686.9401 307.5354623  +6.4175509     869.0667     1706.177      1574.89     90.96275     181.9979     364.1767      2.069     5.47     1186.498     64.16656     112.4004        10     1.318     0.641 -29.54   0
       147    733.2356    682.7574 307.6136239  +6.4130573     2308.174     5313.495     6890.698     90.96275     182.0703      363.851      2.733     7.23       1190.2     64.16656      290.734        46     2.370     1.372 -27.11   0
       148     18.9736    679.6450 307.9106645  +6.3905542     1288.485      2743.71     3263.649     90.67259     182.1426     363.9234      2.296     6.22      1209.65     64.16656     164.3547        19     1.435     1.123 -37.73   0
       149    999.3887    679.2748 307.5030888  +6.4233172     6421.587     12034.99     13168.51     90.81779     181.7081     363.8148      2.008     5.08     1185.734     64.16656     825.6875        40     1.957     1.060 -26.25   0
       150    937.8860    679.6315 307.5286467  +6.4211336      1666.56     3306.998     3369.815     91.25198     181.8531     363.9596      2.085     6.57     1185.892     64.16656     189.3583        22     1.661     0.989 -28.30   0
       151     77.0357    674.5975 307.8867001  +6.3945800     13819.48     33005.55     40044.71     90.23561     181.8531     363.8148      2.512     5.97     1208.476     64.16656      1496.39        80     2.309     1.632 -26.56   0
       152    537.9470    675.6008 307.6950556  +6.4095272     1104.208     2728.326     3657.256     90.52717     181.6356     363.5249      2.551     5.80     1196.452     64.16656      128.283        12     1.296     0.730  23.73   2
       153    506.3958    672.5780 307.7082751  +6.4097269     798.6207     1592.228     1700.334     90.81779     181.7806     363.7785      1.793     6.88     1197.156     64.16656      124.376        10     1.386     0.959 -24.89   0
       154    722.8970    666.4129 307.6184757  +6.4194680     2068.142     4682.438     5604.038     91.10748     181.7806     363.7423      2.546     6.85     1189.425     64.16656     214.4409        35     2.067     1.219 -34.58   0
       155    744.8466    664.8488 307.6094032  +6.4208428     2486.349       5252.2     6024.975     91.25198     181.9255     364.0682      2.329     6.08     1188.882     64.16656     268.6321        34     1.991     1.102 -29.20   0
       156    576.1650    662.5717 307.6796089  +6.4161816     1730.738     4309.548     4826.602     90.81779     181.7806     363.8148      2.558     7.54     1193.915     64.16656     183.4415        37     2.006     1.352 -34.57   0
       157   1017.6541    660.7874 307.4961192  +6.4315611     3589.371     6759.257     6728.984     90.52717     181.9979     357.7894      1.999     5.95     1184.179     64.16656     428.7913        32     1.999     0.992 -32.62  16
       158    413.8425    662.7689 307.7470857  +6.4107001     746.5096     1667.245     1740.129     90.67259     181.9979      363.851      2.384     4.33     1200.211     64.16656      92.1759         5     0.842     0.636  -2.65   2
       159    983.0918    659.6672 307.5105267  +6.4308801     5677.338     11317.25     12609.33     91.10748      182.215     364.0682      2.188     5.70     1184.354     64.16656     653.1157        49     2.243     1.113 -27.66   0
       160    238.6175    661.5854 307.8199716  +6.4053500     904.8271      1768.28     2329.822     90.96275     181.7081     363.9596      2.147     4.85     1204.513     64.16656     123.6746         9     1.049     0.637  83.00   0
       161    141.7969    653.5219 307.8604963  +6.4054511     12931.47      30810.5     37298.04     90.52717     181.4904     363.8148      2.534     5.99     1205.737     64.16656     1318.352        84     2.344     1.657 -27.29   0
       162    428.5519    654.0768 307.7412658  +6.4147814     1619.451     3837.877     4999.284     91.10748     182.1426     363.9958      2.564     7.04     1198.975     64.16656     180.5665        28     1.721     1.234 -18.12   0
       163    809.8547    653.4139 307.5827630  +6.4277243     909.1387     1590.689     1401.276     90.52717     181.9979     363.7423      1.907     5.43     1187.681     64.16656     98.90796        11     1.102     0.755  50.75   0
       164    977.9172    642.6439 307.5132533  +6.4377432     4685.474     10013.68     11853.36     91.25198     182.0703     363.9958      2.317     5.72     1183.025     64.16656     466.0781        51     2.093     1.328 -20.93   0
       165    571.6368    638.1093 307.6823213  +6.4261392     26455.72     61263.03     74459.76     91.39625     181.9979     364.0682      2.494     6.06     1192.202     64.16656     2334.124        94     2.374     1.613 -27.54   0
       166    179.1900    635.1693 307.8455763  +6.4142825     1331.315      3530.36     4399.918     90.67259     181.8531     363.8148      2.607     9.33     1204.422     64.16656     151.5867        30     1.872     1.299 -41.86   0
       167     70.9443    629.5948 307.8907664  +6.4129714     736.8819     1621.952      2216.29     90.52717     181.8531     363.7061      1.783     3.44     1205.957     64.16656     120.5862         5     1.309     0.262  54.54   0
       168    468.9705    621.9417 307.7255535  +6.4294052     32599.67     79196.88     97629.69     90.96275     182.1426     363.9234      2.538     6.20     1196.192     64.16656     3038.899       101     2.435     1.671 -28.59   0
       169     13.5729    623.6702 307.9148187  +6.4135022     1015.661     2377.635     2612.005     90.81779     181.9255     363.9596      2.496     6.54     1207.286     64.16656     154.1573        14     1.320     0.909 -10.71   0
       170    143.3865    617.2466 307.8610712  +6.4204931     737.7181     1742.796     1532.198     90.52717     181.8531     363.7785      2.158     6.28     1203.966     64.16656     106.8168         9     1.542     0.718 -70.85   0
       171    315.5415    611.4423 307.7896978  +6.4286341      941.475     2506.882      3550.53     91.10748     182.0703     364.1044      3.360     7.58     1198.868     64.16656     140.8025        10     1.637     0.983 -13.47   2
       172    741.0029    605.2719 307.6130188  +6.4453334     3104.559     6799.995     7903.005     90.67259     181.6356      363.851      2.389     6.39     1185.392     64.16656      320.993        44     2.172     1.285 -24.99   0
       173    794.4528    600.5341 307.5909563  +6.4490645     8340.504     17893.88     21643.42     91.25198     181.9979     363.9958      2.381     5.80     1184.712     64.16656     791.7745        62     2.258     1.355 -27.77   0
       174    536.0201    602.1465 307.6983493  +6.4398153     693.2595     1344.605     2763.227     90.67259     182.0703     363.8148      3.443     3.95     1191.502     64.16656     129.9613         6     1.102     0.658   0.49   0
       175   1011.4460    601.1310 307.5007152  +6.4560071     583.5795     987.3615     1260.695     91.25198     181.9979      364.032      1.752     5.95     1178.366     64.16656     111.6373         7     1.538     0.648 -20.54   0
       176    618.5606    598.8131 307.6641452  +6.4439364     1651.627     3591.739     4384.973     90.67259     181.8531     363.7785      2.377     6.54     1187.567     64.16656     200.2317        25     1.683     1.109 -38.90   0
       177    935.2995    594.3571 307.5326045  +6.4562852     863.0515     1502.473     2217.433     91.25198     181.9255     364.2852      2.371     5.44     1180.617     64.16656     114.3538         8     1.022     0.817  -5.46   0
       178    870.2740    583.7901 307.5599982  +6.4584973     1763.256     3733.871     3790.365     90.81779     181.6356     363.8872      2.211     7.41     1181.897     64.16656     183.1681        27     1.794     1.144 -33.44   0
       179    829.2787    581.0084 307.5771374  +6.4582878     1622.759      3295.87     4180.879     90.81779     181.4904      363.851      2.405     5.76     1182.874     64.16656     188.2039        22     1.528     1.046 -22.95   0
       180    809.7557    572.5086 307.5855423  +6.4611527     94081.62     204166.5     243822.4     91.25198     181.9979     364.1767      2.402     5.87     1182.995     64.16656     8806.164       158     2.672     1.554 -27.68   0
       181    257.5445    576.5346 307.8149974  +6.4411245     4064.226     9853.276     11408.31     91.39625     181.9979      364.032      2.517     6.57     1199.461     64.16656     383.6213        55     2.206     1.513 -26.92   0
       182    191.5795    570.9878 307.8426111  +6.4412158     29565.01     73661.51     93833.41     90.96275     181.7081     363.9234      2.665     6.41     1201.043     64.16656     2853.623       109     2.512     1.758 -28.09   0
       183    115.6480    567.3034 307.8743048  +6.4402033     3187.197     7815.764     9657.127     91.25198     181.9255     364.2129      2.607     6.44     1202.016     64.16656      322.641        53     2.126     1.613 -25.95   0
       184    981.1741    563.8627 307.5145610  +6.4704052     777.6935     1173.852     1350.996     90.81779     181.9979     363.9234      1.686     3.98      1176.45     64.16656     114.1808         6     0.754     0.602 -41.90   0
       185    364.9707    558.1484 307.7709595  +6.4523024     8270.465     21210.33     26262.46     90.96275      182.215     363.9234      2.640     6.39     1194.376     64.16656     777.0885        75     2.422     1.639 -27.07   0
       186    846.3832    559.6921 307.5707468  +6.4676631     2647.807      5815.75     6773.659     90.96275     181.8531     363.9234      2.330     6.77     1181.104     64.16656     266.1611        37     2.123     1.122 -24.95   0
       187    167.9700    556.2155 307.8529298  +6.4465318     891.1639     2497.935     3848.838     90.81779     181.7806     363.9596      3.112     8.39     1201.003     64.16656     95.66235        16     1.637     1.201  89.73   2
       188    531.2431    552.9880 307.7020038  +6.4599692     3173.458     7929.249     9881.128     90.67259     181.8531     363.7061      2.587     6.59     1188.131     64.16656      327.063        52     2.227     1.449 -33.61   0
       189    800.3328    553.0112 307.5901202  +6.4688968     3235.967     7123.316     8046.055     90.67259     181.9255      363.851      2.354     6.25     1182.315     64.16656     346.4393        43     2.085     1.271 -26.46   0
       190    390.0067    549.7503 307.7608359  +6.4566065     708.2261     1686.429     2265.152     90.67259     181.8531     363.5974      2.596     6.57     1192.315     64.16656     117.1407        10     1.523     0.796 -67.15   0
       191    178.4452    546.1926 307.8489161  +6.4510229     3353.265     8447.182     10502.89     90.67259     181.8531     363.6336      2.654     6.68     1200.077     64.16656      331.756        58     2.305     1.614 -28.70   0
       192    576.2935    546.2949 307.6835000  +6.4642329     1244.792     3105.955     3892.082     91.25198     182.7204     363.9596      2.740     8.87     1186.439     64.16656      125.095        23     1.815     1.211 -17.81   0
       193     50.0697    545.1808 307.9023228  +6.4471534     2723.674     6465.346     7400.368     90.81779     181.9255     363.9234      2.410     6.01     1203.154     64.16656      288.442        45     2.022     1.432 -27.16   0
       194    273.5958    542.6641 307.8094765  +6.4556552      41225.7     106936.2       135439     90.38151     181.7806     363.7785      2.687     6.35     1197.276     64.16656     3841.773       122     2.527     1.812 -27.74   0
       195    796.5956    534.8656 307.5922884  +6.4762709     9325.883     20621.83     24307.01     90.52717     181.7806     363.7423      2.385     5.90     1181.403     64.16656     892.8004        61     2.275     1.380 -29.46   0
       196    500.3480    533.3945 307.7155145  +6.4670378     20643.43     53481.18     68548.29     90.67259     181.7806     363.6336      2.721     6.31     1187.588     64.16656      1892.36       108     2.540     1.817 -22.22   0
       197    816.6773    545.1075 307.5835919  +6.4727048     910.7105     1655.184     1882.139     90.96275     182.3595     364.0682      1.870     4.49     1181.287     64.16656     126.5421         8     1.086     0.782  24.29   0
       198    972.9623    536.1692 307.5189113  +6.4815768     1086.638     2244.028     2329.562     90.81779     181.7806      363.851      2.033     6.49     1174.546     64.16656     153.4501        13     1.703     0.715 -20.40   0
       199    211.9756    531.7773 307.8354664  +6.4580982     684.8035     1995.456     2325.454     90.67259     181.9255     363.9958      2.767     6.61     1197.259     64.16656     122.0267         9     1.508     0.814  86.00   2
       200    660.3742    528.3124 307.6491503  +6.4744574     1582.788     3703.165     5050.568     91.39625     181.8531     363.8872      2.813     8.43     1183.207     64.16656     182.3864        29     2.015     1.222 -35.24   0
       201    669.7189    527.9556 307.6452769  +6.4749152     735.1658     1462.052      2708.84     91.25198     182.0703     363.9958      1.794     4.48     1182.939     64.16656     104.5907         7     1.269     0.449 -88.88   0
       202    722.5076    527.7784 307.6233338  +6.4767412     652.7067     1666.886     2133.609     91.25198     181.8531     363.8148      2.491     4.37     1182.478     64.16656     81.76575         5     1.177     0.462  31.60   0
       203    144.7249    521.0727 307.8637913  +6.4602767     12930.68     31750.24     39441.52     91.54029     182.3595     364.1044      2.625     6.21     1199.096     64.16656     1308.201        85     2.390     1.728 -25.76   0
       204    398.2775    523.0966 307.7583030  +6.4678954     846.7074     1684.855      2037.14     90.96275     182.2872     364.1044      2.224     6.45     1189.559     64.16656     125.2855        10     1.603     0.907  15.47   0
       205    329.4702    522.4032 307.7869350  +6.4658896     1833.077     4774.719     5645.407     90.67259     181.6356      363.851      2.626     7.56     1192.776     64.16656     203.7302        38     1.945     1.458 -28.74   0
       206    509.5959    521.7395 307.7120650  +6.4721615     1040.362     2744.017     3292.547     90.52717     181.9255     363.7423      2.613     8.55     1186.196     64.16656     123.8136        21     1.661     1.229 -59.35   0
       207    871.7816    521.0557 307.5614935  +6.4844703     849.6727     1835.279      2196.54     90.67259     181.9979     363.7785      2.398     7.75     1177.379     64.16656     120.9375        14     1.767     0.951 -30.35   0
       208    109.9904    519.4907 307.8782864  +6.4597704     1456.696     3523.231     4692.304     90.96275     181.7081     363.7423      2.657     7.70     1199.888     64.16656      160.882        29     1.571     1.476 -66.62   0
       209    969.9244    515.3383 307.5208784  +6.4900840     3277.006     6809.456     7854.548     91.54029     182.0703      364.032      2.170     5.88     1173.335     64.16656     355.3202        38     1.949     1.193 -32.89   0
       210      9.0444    505.5070 307.9207323  +6.4621750        13208     31879.62     39239.86     91.25198     181.9979     364.1767      2.577     6.06     1201.872     64.16656     1404.819        82     2.372     1.658 -27.33  16
       211    649.5597    501.7426 307.6545477  +6.4850772      6411.42     15382.06      18620.8     91.25198     182.1426     364.0682      2.545     6.46     1181.532     64.16656     580.5853        65     2.273     1.578 -28.27   0
       212    441.6324    502.1148 307.7409898  +6.4780089     20430.03     52174.78      65866.7     91.25198     181.8531     363.9596      2.666     6.46     1186.278     64.16656     2001.529        99     2.484     1.756 -28.94   0
       213    206.9032    499.8313 307.8386631  +6.4711291     9177.901     24038.63     31160.38     91.39625     181.8531     364.1405      2.743     6.36      1194.59     64.16656     862.7463        88     2.460     1.819 -19.58   0
       214    983.2830    500.1806 307.5158361  +6.4967898     908.9168      1624.32     1853.564     90.81779     181.7081     363.9596      2.228     6.15     1172.083     64.16656     143.7649        11     1.340     0.793 -23.22   0
       215    571.8746    498.4110 307.6869619  +6.4838722     1438.459     3371.697     4496.834     90.81779     181.6356      363.851      2.702     7.73     1182.716     64.16656     175.5424        29     1.789     1.356 -38.21   0
       216    945.3134    495.4370 307.5317847  +6.4974927     3001.627      6189.83     7406.066     91.25198     181.9979      364.032      2.281     6.21     1172.729     64.16656     291.3608        36     1.999     1.151 -32.19   0
       217    618.5386    494.0411 307.6677074  +6.4872289     3340.993     7976.613     9790.735     91.25198     182.0703     364.0682      2.558     6.47     1181.915     64.16656      357.053        50     2.177     1.455 -29.24   0
       218    967.6816    487.8471 307.5227402  +6.5013697     2130.222     4185.689      4664.54     91.25198     182.0703     364.0682      2.050     5.57     1171.722     64.16656     273.6417        29     1.844     1.045 -31.14   0
       219    530.7534    486.2417 307.7044730  +6.4875332         3215     6750.411      9402.15     91.10748     182.0703     363.9234      2.867     7.39     1182.227     64.16656     373.5813        34     2.453     0.962 -22.94   3
       220    530.9698    484.0000 307.7044591  +6.4884667     2653.233     5723.884     7943.542     90.38151     181.7806     363.7785      2.636     7.73     1182.047     64.16656     322.7228        27     2.365     0.867  -9.21   3
       221    377.0985    485.5948 307.7683836  +6.4826860     1293.092     3237.945     4189.207     90.96275     181.7081     363.6336      2.574     9.42     1187.203     64.16656     148.6456        26     1.777     1.394 -44.40   0
       222    886.8167    481.1917 307.5565902  +6.5014411     1957.287     4054.804     5422.707     90.81779     181.7806      363.851      2.710     7.35       1173.9     64.16656     214.9667        36     2.150     1.157 -31.52   0
       223    894.4391    475.4882 307.5536136  +6.5040506     1361.292     2952.908     3609.772     91.25198     181.9979     364.0682      2.475     7.71     1173.228     64.16656     170.2231        21     1.944     0.856 -27.79   1
       224    933.8856    474.1531 307.5372561  +6.5059091     647.8602     1627.159     1954.207     91.25198     181.9979      364.032      2.592     6.20     1171.586     64.16656     91.94043         7     1.181     0.916 -54.15   0
       225    718.4788    471.2840 307.6269231  +6.4999518       1750.5     3653.755     4728.874     91.39625     182.4317     364.1767      2.491     7.48     1178.013     64.16656     179.7468        32     1.883     1.288 -42.80   0
       226     80.4237    470.9853 307.8922327  +6.4788249     998.8568     2115.393      2379.78     90.96275     181.8531     363.9596      2.176     7.07     1198.484     64.16656     142.9814        13     1.755     0.797 -57.40   0
       227    389.0465    469.9319 307.7639482  +6.4895560     1762.887     4362.641     5843.971     91.25198     181.9979      364.032      2.685     8.28     1185.329     64.16656     207.1853        37     2.089     1.435 -18.81   0
       228    617.0408    466.4236 307.6692669  +6.4985910     5079.958     12628.61     15948.21     90.81779     181.8531     363.7785      2.654     6.67     1179.792     64.16656     492.8142        65     2.390     1.558 -27.40   0
       229    779.9172    462.5884 307.6016706  +6.5055838     9095.319     20858.85     25770.65     90.81779     181.7806      363.851      2.507     6.11     1177.031     64.16656      833.175        78     2.521     1.499 -34.21   0
       230    299.7801    463.7794 307.8012737  +6.4891236     1224.252     3190.753     4269.954     90.96275     181.9979     363.9596      2.729     8.73     1187.002     64.16656     146.1812        25     1.948     1.093 -14.28   2
       231    808.4781    460.0821 307.5898792  +6.5075669     816.9836     1608.404     1674.352     91.39625     182.3595     364.1767      1.950     6.29     1176.369     64.16656     106.5797        11     1.679     0.663 -75.80   0
       232    383.4614    459.6582 307.7666197  +6.4936151     845.3436      2215.63     2355.982     91.39625     181.9979     364.0682      2.653     8.79     1184.651     64.16656     112.4806        12     1.951     1.105 -52.24   0
       233    964.4254    457.8691 307.5251074  +6.5136494      1135.86     2354.288     2441.259     90.81779     181.9255     363.9596      2.070     7.41     1169.558     64.16656      123.985        20     1.865     0.825 -41.21   0
       234    117.2730    455.1044 307.8774530  +6.4866178     2046.906     5316.479     7052.244     91.10748      182.215      364.032      2.819     7.20     1196.184     64.16656     200.7529        46     2.029     1.608 -35.93   0
       235   1018.9512    452.5132 307.5026150  +6.5176676       2580.6     6152.334      6742.11     91.25198     181.9979     345.9952      2.424     6.62     1167.642     64.16656     298.3138        43     2.051     1.383 -19.64  16
       236    755.6162    454.1710 307.6120605  +6.5082557     1226.669     2628.953     2852.704     90.81779     181.7806     363.9596      2.272     7.43     1176.535     64.16656     155.0602        19     1.512     1.022 -21.46   0
       237    353.3723    449.8031 307.7794658  +6.4966849     1498.115     4063.519     5169.778     90.67259     181.7806     363.8148      2.676     9.45     1184.862     64.16656     165.8929        31     1.926     1.294 -38.06   0
       238    276.6151    451.0935 307.8113372  +6.4935930     706.7175      1673.13     2679.594     90.96275     181.8531      363.851      3.100     6.71     1186.958     64.16656     92.34033         8     1.457     0.867 -29.74   0
       239    708.1915    448.1232 307.6319855  +6.5091806     768.9858     1714.678     2236.088     90.81779     181.4904      363.851      2.516     7.42     1176.318     64.16656      123.252        12     1.615     0.954 -21.72   0
       240    241.9999    446.3150 307.8258926  +6.4944130     597.0988     1180.901     1068.493     90.38151     181.4904     363.6336      2.514     4.39     1188.943     64.16656     120.2485         5     0.985     0.564 -72.30   0
       241    472.1231    439.3386 307.7304443  +6.5049634     793.7996     1897.558      1580.51     91.54029     182.1426      364.032      2.469     5.96     1179.586     64.16656     100.8379         8     1.347     0.741 -32.29   0
       242    835.4825    437.7910 307.5794047  +6.5176734      702.451     1275.246     1862.328     90.81779     181.6356      363.851      1.908     3.12     1173.692     64.16656     122.0187         5     0.736     0.459 -70.01   0
       243    718.2748    434.5007 307.6282542  +6.5151444     7963.314     18411.67     22762.17     90.67259      182.215     363.9234      2.481     6.07     1175.288     64.16656     767.7284        74     2.354     1.575 -27.46   0
       244    820.6987    436.1988 307.5856061  +6.5178411     972.8199     2315.536     2615.007     90.67259     181.6356     363.7061      2.267     7.63     1174.224     64.16656      134.839        13     1.483     1.098 -58.25   0
       245    638.9932    430.5466 307.6613554  +6.5141453     1331.253     3396.112     4199.344     90.67259     181.8531     363.7061      2.571     9.03     1176.133     64.16656     147.1404        27     1.793     1.271 -10.29   0
       246    611.7115    425.7079 307.6728639  +6.5152381     7474.365     20289.91     29602.38     91.25198     182.5761     364.1405      3.124     7.09     1176.545     64.16656     740.6102       112     2.810     2.108   8.95   0
       247    943.4391    424.3760 307.5349665  +6.5267944     2408.022     4994.541     5706.893     90.81779     181.7806     363.7785      2.249     5.58     1167.503     64.16656     265.4406        36     1.890     1.243 -29.39   0
       248    382.7182    420.5294 307.7682590  +6.5097586     13444.75     35003.86     43966.29     91.54029     182.4317     364.0682      2.683     6.61     1181.176     64.16656     1346.496        87     2.473     1.745 -27.05   0
       249    128.6237    420.3109 307.8739194  +6.5013735     1265.052     3246.286      4069.36     91.25198     181.8531     363.8872      2.663     8.76     1193.648     64.16656     137.6628        30     1.794     1.395  -4.08   0
       250    898.9511    419.7791 307.5536218  +6.5272201     948.5065     2053.237     2685.943     90.67259     182.1426     363.8872      2.435     6.48     1169.326     64.16656      133.908        12     1.314     0.896 -76.07   0
       251    912.4083    414.7714 307.5481951  +6.5297353     2937.502      6288.94     6587.805     90.81779     181.8531     363.8148      2.249     6.43     1168.231     64.16656     308.9087        42     2.110     1.252 -23.70   0
       252     63.0048    416.0895 307.9013471  +6.5009255       698.23      1645.64     2021.805     90.67259     181.7081     363.7061      2.278     5.17     1196.274     64.16656     109.4995         9     1.322     0.571 -78.34   0
       253    240.2242    411.1964 307.8278265  +6.5088647     6312.241     16895.54     21096.93     90.81779     181.7081      363.851      2.676     6.53     1186.923     64.16656     648.8638        74     2.393     1.713 -28.83   0
       254    963.9158    403.0406 307.5271727  +6.5362887     681.7703      1233.44     1046.967     91.25198     181.9979     363.9596      1.859     5.64     1165.256     64.16656     92.13989         6     1.318     0.680 -65.52   0
       255    140.7307    399.7230 307.8695870  +6.5102847     2340.478     6166.836     7208.287     91.39625      182.215     363.9958      2.590     7.36      1192.12     64.16656     281.7537        48     2.244     1.489 -33.89   0
       256    162.8938    396.0255 307.8604975  +6.5125525     1233.201     3216.309      3843.73     91.39625     181.7806      363.851      2.626     8.76     1190.745     64.16656     181.0144        28     1.847     1.397 -34.89   0
       257     36.2513    385.0271 307.9135305  +6.5128660     1660.132     4086.155      4972.38     90.81779      182.215     363.9596      2.563     6.82     1196.123     64.16656     186.6781        32     1.762     1.444 -54.03   0
       258    439.8660    383.8652 307.7457420  +6.5268116     3494.622     9050.765     11498.42     91.25198     182.0703     364.0682      2.748     6.82     1175.942     64.16656     395.0479        60     2.273     1.678 -32.24   0
       259    779.6108    381.2412 307.6045528  +6.5391876      6455.32     16131.79      21494.5     90.52717     181.8531     363.7423      2.796     7.20     1170.459     64.16656     645.1213        87     3.149     1.567 -18.32   0
       260   1022.8433    376.6344 307.5035600  +6.5491510     1815.092       2798.7     2757.373     89.05985     158.1364     289.0203      1.655     4.56     1161.352     64.16656     243.5867        19     1.407     0.923 -60.31  24
       261    488.3790    367.4904 307.7261251  +6.5351925     1522.601     3506.449     3976.215     91.10748     181.8531      363.851      2.451     7.31     1172.063     64.16656     160.1221        30     1.742     1.346  -6.83   0
       262    460.6979    368.3370 307.7376071  +6.5339215     1152.024     2643.198     3244.745     91.10748      182.215     364.0682      2.632     7.44      1173.37     64.16656      140.274        17     1.440     1.200  40.57   2
       263    845.7330    363.9785 307.5776403  +6.5485139     18683.88     42950.45     52753.87     90.81779     182.0703     363.9958      2.479     5.85      1167.36     64.16656     1761.542        87     2.361     1.577 -31.94   0
       264    702.2047    350.0724 307.6377981  +6.5494977     40623.57     98522.86     122181.9     90.81779      181.563     363.9234      2.557     6.14      1167.81     64.16656     4053.105       114     2.472     1.699 -28.62   0
       265     81.2415    351.6051 307.8959634  +6.5281795     625.6405     1160.727     1375.408     90.52717     181.7081     363.7061      1.989     3.79     1193.288     64.16656     88.57324         5     0.993     0.415  83.23   0
       266    617.4850    356.4665 307.6728119  +6.5440413      1357.75     3135.484     4255.933     91.39625     182.3595     364.1044      2.702     8.41     1170.102     64.16656     152.8916        24     1.928     1.077 -56.37   0
       267    564.9077    346.9961 307.6949973  +6.5462067     1412.506     3362.445     4034.625     90.81779     181.7081     363.7785      2.545     8.70     1169.744     64.16656     150.3583        29     1.828     1.392 -31.13   0
       268    102.2263    345.8701 307.8874331  +6.5312503     2982.631     7673.944     9143.314     90.81779     181.9255     363.9596      2.615     6.91     1192.094     64.16656      322.928        49     2.169     1.508 -28.01   0
       269    548.0490    343.1991 307.7021368  +6.5472150     3414.853     8924.414     10865.23     90.52717     181.6356     363.5249      2.637     6.86     1169.386     64.16656     346.7458        58     2.231     1.628 -31.51   0
       270    410.9084    338.2527 307.7593338  +6.5446946     11712.82     31567.99     40555.91     91.10748     181.8531     364.2129      2.735     6.61       1173.7     64.16656     1184.384        90     2.474     1.793 -28.28   0
       271    277.0902    340.9013 307.8148900  +6.5391404      1206.93     3198.417     3818.748     91.25198     182.5761     363.9958      2.598     8.79     1180.469     64.16656     148.9148        25     1.678     1.287 -28.33   0
       272    499.9604    328.6818 307.7226272  +6.5516139     4155.847      10594.8     13716.05     91.25198     182.1426     363.9596      2.782     6.89     1168.268     64.16656     425.5161        67     2.418     1.650 -27.05   0
       273    768.3267    328.5531 307.6110299  +6.5605847     1295.943     2682.325     3925.681     91.10748     182.1426      364.032      2.350     5.33     1166.069     64.16656     197.3665        14     1.529     0.732  -2.62   3
       274    769.4725    326.2631 307.6106310  +6.5615690     1343.063     3056.432     4049.102     91.25198     182.0703     364.1044      2.391     7.67     1165.841     64.16656      163.666        17     1.677     0.981  -4.91   3
       275    389.8665    312.8611 307.7689471  +6.5544856     3381.537     9215.166     11709.56     91.25198     181.9979      364.032      2.767     7.34     1172.739     64.16656     348.0713        59     2.337     1.618 -25.91   0
       276    246.2609    313.7223 307.8286351  +6.5493424     997.1113     2725.213       3729.1     91.39625     182.1426     363.9958      2.985     9.72     1180.651     64.16656     142.5073        21     1.802     1.463 -20.52   0
       277    757.6601    308.5716 307.6161427  +6.5684873     28588.07     67722.25     82794.72     90.81779     182.1426     363.9234      2.533     6.16     1164.666     64.16656     2802.473       100     2.430     1.633 -28.19   0
       278    429.1933    308.3182 307.7527476  +6.5576726     1029.695     2749.372     3179.937     90.81779      181.563      363.851      2.609     9.77     1169.705     64.16656     130.9056        23     1.653     1.609  -9.69   0
       279    992.4664    305.7533 307.5185882  +6.5774350     973.7238     1808.497      1888.84     91.25198     181.9979     364.0682      2.005     6.14     1157.627     64.16656     132.6313        13     1.357     0.780 -58.01   0
       280    933.0883    304.5615 307.5433225  +6.5759610     1345.387     2734.986     3211.753     91.25198     181.9979     364.0682      2.230     7.43     1158.698     64.16656     153.1823        21     1.538     1.101 -37.58   0
       281    415.4690    304.3911 307.7585883  +6.5588383     1008.983       2578.4     3014.825     90.67259     181.7806     363.8872      2.614     9.08      1170.16     64.16656     159.8826        20     1.785     1.288 -24.99   0
       282    756.1035    293.1294 307.6173133  +6.5748166     3258.635     7573.816     9449.069     91.10748      182.215      364.032      2.557     6.20     1163.504     64.16656     391.7355        50     2.181     1.464 -32.18   0
       283    193.1932    295.5717 307.8513208  +6.5550712     974.3943     2394.488     2620.535     90.67259     181.8531     363.8148      2.467     7.45     1183.416     64.16656     117.9054        14     1.671     0.930 -41.70   0
       284    772.7189    290.7349 307.6104844  +6.5763574     1473.112      3550.28     4501.226     91.54029      182.215      364.032      2.706     8.32     1163.232     64.16656     156.5879        25     1.850     1.106 -22.97   0
       285     75.2787    287.8253 307.9006179  +6.5543335     542.5748     1081.233     1363.347     90.96275     181.9255     363.9958      2.240     3.71     1190.833     64.16656     104.9193         5     1.052     0.376   2.90   0
       286    362.2024    285.4477 307.7813835  +6.5648912     843.4401     2430.338      2807.71     90.52717     181.7081     363.5612      2.675     6.90     1172.896     64.16656     112.7767        11     1.504     0.888 -63.75   2
       287   1010.6274    281.9048 307.5118413  +6.5878908     3910.718      7462.74      7789.73     91.39625     181.7806     363.9234      2.066     5.40     1155.517     64.16656     451.9318        39     2.086     1.084 -29.83  16
       288    489.9706    282.5159 307.7283496  +6.5703575     927.8512     2162.216     2903.626     91.25198     181.7806     363.9234      2.757     8.19     1164.087     64.16656     126.0109        14     1.455     1.384  39.13   0
       289    251.4878    277.8439 307.8276831  +6.5643416     2717.083     7151.117     8996.971     91.25198     181.9255     364.0682      2.765     7.07     1179.059     64.16656      343.088        55     2.258     1.679 -31.73   0
       290    385.6924    266.6492 307.7722543  +6.5734415     603.3665     1420.128     2381.584     91.10748     181.9255     364.2129      2.550     5.09     1169.625     64.16656     100.3342         5     1.243     0.590  20.40   2
       291    972.4388    267.1854 307.5282211  +6.5927088     711.6446     1222.457     987.4257     90.96275     181.8531     363.7423      1.707     3.70     1155.293     64.16656     118.8795         6     1.358     0.289 -72.31   0
       292    155.6854    264.8815 307.8679639  +6.5664999     844.9957     1784.135     2319.816     90.96275     182.4317     364.1044      2.473     5.58     1185.011     64.16656     119.0028         7     1.370     0.642 -47.08   0
       293    565.2119    259.8392 307.6978292  +6.5822307     963.3225     2418.407     2920.145     90.67259     181.8531     363.7423      2.625     8.58     1160.925     64.16656     132.4498        17     1.804     1.140 -51.82   0
       294    908.2692    259.0543 307.5551837  +6.5939430     1082.859     2385.519     2539.018     91.10748     181.9979     363.9234      2.282     8.32      1157.64     64.16656     136.0416        18     2.124     0.910  -9.84   0
       295    728.5920    257.4190 307.6299647  +6.5886593     2617.406     6268.582     7252.521     90.81779     181.7081      363.851      2.471     6.91     1161.513     64.16656     310.7155        47     2.193     1.416 -33.34   0
       296    669.3152    257.7787 307.6546047  +6.5865422     1214.589     2520.951     3513.857     90.96275     181.7081     363.9596      2.569     6.63     1161.146     64.16656     132.0715        19     1.347     1.053  10.51   0
       297    228.1848    244.0513 307.8385245  +6.5775271     1135.223     2661.404     3391.615     90.52717     182.1426     363.7061      2.751     7.31      1179.65     64.16656     161.0959        15     1.830     0.817 -46.72   2
       298    869.3265    242.3652 307.5719445  +6.5995485     828.8463     2145.566     2663.978     91.10748     182.0703     363.9958      2.417     4.58     1157.804     64.16656     128.7097         7     0.973     0.612  68.62   2
       299    761.1073    241.6755 307.6169755  +6.5962440      820.679     2071.965     2031.353     91.10748      182.215      364.032      2.449     7.10     1160.274     64.16656     133.4308        10     1.650     0.855  -6.70   0
       300    462.1521    232.5475 307.7416162  +6.5900787     10890.97     28263.37     37092.18     91.39625     181.9979      364.032      2.781     6.58     1161.197     64.16656     1166.637        91     2.578     1.749 -29.80   0
       301    150.6482    226.5525 307.8713650  +6.5821690     1287.852     3088.257     3785.293     91.25198     181.9255     364.0682      2.544     7.76     1183.926     64.16656     146.9064        23     1.529     1.299 -36.13   0
       302    787.9829    231.5988 307.6061395  +6.6012996     7342.611     17170.55     21729.23     90.81779      181.563     363.6699      2.563     6.18     1159.067     64.16656     815.1844        65     2.320     1.505 -26.16   0
       303    924.3135    221.6200 307.5497773  +6.6099430     943.0975     2074.995     2190.301     90.96275     181.7806     363.9234      2.222     6.94     1155.491     64.16656     117.6002        12     1.320     1.022  -5.01   0
       304    586.3630    218.2103 307.6904458  +6.6001354     2000.271     5345.779     6502.135     90.67259     181.8531     363.6699      2.637     7.67     1158.347     64.16656     241.7772        45     2.167     1.582 -22.85   0
       305    548.8424    218.5698 307.7060380  +6.5987391      1203.91      2600.62      3201.31     90.81779     181.9979      363.851      2.317     7.12     1158.298     64.16656      151.047        16     1.353     1.051  20.36   0
       306    892.9564    214.7421 307.5630516  +6.6117460     6433.828     14015.53      16541.2     91.10748     181.9979     364.1044      2.355     5.78     1155.033     64.16656     652.2351        56     2.159     1.391 -28.13   0
       307    946.9951    215.1255 307.5405636  +6.6133780     1573.068      3496.46     3830.436     90.81779     181.4904     363.9234      2.256     7.17     1153.464     64.16656     184.1058        27     1.831     1.168 -12.02   0
       308    392.1489    215.7181 307.7713012  +6.5947014     522.7921     1168.607     1559.088     91.25198     182.0703     364.0682      1.705     4.59     1165.715     64.16656      84.5647         5     1.358     0.441  60.32   0
       309    979.6985    212.5571 307.5270487  +6.6155224     6038.098      12841.1      14188.1     91.25198     181.9255     364.2852      2.277     5.86     1151.091     64.16656     600.8292        52     2.115     1.318 -30.44   0
       310    691.0806    212.8697 307.6470756  +6.6058219     1431.404     3513.758     4364.892     91.54029     182.4317     364.0682      2.705     9.00     1158.429     64.16656     156.0236        33     2.118     1.358 -30.16   0
       311     19.3692    211.7152 307.9264643  +6.5839122     12740.91      32131.3     40503.72     91.25198     181.8531     363.8872      2.668     6.26     1193.979     64.16656     1395.612        87     2.438     1.732 -30.55   0
       312    499.3563    208.2166 307.7269703  +6.6013707     879.6466     1998.629     2722.551     90.67259     181.9255     363.7785      2.564     4.77     1157.917     64.16656     122.5997         9     1.047     0.617  35.97   2
       313    831.5459    204.9196 307.5889251  +6.6137688     1182.228     2454.475     2819.741     91.25198     182.0703     364.1044      2.253     8.15     1155.543     64.16656     148.9792        20     2.008     0.924 -14.23   0
       314    884.0980    203.2323 307.5671254  +6.6162084      1225.35     2838.943     3273.041     91.25198     181.9255     364.1767      2.451     7.93     1153.977     64.16656     144.7095        20     1.855     0.947 -37.97   0
       315    743.2056    200.7677 307.6258070  +6.6125534     20669.21     49675.73     60786.75     90.52717     181.8531     363.7785      2.532     6.03     1157.667     64.16656     2086.248        92     2.408     1.642 -27.56   0
       316    511.6759    203.4084 307.7220100  +6.6037674      1350.66     3262.326     3858.828     90.81779     181.4904     363.7785      2.766     9.79     1157.611     64.16656     140.7506        28     1.964     1.362 -30.26   0
       317    346.3986    200.5425 307.7908440  +6.5994473     3308.089     8826.244     12659.68     90.52717     181.7081     363.7061      3.075     7.31      1168.86     64.16656     360.2919        70     2.462     1.814 -63.58   0
       318    976.9465    199.3424 307.5286401  +6.6208918     1753.186     3489.375     3889.698     91.39625     182.0703      364.032      2.044     6.67     1150.538     64.16656     196.2632        24     1.934     0.879 -33.82   0
       319    911.0131    197.9208 307.5561108  +6.6192952     4359.832     9493.615     11355.97     90.81779     181.7806     363.7785      2.330     5.88      1153.13     64.16656      462.767        50     2.229     1.291 -28.60   0
       320    454.7802    197.0564 307.7458882  +6.6044983     2164.122     6042.318     7421.465     90.67259     182.0703     363.8148      2.642     9.30     1159.478     64.16656     253.7793        47     2.324     1.503 -33.42   0
       321   1015.4587    197.5079 307.5126843  +6.6229249     1170.045     2469.484     2452.413     91.10748     181.9979     364.1767      2.177     6.81     1148.588     64.16656     151.9502        15     1.374     0.969 -38.01  16
       322    112.3763    188.5546 307.8885764  +6.5965909     2324.598     5994.521      7716.97     90.67259     182.0703     363.8872      2.707     6.76     1185.694     64.16656     288.1615        48     2.078     1.685 -29.54   0
       323    282.4001    185.1910 307.8179822  +6.6036567     15458.64     41450.91     52762.43     90.52717     181.7081     363.7423      2.749     6.59     1176.995     64.16656      1627.36        96     2.516     1.803 -28.91   0
       324    257.9278    186.1182 307.8281283  +6.6024572     3056.017     7981.601     10056.33     91.54029     182.4317     364.0682      2.614     7.07     1178.145     64.16656     358.3047        54     2.309     1.539 -24.53   0
       325    406.4692    180.5977 307.7665398  +6.6096902     22899.35     60764.29     77603.13     90.52717     181.6356     363.8148      2.737     6.53     1161.774     64.16656     2451.931       102     2.534     1.804 -28.52   0
       326    162.8232    182.1890 307.8678139  +6.6009062     2036.328     4924.691     6160.811     90.81779     181.8531     363.8872      2.602     7.34     1182.723     64.16656     230.2955        39     2.046     1.384 -31.62   0
       327    311.0253    178.3746 307.8063095  +6.6074278     8498.761     22270.46     31107.24     90.67259     181.8531     363.8872      3.008     6.98     1173.447     64.16656     895.7555       111     3.034     1.866 -13.42   0
       328    745.6355    176.6720 307.6256130  +6.6225906     17716.19     41766.23     51061.31     91.10748     182.0703      364.032      2.544     5.99     1155.612     64.16656     1796.532        86     2.384     1.630 -29.05   0
       329     62.8568    174.2353 307.9096584  +6.6008525     4644.151     11455.97     14377.72     91.10748     182.0703     364.0682      2.666     6.22     1188.871     64.16656      509.407        64     2.258     1.679 -29.76   0
       330     96.3755    173.2380 307.8957530  +6.6023849     777.8011     1584.505     2663.621     90.81779     181.8531     363.8148      2.583     5.66     1185.641     64.16656     115.3795         7     1.377     0.735 -23.16   0
       331   1003.8623    171.7278 307.5183789  +6.6331937     794.8855     1430.765     1685.457     91.39625     182.0703     364.1044      2.294     5.77     1148.523     64.16656     109.0238         8     1.086     0.863 -56.10   0
       332   1005.1804    157.0852 307.5183257  +6.6392879     1458.353     3241.859     4732.753     90.81779     181.7806     363.9596      2.666     7.73     1147.811     64.16656      162.517        22     1.936     0.864 -27.74   0
       333    281.3080    151.4798 307.8195841  +6.6175496     14356.02     37669.59     48600.02     90.96275     182.3595     364.1044      2.757     6.60     1177.119     64.16656     1630.258        94     2.539     1.779 -29.40   0
       334    597.3922    152.7191 307.6880816  +6.6275634     954.1582     2182.429      3218.06     90.81779     181.6356      363.851      2.992     8.59     1154.575     64.16656     136.1609        16     1.712     1.203 -15.27   0
       335     26.6593    150.1939 307.9255323  +6.6095758     2179.417     5650.721     7209.386     90.52717     181.9255     363.7785      2.789     7.79      1191.71     64.16656     258.2484        48     2.246     1.603 -28.22   0
       336    712.8690    147.8895 307.6402167  +6.6333959     4370.602     10142.74     12666.53     91.39625     182.2872      364.032      2.505     5.97     1154.134     64.16656     484.8445        55     2.218     1.479 -30.28   0
       337    123.9520    145.3070 307.8852370  +6.6148471     2393.885     6130.923     7828.901     91.10748     181.9255     364.1767      2.713     7.31     1183.594     64.16656     291.8336        50     2.303     1.539 -20.40   0
       338    394.6572    141.3294 307.7727877  +6.6255223     2061.647     5368.258     6950.917     91.39625     182.0703     363.9958      2.776     7.31     1160.901     64.16656      214.835        50     2.083     1.742 -19.28   0
       339    358.6630    140.0754 307.7878005  +6.6248410     1505.221     4063.732     5013.193     91.54029     182.0703     363.9958      2.847     7.44       1165.5     64.16656     201.6748        34     1.789     1.585 -63.33   0
       340    113.6565    140.3531 307.8896877  +6.6165500     923.6362     2281.995     2971.674     91.25198     182.0703     364.1405      2.652     8.49     1183.849     64.16656     128.6826        17     1.618     1.246 -72.10   0
       341   1005.4411    134.0446 307.5189961  +6.6488172     1054.043     2111.843     2445.225     90.96275     182.0703      363.851      2.366     7.67     1145.258     64.16656     132.3031        18     1.596     1.033 -19.10   0
       342    210.9487    129.0917 307.8496087  +6.6244525     2526.314     6510.507     8295.525     91.10748     181.9255     364.2491      2.685     7.51     1180.156     64.16656     270.9655        54     2.358     1.532 -27.68   0
       343     93.8623    129.1926 307.8983004  +6.6205000     1148.433     2897.583     3549.763     90.52717     181.8531     363.8148      2.677     9.20     1184.589     64.16656      131.845        26     1.924     1.228 -21.15   0
       344    672.5162    127.6664 307.6576861  +6.6404120     3187.382     7745.295     9386.183     91.39625     182.3595     364.1044      2.566     6.64     1153.254     64.16656     311.3823        55     2.248     1.554 -27.76   0
       345    624.6794    125.2721 307.6776638  +6.6398117     4809.903     11333.09     14306.08     91.54029     182.3595      364.032      2.582     6.32     1153.064     64.16656     510.5393        57     2.240     1.534 -20.36   3
       346    628.1591    116.4952 307.6765143  +6.6435540     27463.36     66655.05     85165.23     91.25198     181.9979     364.1767      2.653     6.09     1152.517     64.16656     2962.294       108     2.516     1.801 -34.28   3
       347    820.5294    127.3074 307.5961353  +6.6454737     700.0063      1276.39     1789.757     91.25198      182.215     364.0682      1.837     4.04     1150.316     64.16656     114.0962         6     1.110     0.421  34.02   0
       348    351.7892    121.0546 307.7913065  +6.6324713     1961.823     5122.436     6804.639     90.52717     181.9979     363.6699      2.846     7.89     1165.894     64.16656     214.6511        48     2.298     1.551 -26.07   0
       349    533.6517    119.7831 307.7157105  +6.6390528     751.0668     1943.399     1976.815     90.67259     182.1426     363.7423      2.498     8.54     1153.897     64.16656     117.0753        11     1.724     1.182 -61.21   0
       350    307.2923    110.5578 307.8101703  +6.6353250     1834.998     4511.218     6006.303     91.25198     182.0703     364.1405      2.818     8.39      1173.77     64.16656     240.0558        39     2.339     1.324 -27.25   0
       351      5.1053     93.4287 307.9364340  +6.6323094     727902.9      2036081      2536498     91.39625     181.7806     334.5731      2.746     8.04     1192.073     64.16656     61458.59       330     2.584     1.954 -36.04  28
       352    434.3313     91.6594 307.7579757  +6.6473675     2054.584     5048.534         6086     91.39625     181.9979      364.032      2.669     6.83     1156.274     64.16656     222.4352        38     1.980     1.380 -29.28   0
       353    888.9072     88.0276 307.5690242  +6.6639717     1129.125     2646.131     2549.467     91.39625     181.7806     363.8872      2.390     8.74     1144.158     64.16656     127.9905        19     1.827     1.167 -22.71   0
       354    906.9411     86.6873 307.5615684  +6.6651232     2306.423     4951.437     5805.724     91.25198     182.1426     364.1406      2.313     5.99     1143.802     64.16656     284.8212        37     1.884     1.258 -28.25   0
       355    598.7869     85.9659 307.6897673  +6.6551924     783.7419     1702.809      1639.98     90.67259     181.7806     363.9234      2.344     4.61     1151.526     64.16656     115.9789         8     1.454     0.415 -23.17   0
       356    398.2161     84.1162 307.7732534  +6.6492813     856.7897     2183.018     3173.554     90.81779     181.7081     363.9234      3.081     6.01     1159.432     64.16656     142.2426        12     1.668     0.609 -35.32   2
       357    145.8056     80.4354 307.8783601  +6.6423815     1574.101     3967.933     5136.582     90.38151     181.7806     363.7785      2.716     8.41      1181.15     64.16656     180.3582        33     1.936     1.460 -18.55   0
       358     27.5868     78.3452 307.9275989  +6.6392936     6409.962     15850.44     20600.36     90.52717     181.9979     363.7423      2.746     6.41     1188.474     64.16656     733.2146        72     2.447     1.603 -31.84   0
       359    294.2604     79.2724 307.8166555  +6.6478173     687.3806     1553.495      2372.51     91.39625     182.0703     364.0682      3.110     6.64     1176.187     64.16656     95.24634         8     1.432     0.864 -45.65   0
       360    692.5072    100.4868 307.6502930  +6.6523068     1722.423     3990.851     4506.361     91.25198     182.5761     364.1405      2.440     7.87     1150.941     64.16656     201.7616        32     1.980     1.294 -18.27   0
       361    829.1893     72.5998 307.5943862  +6.6683665     3673.305     7951.601     9455.096     90.81779     181.7081     363.8148      2.351     6.18     1145.995     64.16656     377.6105        46     2.151     1.307 -28.61   0
       362    774.1736     72.9458 307.6172582  +6.6663983     1805.699      3917.63     5236.384     90.81779      182.215      363.851      2.378     8.67     1148.314     64.16656     205.4503        30     2.078     1.251 -37.73   0
       363     68.0920     70.2029 307.9110306  +6.6440123     1537.704      3980.26      4702.01     90.67259     181.7081     363.7423      2.562     7.76     1184.897     64.16656     222.7587        31     1.793     1.501 -50.05   0
       364    536.9706     70.9674 307.7159881  +6.6593339     621.0475     1397.735     1805.441     90.67259     181.7806     363.7061      1.934     3.70     1152.304     64.16656     86.87585         5     1.021     0.386  57.69   0
       365    590.8936     67.7593 307.6936684  +6.6624531     548.4957     1313.392     1860.315     91.39625     181.9979     364.1405      2.659     4.54     1151.193     64.16656     110.9037         5     1.355     0.431 -29.66   0
       366     10.4773     65.8074 307.9351428  +6.6439017     1312.836     3122.659     4526.251     90.81779     181.4904     363.8148      3.003     8.48     1188.457     64.16656      178.558        23     2.034     0.988 -34.42  16
       367    768.7576     60.7549 307.6199241  +6.6712559     1127.115     2303.343     2786.488     91.10748     182.0703      363.851      2.211     6.08     1147.388     64.16656     165.8339        15     1.323     1.077 -58.11   0
       368     95.7798     54.4681 307.9000519  +6.6514393      4926.52     11947.26     14415.38     90.81779     181.9979     363.9234      2.563     5.83      1182.39     64.16656     536.9971        61     2.208     1.589 -29.45   0
       369    424.1155     54.4684 307.7634893  +6.6623944     1185.516     2907.794     3811.365     91.54029     182.3595     364.0682      2.701     8.94     1157.208     64.16656     144.0255        22     1.661     1.343  -0.33   0
       370    638.2650     46.1798 307.6746969  +6.6729445     9419.298     23026.56     28345.24     90.81779     182.0703      363.851      2.550     6.23     1149.529     64.16656     999.9799        70     2.344     1.587 -27.73   0
       371    538.0735     42.3670 307.7165008  +6.6711884     2640.365     6408.783     7835.307     91.10748     182.0703     363.9958      2.584     7.21       1151.4     64.16656     286.7124        46     2.162     1.464 -30.59   0
       372    263.5566     38.7659 307.8308052  +6.6635300     4197.422     11582.86     16864.21     90.96275     182.0703      363.851      3.458    10.41     1177.317     64.16656     520.6046        80     3.363     1.624 -30.48   0
       373      6.7367     40.8502 307.9375506  +6.6540885     691.7492     1553.167     1886.026     91.25198     181.9979     352.9697      2.376     6.54     1185.657     64.16656     86.20374        10     2.129     0.565 -32.33  16
       374    443.6848     37.9425 307.7559116  +6.6698747     11131.39     27991.08     34901.89     91.25198     182.0703     364.1406      2.652     6.44     1155.883     64.16656     1252.547        78     2.427     1.685 -27.56   0
       375     30.1644     38.4121 307.9278900  +6.6558795     1236.064     3024.185     3805.573     90.67259     181.8531     363.7785      2.719     9.15     1184.401     64.16656     153.4297        22     1.743     1.341 -55.18   0
       376    920.9178     37.7450 307.5574108  +6.6858098     1301.793       2625.2     2776.722     91.25198     182.0703     364.0682      2.182     7.08     1140.728     64.16656      155.063        18     1.506     0.932 -47.27   0
       377    624.2182     36.1837 307.6808789  +6.6766080     1801.177     4426.864     6172.746     90.96275     181.7081     363.9596      2.832     7.14     1149.618     64.16656     236.9761        35     1.806     1.684  -0.31   0
       378    252.2380     35.2103 307.8356341  +6.6646215     1497.459     3574.751     5782.946     90.52717     181.8531     363.7061      3.835     8.32     1177.326     64.16656      185.885        30     2.039     1.409 -58.88   2
       379    693.9709     27.8723 307.6521468  +6.6823601     881.2258     1984.271     2456.328     91.10748     182.0703     363.9958      2.297     7.10     1147.164     64.16656     136.0281        13     1.910     0.739 -23.10   0
       380    752.3468   1021.8218 307.5942009  +6.2735840     1004.158     1895.171      1462.89     90.67259     171.9472     306.3696      1.934     6.31     1211.478     64.16656     140.5903        14     1.549     0.722 -17.79  16
       381    959.8351   1016.1047 307.5081546  +6.2828222     5549.302     9979.345     10649.79     91.39625     181.9255     364.1405      1.908     5.29     1205.662     64.16656     819.3684        35     1.980     0.900 -26.20  16
       382    718.4283   1014.8644 307.6085340  +6.2753336     1842.593     4032.431      5617.87     90.81779     182.0703     363.9596      2.791     9.21     1212.608     64.16656     269.1848        34     2.856     0.828 -26.41  16
       383    244.4513   1016.3812 307.8054761  +6.2589419     1090.796     2006.367     2093.455     90.67259     182.1426     363.7423      1.940     4.47     1217.362     64.16656     159.6742        12     1.166     0.787 -29.10  16
       384    734.6121   1013.7796 307.6018442  +6.2763189     805.7853     1567.263     1172.985     90.81779     181.7081     363.9234      1.814     6.97     1212.216     64.16656     128.3496        12     1.701     0.801 -32.74  16
       385    442.6391   1014.6473 307.7231661  +6.2662592     465.8691     871.8883      398.549     91.10748     182.0703     363.8148      1.513     3.43     1216.588     64.16656     110.8961         5     1.010     0.337 -68.97   0
       386    366.1894   1011.9962 307.7550297  +6.2648099     1316.024     2588.312     2830.105     90.81779     181.7081     363.9234      2.046     7.82     1217.252     64.16656     170.3051        22     1.918     0.892 -35.18  16
       387    976.8086   1009.5504 307.5013211  +6.2860925     467.6945     1098.668     1128.006     90.67259     181.8531     363.6699      2.283     6.45     1204.133     64.16656     114.9949         7     1.571     0.743 -22.17   0
       388    298.9656   1000.7825 307.7833499  +6.2672043     10436.93     21291.89     24740.45     90.81779     181.8531     363.8148      2.274     5.66     1217.136     64.16656     1153.287        65     2.410     1.242 -28.58   0
       389    753.0502   1001.3164 307.5946025  +6.2820806     6176.185     11546.46      12897.4     91.25198     182.0703     364.1405      2.047     5.26     1210.226     64.16656     836.6125        41     2.056     1.032 -27.80   0
       390    548.5114   1001.9939 307.6795925  +6.2750087     3038.625     6051.452     7031.459     90.67259     181.7081     363.7785      2.188     5.93     1213.056     64.16656     379.6228        35     1.996     1.089 -24.44   0
       391    519.0947   1003.0918 307.6917816  +6.2735771     717.6952     1431.805     740.7896     91.25198     182.6483      364.032      1.974     5.10     1214.137     64.16656     106.4926         8     1.461     0.503 -25.64   0
