#   1 NUMBER                 Running object number                                     
#   2 X_IMAGE                Object position along x                                    [pixel]
#   3 Y_IMAGE                Object position along y                                    [pixel]
#   4 ALPHA_J2000            Right ascension of barycenter (J2000)                      [deg]
#   5 DELTA_J2000            Declination of barycenter (J2000)                          [deg]
#   6 FLUX_APER              Flux vector within fixed circular aperture(s)              [count]
#   9 FLUXERR_APER           RMS error vector for aperture flux(es)                     [count]
#  12 FLUX_RADIUS            Fraction-of-light radii                                    [pixel]
#  13 FWHM_IMAGE             FWHM assuming a gaussian core                              [pixel]
#  14 BACKGROUND             Background at centroid position                            [count]
#  15 THRESHOLD              Detection threshold above background                       [count]
#  16 FLUX_MAX               Peak flux above background                                 [count]
#  17 ISOAREA_IMAGE          Isophotal area above Analysis threshold                    [pixel**2]
#  18 A_IMAGE                Profile RMS along major axis                               [pixel]
#  19 B_IMAGE                Profile RMS along minor axis                               [pixel]
#  20 THETA_IMAGE            Position angle (CCW/x)                                     [deg]
#  21 FLAGS                  Extraction flags                                          
         1     80.0225     25.1864 307.9004578  +6.6510526     4037.205     12388.62     15091.84      90.9978     181.9231     364.0636      2.763     7.07     1195.557     64.19128     502.1456        61     2.153     1.787 -81.80   0
         2    622.6539     16.8004 307.6748044  +6.6726409     8060.256     23911.01     28337.25     90.41634     181.7056      363.665      2.653     6.57     1167.428     64.19128     799.4031        73     2.061     1.897 -81.59   0
         3    521.4106     14.2528 307.7170476  +6.6703191      2073.89     4199.196     5200.941     90.56205      182.068     363.8825      2.360     8.43     1172.117     64.19128     240.1832        24     2.058     0.965  78.00   3
         4    524.4941     13.0227 307.7158053  +6.6709299     1955.204     3645.484     4552.669     91.28714     181.9231     364.0274      2.060     7.05     1172.036     64.19128     210.1852        25     1.892     1.044  77.26   3
         5    247.9647      9.4136 307.8310695  +6.6631871     3401.704     11246.37     15084.22     90.70753     181.9231     363.9912      3.258    11.09     1193.244     64.19128     456.7472        74     3.124     1.923 -32.60  16
         6    427.9877      8.5791 307.7561401  +6.6695458      8961.35     28848.32     35185.71      90.9978     181.7781     364.0636      2.808     7.37     1179.536     64.19128      916.955        84     2.245     1.963 -81.20  16
         7    609.0817      7.1736 307.6807820  +6.6761647     1596.007     4770.413     6321.869     91.14259     181.9231     356.8574      2.987     8.98     1166.991     64.19128     162.8771        43     2.002     1.690  58.55  16
         8     14.9593      9.6707 307.9280758  +6.6552801     986.9207     2239.968     2320.875     91.14259     182.1404     364.2447      2.163     7.09     1197.399     64.19128     121.8203        14     1.738     0.811 -52.88  16
         9    905.4589      7.7686 307.5573494  +6.6857767     1193.755     2695.007     3446.001      90.9978     182.1404      361.118      2.459     7.94     1160.383     64.19128     145.4512        17     1.402     1.258  83.28  16
        10    237.5569      6.3809 307.8355062  +6.6640915     1253.442     3314.447     4922.146     90.70753     181.9956     349.3516      3.100     9.16     1193.064     64.19128     165.4957        24     1.902     1.418 -54.19  18
        11    878.7334   1001.5329 307.5349197  +6.2744523     1272.809     2072.222     1588.305     91.28714     182.1404     364.2085      1.736     4.93     1222.948     64.19128     159.0248        15     1.347     0.938 -74.65   0
        12    221.5126   1023.8381 307.8076058  +6.2433510     543.4796     486.4184     450.7179     76.85818     141.6636     270.5676      1.321     3.62     1224.694     64.19128     111.8143         5     1.051     0.359   4.90  24
        13    201.5484   1000.3836 307.8167082  +6.2523705     1688.327      3365.15     3367.589     90.70753     182.2128     363.8463      2.053     5.69     1224.007     64.19128     171.1467        23     1.476     1.135 -48.62   0
        14    704.6844    997.2986 307.6074799  +6.2704180      5755.51     10452.09     11286.51     91.28714     182.6465     364.2447      1.949     4.14     1223.729     64.19128      664.576        37     1.556     1.300 -85.06   0
        15    419.7231    997.7129 307.7260277  +6.2607571     2705.915     5481.394     6046.805     91.28714      182.502     364.2809      2.146     4.86     1225.358     64.19128     300.5039        33     1.595     1.290 -79.58   0
        16    560.9944    996.3016 307.6672983  +6.2660479     3117.172     6161.799     6977.506      90.9978     181.7056     363.8463      2.008     5.02     1225.088     64.19128     311.9292        34     1.690     1.273 -79.99   0
        17    697.3175    996.5444 307.6105705  +6.2704845     894.3416     1463.183     1772.472     91.28714     182.1404     364.2809      1.908     6.64     1223.857     64.19128     111.3362        11     1.335     1.029 -17.16   1
        18    735.7151    993.0384 307.5947128  +6.2732093      718.197     1522.229     2069.698     91.28714      182.068     364.1723      2.496     5.04     1223.023     64.19128     120.6486         7     0.981     0.733  79.60   2
        19    944.2651    986.6853 307.5081540  +6.2827594     6439.303     10459.99     10926.61     91.43147     182.3575     364.2447      1.737     3.60     1219.884     64.19128     834.0426        34     1.432     1.223 -83.41   0
        20    698.1245    987.0993 307.6105540  +6.2744123     829.3696     1420.681       1925.1     90.70753     182.2852     364.0636      1.713     5.29     1223.293     64.19128     106.6459         8     1.066     0.742 -73.94   0
        21    229.1381    986.4798 307.8057019  +6.2590346     891.2151     1498.723     1272.562     91.43147     182.2128     364.1723      1.848     6.01     1224.216     64.19128     112.8987        10     1.340     1.026  53.26   0
        22    703.7985    984.9694 307.6082652  +6.2754806     2110.417     4190.863     4924.759     90.56205     181.9231      363.955      2.158     5.74     1223.092     64.19128     235.8065        29     1.635     1.239 -54.47   0
        23    351.0513    982.6191 307.7551108  +6.2647000     1385.758     2604.388     3161.757     90.70753     182.2128      363.955      2.106     7.50     1224.962     64.19128     152.1687        19     1.328     1.185  59.82   0
        24    961.4179    979.1605 307.5012707  +6.2864363     706.0293     1299.504     1156.526     90.85278     181.9231     363.9187      1.583     3.46     1219.428     64.19128     105.4517         5     0.800     0.433  69.41   0
        25    737.5553    971.8953 307.5946616  +6.2820028      6267.67     11940.26     12427.64     91.28714      182.068     364.3171      1.996     4.27     1221.912     64.19128     713.3518        43     1.617     1.406 -80.42   0
        26    532.9993    972.5980 307.6797486  +6.2749052     2835.015     5890.901     6691.481     90.56205      181.633       363.81      2.213     4.76     1224.577     64.19128     355.8569        36     1.625     1.411 -69.94   3
        27    530.3377    964.7960 307.6811201  +6.2780388     5750.932     12039.67     13433.25     90.56205     181.8506     363.8825      2.170     4.84     1224.295     64.19128     580.1079        47     1.715     1.514 -78.77   2
        28    503.4789    974.7304 307.6919588  +6.2730410     658.6426     1191.995     1267.292     91.57557     182.4298      364.136      2.363     4.99     1224.666     64.19128      112.902         5     1.201     0.587  25.37   0
        29    283.3596    971.5059 307.7836514  +6.2670300     10170.27     21622.89     24299.88     91.43147      182.068     364.2809      2.233     4.86     1224.718     64.19128     1022.724        65     1.912     1.652 -54.10   0
        30    798.1265    971.1142 307.5694854  +6.2843385     912.2932     1292.538     1111.051     91.43147      182.502     364.1723      1.533     2.58     1221.813     64.19128     145.3586         8     0.792     0.656 -56.79   0
        31    898.8436    965.2579 307.5277760  +6.2901019     7817.728      13255.8     13146.54     91.14259      182.068     364.2447      1.779     3.66     1220.042     64.19128     995.7822        40     1.536     1.245 -75.70   0
        32    872.3983    961.5094 307.5389061  +6.2907722     10834.31     19332.62     20385.48     90.41634     181.7781     363.8825      1.911     4.00     1220.615     64.19128      1366.62        49     1.565     1.455 -85.98   0
        33    583.7574    961.2674 307.6590130  +6.2812753     804.0277     1940.691     2014.431     91.28714      182.068     364.2447      2.411     8.96     1223.777     64.19128     114.6398        12     2.112     1.062 -84.95   2
        34    994.0854    960.8043 307.4882969  +6.2951011     4688.119     7536.704     7091.471     90.70753     181.7056       363.81      1.683     3.63     1218.027     64.19128     611.4258        31     1.412     1.132 -79.74   0
        35    516.8304    960.5146 307.6868851  +6.2793571     2922.154     6261.988     7417.333     91.28714     181.9231     364.0274      2.320     5.71     1224.166     64.19128      302.119        42     1.790     1.529  13.75   0
        36    626.1893    958.8929 307.6414384  +6.2836685     1127.816      1746.91     1382.511      90.9978     181.7056     363.9187      1.751     5.19     1223.134     64.19128     138.9152        10     1.057     0.976 -48.79   0
        37    469.8901    957.2468 307.7065264  +6.2791423     1385.742     3000.514     2613.841     91.28714     181.9956     364.3171      2.109     6.27       1224.2     64.19128      159.407        25     1.505     1.273 -31.96   0
        38    889.7070    958.8245 307.5317948  +6.2924557     414.4208     468.8643     16.85096     91.43147     181.8506     363.9912      1.292     3.69     1219.959     64.19128     94.16943         5     1.208     0.325  -9.80   0
        39    904.1793    949.0232 307.5261036  +6.2969842     38053.75      66405.2     70282.17      90.9978     181.9231     364.0999      1.846     3.85     1219.118     64.19128     4661.424        65     1.641     1.362 -75.15   0
        40    212.0854    948.0761 307.8141010  +6.2743254      1126.38       2647.2     2692.794     91.43147      182.502     364.2447      2.264     6.64     1223.452     64.19128     149.5165        20     1.534     1.305  86.47   0
        41    802.1321    942.9812 307.5687688  +6.2960909     1807.958     3615.854     3955.868     90.85278      182.068     364.0636      2.110     5.47     1220.276     64.19128     196.1409        27     1.555     1.222 -85.22   0
        42    750.3545    940.7427 307.5903886  +6.2952947     5264.593     9961.382     11341.16     91.28714     182.1404     364.2447      2.080     4.43     1220.273     64.19128     592.7986        39     1.615     1.335 -67.05   0
        43    220.2867    940.0728 307.8109607  +6.2779048     1010.568     2088.632     1998.861     91.43147     182.4298     364.1723      2.110     7.14     1223.412     64.19128     106.1793        16     1.342     1.063  43.33   0
        44     44.7106    938.3480 307.8840687  +6.2727451     2148.373      4261.47     4614.233     91.28714     181.9231     364.3171      2.066     5.31     1221.904     64.19128     240.9668        29     1.511     1.330  86.20   0
        45    938.4723    935.7827 307.5122810  +6.3035908     6115.503     10202.34     10175.58     90.70753      182.068     364.0636      1.780     3.67     1217.938     64.19128     819.4515        36     1.460     1.225 -75.21   0
        46    912.0767    927.6238 307.5235394  +6.3060846     1785.375     2830.677     3075.949     90.85278     181.9956      364.136      1.716     4.12      1218.03     64.19128     232.7388        15     1.251     0.820 -52.82   0
        47    633.0530    923.4343 307.6397820  +6.2985416     3259.611     6590.302     6766.647     91.14259     182.1404     364.0636      2.086     4.96     1221.645     64.19128     339.5811        32     1.564     1.313 -52.74   0
        48    245.3876    923.8931 307.8010665  +6.2854257     2912.277       6500.5     7112.365      90.9978     181.8506      363.955      2.234     5.47     1223.531     64.19128     296.9934        37     1.626     1.460  88.72   0
        49    771.7599    923.5001 307.5820645  +6.3031276     916.4083     1481.232     1219.524     91.28714     181.9956     364.4256      1.723     6.12     1219.289     64.19128     118.9016        13     1.331     0.792 -24.07   0
        50     14.3907    921.6136 307.8972528  +6.2786411     1634.028      3310.25     3509.616      90.9978     181.8506     364.0636      2.051     5.43     1221.467     64.19128     192.5505        25     1.535     1.159  81.29   0
        51    456.5909    921.2667 307.7132790  +6.2935590     670.0206     1163.067     899.0065     90.70753     181.9231     364.0999      1.598     3.67     1223.363     64.19128     116.4962         7     0.957     0.714  38.19   2
        52    864.7689    920.4368 307.5434668  +6.3074825     782.6514     1353.313     1169.163     90.85278     181.8506     363.9187      1.693     4.84     1217.964     64.19128     119.6268         7     1.205     0.550 -70.17   0
        53    557.3887    915.7995 307.6715236  +6.2991758     1117.437     2354.748     1676.553     90.85278     181.7781      363.955      1.970     5.87     1222.553     64.19128     156.9968        15     1.384     0.938 -52.81   0
        54    988.5255    916.0308 307.4921196  +6.3134090     828.9792     1314.757      1860.76     91.14259     182.1404     364.1723      1.597     3.76     1215.082     64.19128     124.1896         5     0.757     0.616  -4.80   0
        55     46.5766    913.4284 307.8841402  +6.2830991     683.0773     1219.401     2034.961     90.70753     181.9956     363.9912      2.559     4.73     1221.502     64.19128     123.0038         7     1.124     0.565  43.42   0
        56    597.0448    912.2682 307.6551425  +6.3019548     1005.142     1894.129     1094.039     91.28714      182.068     364.2085      1.934     6.33     1221.915     64.19128     106.5518        13     1.289     0.956 -41.64   0
        57    276.9224    910.7192 307.7883931  +6.2919198     856.4703      2026.64     2241.411     91.57557     182.4298     364.3532      2.242     8.87     1223.932     64.19128     130.1173        17     1.792     1.225 -13.33   0
        58    881.1714    902.7044 307.5372401  +6.3153508     5915.677      10710.8      10888.2     91.43147     181.8506      364.136      1.924     4.07     1216.954     64.19128     696.5087        40     1.584     1.306 -74.34   0
        59    744.5753    905.2176 307.5939938  +6.3097749      584.294     1031.294      1410.05      90.9978     181.9231     364.0999      1.788     4.62     1218.434     64.19128     84.14197         5     1.180     0.515  30.64   0
        60    417.2684    900.2007 307.7303546  +6.3009481     1397.621     3230.014      3141.84     90.70753      181.633      363.955      2.306     7.37      1223.13     64.19128     155.7222        26     1.520     1.395  89.09   0
        61    318.9753    898.5045 307.7713104  +6.2983687     5798.879     13483.61     15131.01     91.43147     181.8506     364.0274      2.313     5.39     1223.776     64.19128     598.8562        52     1.811     1.622 -82.30   0
        62    239.1374    897.5207 307.8045626  +6.2961086     4555.671     10165.09     11126.81     91.43147     182.2128     364.1723      2.253     5.11     1223.083     64.19128     483.0491        45     1.739     1.531  84.62   0
        63    896.8217    888.4891 307.5312075  +6.3217415     950.3094     1804.133     1588.638     91.28714     181.9231     364.0636      2.024     6.10     1216.115     64.19128     123.0901        10     1.042     1.004  19.60   0
        64    733.2758    880.3484 307.5995360  +6.3196705     1088.143     2367.533     2251.546     91.28714     182.2128     364.1723      2.034     7.08     1217.383     64.19128     136.0798        15     1.550     1.033  81.86   0
        65    964.5471    876.6672 307.5034245  +6.3288715     1093.536      1837.76     2391.078     91.28714      182.068     364.0636      2.322     5.79     1213.391     64.19128     156.2719        13     1.386     0.939 -85.59   0
        66    518.6423    877.5474 307.6889411  +6.3136834     519.7922     1252.284     1243.139     91.28714     182.2128     364.2085      2.163     4.82     1221.784     64.19128     88.02771         6     1.439     0.457 -39.36   0
        67    651.7609    874.5181 307.6336523  +6.3193671     1670.752     3678.933     4352.422     91.28714     182.2128     364.0999      2.420     7.28     1218.365     64.19128     172.6602        27     1.627     1.370 -78.45   0
        68     48.8670    870.7574 307.8846391  +6.3007985     2064.693     4552.115     5460.237     91.28714      182.068     364.2447      2.325     5.35     1221.033     64.19128     235.9242        32     1.552     1.402 -85.26   0
        69     66.3264    869.9946 307.8774007  +6.3016979     1409.708     3080.456     2538.812     90.85278      181.633     364.0636      2.102     6.46     1221.005     64.19128     172.9352        22     1.468     1.242  72.50   0
        70    812.2499    870.9564 307.5669911  +6.3261743     738.3934     1227.817     918.6577     91.43147      182.068     364.2085      1.855     4.32     1215.358     64.19128     120.1241         6     1.142     0.465 -16.29   0
        71    192.3515    869.5908 307.8249781  +6.3060800     1361.368     3181.474     4103.188     90.70753     181.9231       363.81      2.571     7.66      1222.28     64.19128     142.6978        21     1.587     1.284 -40.36   0
        72    646.5424    863.3815 307.6362005  +6.3237930     4546.067     9973.055     11139.28     90.85278      182.068     363.9187      2.225     5.09     1217.792     64.19128     461.2748        46     1.751     1.508 -71.78   0
        73      7.5028    862.1998 307.9021408  +6.3029477     822.2147     1615.536     1482.553     90.70753     181.7056     358.9206      2.131     5.13     1220.863     64.19128     114.4263         9     1.171     0.636  50.72  16
        74    884.0583    859.7606 307.5374881  +6.3331831     2304.166     4306.521     4518.328     91.28714     182.2128     364.2809      1.946     4.77     1214.606     64.19128     296.8418        28     1.618     1.125 -74.00   0
        75     20.3950    860.8168 307.8968238  +6.3039506     742.2954     1370.667     1432.229     90.85278     181.7781     363.9912      1.882     6.17     1220.814     64.19128      119.744         7     1.654     0.647 -49.76   0
        76    329.6579    856.8150 307.7682801  +6.3159431     9423.837     22723.45     25744.88     90.56205      182.068     363.8463      2.362     5.56     1222.694     64.19128     984.8965        58     1.838     1.656 -85.24   0
        77     65.5046    857.7246 307.8781601  +6.3067378     909.8596      1474.73     1563.236     90.85278     182.3575     364.2447      1.842     4.44     1220.757     64.19128      132.672         7     1.133     0.495 -86.13   0
        78    929.3717    869.5034 307.5183034  +6.3306632     658.0831     869.4531     938.4499     91.43147     181.8506     364.1723      1.666     3.86     1215.179     64.19128     117.8544         5     1.011     0.422 -75.13   0
        79     93.3053    847.8192 307.8669297  +6.3117590     983.9473     2453.258     2593.712     91.14259     181.9231      363.955      2.395     8.57      1220.68     64.19128     116.0585        17     1.630     1.259 -88.05   0
        80    407.3634    847.2108 307.7362726  +6.3225027     672.1474     1349.291     2059.399     90.70753     181.9231       363.81      1.997     5.54     1221.043     64.19128     99.98779         7     1.485     0.582  49.03   0
        81    660.9271    844.1890 307.6308640  +6.3321983     706.4665     1476.427     1795.896     90.70753     181.7056     364.0274      2.610     5.66     1216.607     64.19128     98.38892         8     0.993     0.909 -38.51   0
        82     76.4576    841.2493 307.8741632  +6.3139085     1687.575     3704.402     4208.907     91.28714     182.1404     364.2809      2.284     5.98     1220.414     64.19128     198.2184        29     1.664     1.306  77.25   0
        83    874.6055    841.3194 307.5420440  +6.3404858     1628.487     3183.437     3473.653     90.85278      181.633     363.9187      1.996     6.03     1213.338     64.19128     195.1099        23     1.384     1.256   8.86   0
        84    844.8173    840.9305 307.5544529  +6.3396572     1511.932     2881.593     2858.706     90.70753     181.9956     364.0636      1.951     5.80      1213.53     64.19128      179.369        20     1.462     1.050 -66.97   0
        85    808.7868    840.2562 307.5694690  +6.3387388     2080.192     4462.334     4653.399     90.56205      182.068     363.8463      2.189     5.96     1213.788     64.19128     223.6912        29     1.584     1.319 -60.81   0
        86    544.6117    831.8887 307.6796812  +6.3334060     193708.6     463680.8     519077.6      90.9978     181.7781     363.9912      2.377     5.60     1218.856     64.19128     19235.34       161     2.033     1.822 -81.11   0
        87    388.9825    834.5895 307.7443490  +6.3271021     4317.038     10847.36     12008.58      90.9978     181.7781     364.0274      2.409     5.75     1221.047     64.19128     441.0995        49     1.808     1.659 -83.61   0
        88    332.2051    833.1047 307.7680248  +6.3258205     6860.812     17126.84     19820.84      90.9978     181.7781     363.8825      2.462     5.66     1222.193     64.19128     671.3987        61     1.950     1.686  88.73   0
        89    649.5848    828.7761 307.6361051  +6.3381866     1890.217     3326.157      4153.28      90.9978     181.9231     364.0999      1.960     5.68     1215.984     64.19128     217.9845        22     1.661     0.951 -87.13   3
        90    882.9356    827.8945 307.5390307  +6.3463070     3983.424     7738.843     8716.342     91.14259     182.2852     364.2085      2.065     4.46     1212.438     64.19128     504.8295        36     1.568     1.342  70.00   0
        91    625.2770    823.1511 307.6464104  +6.3397008     2206.303      4971.76     6139.295     91.14259     182.2128     364.1723      2.507     6.58     1216.065     64.19128     211.6366        32     1.746     1.303 -60.12   0
        92   1016.2773    821.8604 307.4837456  +6.3532233       4097.7     7251.463     8397.031     91.43147     182.2128      364.136      1.940     3.80     1207.122     64.19128     557.0747        34     1.505     1.236 -76.33  16
        93    813.5938    821.9808 307.5680859  +6.3464466     1216.052     2302.172      2089.78     90.85278     181.7781      363.955      1.902     6.19     1212.879     64.19128     149.8831        18     1.389     1.161  61.99   0
        94    939.8847    820.6735 307.5155757  +6.3511797     664.1719     897.9203     1024.818     91.43147      182.502     364.2085      1.319     3.53     1211.169     64.19128     117.5984         6     0.749     0.628 -72.05   0
        95    617.8154    818.5720 307.6496704  +6.3413436     1296.766     3515.021     5288.705     90.85278     181.9231     364.0636      3.115     9.50     1215.976     64.19128     167.9235        29     1.953     1.290 -52.97   0
        96    901.5830    815.6309 307.5316847  +6.3519912     2422.408     4473.171     4365.651     90.85278     181.8506     364.0636      1.941     4.63     1211.531     64.19128     289.9858        26     1.438     1.191 -57.85   0
        97    652.0000    828.9600 307.6350938  +6.3381910     1332.824     2026.427     2971.607      90.1242     181.7056     363.7013      1.582     4.97     1215.954     64.19128      210.375         9     1.472     0.481  77.36   3
        98    359.9466    812.0730 307.7571949  +6.3354326     1560.962     3763.813     3978.946     91.14259     182.1404      364.136      2.300     7.02     1221.282     64.19128     176.9026        26     1.512     1.427 -45.47   0
        99    227.3542    803.6422 307.8126542  +6.3344865     805.8049     2702.655     3847.284     91.14259     182.1404     363.9912      3.067     8.38     1221.899     64.19128     137.5526        14     1.467     1.338 -42.72   0
       100    496.3284    801.6233 307.7007981  +6.3442970     1682.245     3911.418     4098.534     90.85278     181.9956     364.1723      2.320     6.44     1217.745     64.19128      231.606        29     1.646     1.345 -79.40   0
       101    840.4511    801.0610 307.5576160  +6.3559789     804.2832     1817.193     2512.369     91.28714      182.068     364.1723      2.386     5.80     1211.285     64.19128     105.0671         9     1.525     0.622 -78.34   0
       102    543.7393    797.5425 307.6812073  +6.3475622      3295.12     8161.033     10591.36     91.43147      182.068     364.2085      2.826     8.79     1216.231     64.19128     408.6796        55     2.466     1.666   1.24   0
       103    462.3281    795.8865 307.7151409  +6.3455329     722.5954     1569.354     1712.584     91.43147     182.4298     364.1723      2.164     5.43     1218.149     64.19128     109.0782         7     1.249     0.710  70.74   2
       104    878.4161    795.4946 307.5420050  +6.3595387     969.3742      1877.55     1567.983      90.9978     181.9231     363.9912      1.956     6.85     1210.323     64.19128     155.0277        16     1.574     1.031 -47.35   0
       105    513.6948    791.6180 307.6939104  +6.3490080     10920.68     27123.28      30176.1     91.14259     181.9231     363.9912      2.414     5.67     1216.633     64.19128     1078.575        67     1.954     1.710 -79.44   0
       106    104.1359    795.6677 307.8641969  +6.3336596     757.6136     1584.768     1900.242     91.28714     182.1404     364.2447      2.068     4.65     1219.979     64.19128     104.4563         6     1.307     0.470   1.33   0
       107    927.1238    789.5770 307.5219351  +6.3635995     3013.537     5512.169     4952.763     90.85278     181.9231     364.0636      1.936     4.27     1209.685     64.19128     370.9823        30     1.562     1.184 -86.24   0
       108     24.8403    782.1033 307.8976533  +6.3366074     936.6908     2183.811     2479.385     91.28714     181.9956     364.3532      2.067     6.01      1217.39     64.19128     144.7565        10     1.480     0.687  28.87   0
       109    306.5017    780.2279 307.7805149  +6.3468005     1887.536     4702.694     5152.744     91.43147     181.8506      364.136      2.402     6.66      1220.76     64.19128     200.9215        37     1.740     1.520 -55.47   0
       110      6.4344    778.5530 307.9054329  +6.3374572     1386.059     3521.634     3326.784     90.85278     182.1404      350.068      2.376     9.08     1216.813     64.19128     167.5391        31     1.692     1.483  68.30  16
       111    771.8190    775.9982 307.5870234  +6.3640498     34894.48     76891.73      84613.4     90.85278      181.633     363.8463      2.230     5.05     1210.911     64.19128     3804.315        85     1.879     1.658 -72.74   0
       112    228.6526    752.8315 307.8138399  +6.3555145     781717.3      2555213      3062494     91.14259     182.2128     364.0636      2.808     5.48     1219.744     64.19128      63664.9       559     2.770     2.170  89.20   4
       113    897.0673    771.0870 307.5350671  +6.3702386      6301.53      12406.1     12866.72     91.43147     182.4298     364.2085      2.061     4.51     1208.869     64.19128     759.5946        45     1.662     1.453 -54.59   0
       114    338.7802    768.3113 307.7674875  +6.3527998      10229.8      27758.7        31783     91.14259     181.8506     364.0274      2.547     6.15     1219.356     64.19128     1046.549        69     1.988     1.821 -90.00   0
       115    400.6578    766.0874 307.7418139  +6.3557832     11245.88     29751.98     33621.97     91.28714     182.1404     364.3171      2.518     6.14     1217.987     64.19128     1192.366        74     2.022     1.782 -84.88   0
       116    937.5366    764.2162 307.5184574  +6.3744195     1579.896     2842.487     3245.581     90.70753      182.068     363.9912      2.015     6.02      1207.89     64.19128      185.964        18     1.333     0.997 -67.77   0
       117    893.8747    762.6220 307.5366814  +6.3736288     4759.584     9794.534     10450.56     90.85278     181.9956     364.0999      2.135     4.73     1208.461     64.19128     547.9647        41     1.721     1.440  85.14   0
       118    634.5812    761.7676 307.6446156  +6.3653625      3507.62     8723.443     9891.021     90.70753     181.9231     364.0274      2.412     5.96     1212.421     64.19128     404.0914        47     1.773     1.656 -64.00   0
       119    422.2293    761.2344 307.7330018  +6.3585071     581.3208     1405.811     1662.614     90.70753     181.8506      363.955      2.077     5.62     1217.349     64.19128     100.8909         8     2.089     0.426  37.35   2
       120    669.6515    751.8311 307.6303574  +6.3706334     1301.493     3153.623     3685.106     91.14259     182.2852     364.0999      2.517     9.09     1211.245     64.19128      133.049        25     1.699     1.357  87.42   0
       121    403.5367    748.7166 307.7412050  +6.3630535      27187.3     72254.34     83632.18     91.43147     182.2128      364.136      2.555     6.16     1217.107     64.19128     2740.436        97     2.061     1.881 -77.51   0
       122    521.2735    747.7694 307.6922420  +6.3673703     3578.829     9375.626     10436.75     91.14259     182.1404     364.1723      2.453     6.17     1213.417     64.19128     385.6591        50     1.891     1.658 -85.19   0
       123    437.7288    745.9515 307.7270701  +6.3653360      2368.68     5976.484     8164.098     91.28714     182.1404     364.2085      2.901     9.24     1216.258     64.19128      219.114        48     2.292     1.636  56.19   2
       124    435.1572    739.3733 307.7283633  +6.3679671     1173.604     3072.043     3522.247     90.85278     182.1404     364.0274      2.564     8.14     1216.016     64.19128      120.058        19     1.443     1.284  -4.33   3
       125    766.3121    744.1514 307.5903913  +6.3770199      7112.11     15972.94     17832.48     91.28714     181.9956     364.2447      2.295     5.32     1208.505     64.19128     691.6295        54     1.856     1.549 -82.10   0
       126    699.6245    770.1671 307.6172640  +6.3640576     12740.55     33235.93     38910.06     90.56205     181.8506      363.955      2.550     6.00     1211.792     64.19128     1416.191        41     1.803     1.519  24.28   3
       127    132.4734    737.2054 307.8543935  +6.3587522     1703.254      4210.41     5273.175     90.85278      181.633     364.0636      2.573     6.47     1217.627     64.19128     192.4662        34     1.645     1.508  21.86   3
       128    124.3812    736.6057 307.8577812  +6.3587292     5976.646     15680.94     19293.82     90.85278     181.7056      363.955      2.641     6.08     1217.478     64.19128      666.217        61     1.985     1.744 -86.50   3
       129    116.9570    732.3339 307.8610159  +6.3602450     1489.645      4220.44     8371.891     91.28714      182.068     364.2085      4.157    13.85     1217.009     64.19128     187.5839        52     3.544     1.506  88.32   2
       130    911.9811    732.5033 307.5301626  +6.3866693     4553.373     9227.834     10159.77     91.14259     181.9956     363.9187      2.074     4.79     1206.536     64.19128     560.2703        43     1.644     1.477 -82.12   0
       131    693.7430    767.1405 307.6198140  +6.3651120     51774.41       121395     138701.5     91.43147     182.1404     364.2085      2.385     5.35     1211.696     64.19128     5233.979       116     2.191     1.949  59.27   2
       132    960.9179    731.7952 307.5098205  +6.3885857     1160.064     2087.658     2750.572     90.70753     181.7056     363.8463      2.266     6.63     1205.836     64.19128     159.8156        16     1.344     1.028  -7.32   0
       133    554.3139    729.6846 307.6791048  +6.3759402      1088.24     3038.162     3154.968      90.9978     182.3575     364.2447      2.542     9.45     1211.236     64.19128     124.1121        24     1.657     1.503  39.84   0
       134    667.1853    730.3941 307.6321088  +6.3794051     827.6395     1874.526     2169.972     90.85278     181.8506     363.9912      2.353     6.45     1209.765     64.19128     165.4819        10     1.550     0.752  -8.42   0
       135    935.5884    723.8939 307.5206285  +6.3910086     2377.512     4272.107      4756.44      90.9978     181.7781     363.9187      1.912     5.11     1205.634     64.19128     263.4718        27     1.514     1.254 -74.04   0
       136    906.0115    724.2549 307.5329253  +6.3898779     2063.767     4097.742     4242.961     90.56205      182.068       363.81      2.016     5.35      1206.04     64.19128     262.1025        28     1.584     1.223 -66.66   0
       137    657.7477    724.1193 307.6362486  +6.3816826       718.59     1735.541     2032.134     91.28714     182.1404     364.1723      2.515     8.28     1209.396     64.19128     99.87952        12     1.934     0.992 -57.91   0
       138    966.4973    724.1818 307.5077553  +6.3919153     1404.057     2651.481      3196.81     91.14259     181.9956     363.8825      2.076     7.24     1205.311     64.19128     158.1298        20     1.420     1.220   6.75   0
       139    231.7267    718.6376 307.8137224  +6.3697393     935.3901      2622.43     3687.274     91.14259     182.1404     364.2447      3.223     7.58     1217.954     64.19128     112.6274        15     1.582     1.016  34.33   2
       140    950.4310    711.7847 307.5148599  +6.3965024     1954.262     3955.454     3973.225     90.85278     181.8506     364.0999      2.123     5.05      1204.75     64.19128     243.4288        28     1.532     1.278 -48.10   0
       141    897.1375    712.7701 307.5370061  +6.3943267     844.0627     1510.567     1478.353      90.9978     182.1404     364.0999      1.980     5.88     1205.467     64.19128     118.7296        11     1.152     0.909 -48.91   0
       142   1023.3761    705.8609 307.4847015  +6.4013685     4580.354      6794.46     6745.319     83.28062     149.9825     279.5322      1.511     4.62     1203.874     64.19128     672.5923        21     1.642     0.692 -88.86  24
       143    991.9641    705.2295 307.4977958  +6.4005877     1386.926     2516.219     2463.352     90.85278     181.8506      363.955      1.854     4.94     1204.038     64.19128     192.2968        19     1.418     1.046 -64.24   0
       144    879.4662    701.0092 307.5447574  +6.3985975     948.2333      2055.68     2020.499     90.70753     181.9231     364.0636      2.208     8.08     1204.983     64.19128     134.0507        18     1.610     1.200  73.33   0
       145    853.8331    696.1244 307.5555903  +6.3997637     630.6668     1140.043     1315.951     91.14259     182.1404      364.136      1.789     4.40     1205.001     64.19128     92.60205         5     0.779     0.708  62.57   0
       146     36.4101    692.1657 307.8959003  +6.3741382     1454.339     3233.158     4026.827     90.70753     181.8506     363.9912      2.442     6.80     1215.651     64.19128     179.6587        23     1.611     1.228 -88.87   0
       147    836.6837    691.8442 307.5628720  +6.4009619     902.7168     1834.441     1688.946     91.28714     182.1404     364.1723      2.178     4.69     1204.949     64.19128     144.6974        12     1.252     0.918   8.67   0
       148    648.3660    680.1001 307.6416423  +6.3995508      3284.14     8107.457      9223.21     91.28714     181.9956     364.3532      2.430     5.85     1205.822     64.19128     332.9059        50     1.910     1.583 -73.30   0
       149    111.9355    676.3710 307.8650090  +6.3831893     1914.116     5184.265     5940.907      90.9978     182.1404     364.0999      2.516     6.94     1213.213     64.19128     229.0999        39     1.879     1.540 -55.44   0
       150    985.3298    675.0342 307.5015752  +6.4128388     1831.261     3515.851     3700.499     91.14259     182.1404     364.2809      2.068     4.77     1202.471     64.19128     228.2266        23     1.445     1.096  71.09   0
       151    622.4205    675.6929 307.6525893  +6.4005073     1045.708      2528.55     2693.589     91.14259     181.9231     363.9912      2.338     8.04     1206.259     64.19128     120.5762        21     1.717     1.114 -14.94   0
       152    765.3747    672.1537 307.5932146  +6.4067247     11331.47     27276.49     30692.43     90.85278     182.2128     364.0274      2.396     5.52     1204.398     64.19128      1157.25        69     1.932     1.704 -68.63   0
       153    895.2543    671.6818 307.5391766  +6.4112343     2355.793     4852.871     4807.258     91.28714     182.1404     364.2447      2.054     5.16     1202.891     64.19128      271.381        32     1.559     1.371 -49.31   0
       154    239.0537    666.2537 307.8124529  +6.3916186     2891.773     8319.163     9362.768     91.57557     181.9956     364.1723      2.554     6.63     1214.721     64.19128     363.1865        49     1.860     1.755 -85.68   0
       155    645.9637    664.9401 307.6431551  +6.4057320      3639.32     9452.332     10756.63     91.28714     182.1404      364.136      2.540     6.24      1204.86     64.19128     365.6683        51     1.861     1.713 -87.63   0
       156    905.5835    656.7277 307.5353825  +6.4177535      770.592     1325.954     1479.024     90.70753      182.068     364.0636      1.742     5.65     1201.808     64.19128     95.04407         7     1.429     0.629 -12.45   0
       157    717.6789    653.3477 307.6137006  +6.4129059     1974.714     5034.597     6452.912     91.28714     182.1404     364.1723      2.707     6.68     1203.248     64.19128     203.4541        41     1.741     1.679 -79.58   0
       158      4.0089    650.5560 307.9108003  +6.3902374     878.2496     2160.674     2561.341     90.70753     179.8823     319.3811      2.340     7.98     1215.093     64.19128     124.6735        15     1.829     0.973 -30.74  26
       159    983.8157    649.8356 307.5030552  +6.4231960      6491.86     12858.96     14134.38     90.85278     181.8506      363.955      2.067     4.54     1200.932     64.19128     846.1732        45     1.698     1.367 -71.02   0
       160    922.3649    650.3920 307.5286120  +6.4209273     1657.898     3326.127     2992.429     90.70753     181.9231     363.9187      2.065     6.28     1201.072     64.19128     162.9043        22     1.430     1.132 -76.17   0
       161     61.4820    645.2482 307.8870638  +6.3943541     12902.27     35113.94     40567.75     91.28714     182.1404     364.2085      2.589     6.29      1213.26     64.19128     1488.693        77     2.083     1.827  87.58   0
       162    522.5071    645.3734 307.6951975  +6.4097016     812.4808     2388.642     2492.858     91.43147     181.8506     363.9912      2.585     9.33     1208.718     64.19128     113.7297        17     1.645     1.476  57.23   0
       163    912.3631    641.0178 307.5330911  +6.4244670     685.1937     1522.217     1672.615     90.85278     181.9231     363.9187      2.387     7.08      1200.73     64.19128     102.0514        10     1.833     0.767 -45.45   0
       164    490.1832    642.0412 307.7087630  +6.4100005     675.0393     1067.649     1109.451     90.70753     181.9231      363.955      1.930     4.03     1209.316     64.19128      88.4801         6     0.978     0.474  53.65   0
       165    729.3882    635.5270 307.6094299  +6.4206555     2159.557     5591.211     6209.432     90.70753     181.7056     363.9912      2.431     6.74     1202.219     64.19128     274.3025        43     1.882     1.570 -70.74   0
       166    707.0733    637.0533 307.6186656  +6.4192829     1890.311     5096.494     5995.004     91.14259      182.068     364.1723      2.572     7.77      1202.28     64.19128     214.3274        40     1.861     1.611  79.24   0
       167    221.7105    633.1028 307.8207968  +6.4047302      927.358     2466.098     3571.249     91.28714     182.6465     364.1723      3.560     9.43     1212.766     64.19128     130.1267        18     1.930     1.286 -60.11   0
       168    562.2430    632.9231 307.6790820  +6.4161676      1402.99      3543.74     4175.261     91.14259     182.1404     364.2085      2.659     9.48     1206.765     64.19128      175.606        22     1.661     1.510 -65.82   2
       169   1002.1864    631.3788 307.4960316  +6.4314283     3773.298     7330.646     7796.585      90.9978     181.8506     364.0636      2.041     4.56     1199.749     64.19128     444.8494        32     1.483     1.355 -63.39   0
       170    967.5414    630.2269 307.5104899  +6.4307549     5940.357     11876.98     12731.72     90.85278     182.2128     363.9912      2.098     4.64     1199.687     64.19128      679.037        47     1.711     1.467 -83.01   0
       171    303.6349    632.7505 307.7867146  +6.4076129     817.0905     2186.246     2760.108     91.14259     182.1404     364.0999      2.391     6.24      1210.85     64.19128     104.4016        10     2.081     0.526 -56.46   2
       172    126.2126    624.2016 307.8608420  +6.4052127     11045.31     31332.63      36336.3     90.85278     181.7781     363.9187      2.628     6.42     1211.849     64.19128     1331.585        80     2.133     1.863 -85.51   0
       173    414.5857    624.1775 307.7408307  +6.4148572     1251.557     2622.317     3391.619      90.9978     181.9231     364.0636      2.632     5.89     1208.749     64.19128     187.5798        15     1.513     1.004 -86.77   2
       174    411.7312    623.2510 307.7420501  +6.4151446     1069.354      2252.69     2945.725     91.14259     181.9956      364.136      2.369     5.61     1208.697     64.19128     139.6337         9     1.355     0.655 -83.01   3
       175    793.4633    624.1888 307.5831454  +6.4274685     691.3725     1217.696     1756.279     90.70753     181.9231     364.0274      1.834     3.45     1201.493     64.19128      96.7124         5     0.764     0.450  69.71   0
       176    962.4966    613.1280 307.5131664  +6.4376497     4547.982      9810.46     10790.88     91.14259     182.3575      364.136      2.252     4.96     1198.629     64.19128     532.2883        46     1.813     1.474 -83.28   0
       177   1017.7300    608.2762 307.4903412  +6.4414855     68059.41     131655.4     142423.2     91.57557     182.2852     357.7062      2.065     4.45     1198.276     64.19128     8452.445        95     1.830     1.537 -80.04  16
       178    556.0646    608.7513 307.6824720  +6.4259450     21864.99     62146.27     72580.41     91.14259     181.9956     364.1723      2.605     6.41     1205.707     64.19128     2125.715        94     2.125     1.901 -77.40   0
       179    164.3061    605.2661 307.8456328  +6.4143072     1348.882     3297.026     4499.697     91.28714     182.3575     364.1723      2.752     7.90     1211.122     64.19128     174.1372        27     1.593     1.393 -74.54   0
       180     57.5506    599.7532 307.8902483  +6.4130115     784.8481     1932.571     2278.029     91.28714     181.9956     364.2447      2.816     7.25     1211.241     64.19128     107.5225        12     1.567     0.940  78.59   0
       181    453.3751    592.6096 307.7257576  +6.4291887     26633.42     80850.19     96577.35     90.85278     181.9231     364.0274      2.719     6.76     1206.274     64.19128     2783.078       102     2.202     1.975 -79.08   0
       182    299.4483    581.6057 307.7901937  +6.4285959     975.6908     2862.254     4080.438     90.56206     181.9231       363.81      3.121     8.15     1207.141     64.19128     121.9246        15     2.059     0.901  41.63   0
       183    725.3801    575.7734 307.6131186  +6.4452011     2687.417     7108.149     8547.035     90.70753     181.8506     364.0636      2.587     6.33     1198.909     64.19128     305.1295        47     1.823     1.741 -67.12   0
       184    778.8847    571.1569 307.5910053  +6.4488867     7206.449     18297.41     20598.08     91.28714     181.9956      364.136      2.436     5.85     1197.971     64.19128     765.9722        61     1.959     1.705 -74.44   0
       185   1018.3418    569.8359 307.4913827  +6.4573823     1552.493     3282.103     3599.517     91.28714     182.1404     352.3581      2.049     6.99      1194.33     64.19128     185.9916        25     1.681     1.188 -81.96  16
       186    995.5602    572.0413 307.5007906  +6.4557159     796.9399     1298.107     877.5256      90.9978     182.2128     364.0274      1.749     5.72     1194.975     64.19128     102.4381         9     1.190     0.776 -12.30   0
       187    604.6580    569.5064 307.6635765  +6.4437719     1137.374      2145.09     2469.005     91.14259     182.1404     364.3532      2.174     5.79     1201.051     64.19128      155.639        12     1.684     0.560 -63.95   2
       188    601.9435    568.3491 307.6647454  +6.4441595     1220.871     2520.737     2953.978     91.28714     182.1404     364.1723      2.201     7.62     1200.979     64.19128     148.0621        16     1.780     0.914 -69.96   3
       189    521.6682    570.1567 307.6980952  +6.4407387     645.7311     1584.216     2003.752     91.28714      182.068     364.2447      2.855     4.93     1203.012     64.19128     85.68689         5     1.054     0.652 -27.79   0
       190    919.4656    565.7363 307.5326758  +6.4557952     794.8065     1400.502     1997.088     91.28714     182.1404     364.1723      2.082     7.51     1196.151     64.19128     103.5931         8     1.448     1.090 -46.13   0
       191    216.8454    563.4759 307.8251877  +6.4333232     695.3231     1510.453     2638.186     91.14259     182.2128     364.2085      2.897     4.64     1207.661     64.19128     101.1531         6     1.309     0.466 -66.81   0
       192    854.8891    554.5859 307.5599306  +6.4582562     1590.283     3761.601      4311.67      90.9978     181.9231     364.0274      2.282     7.13     1196.399     64.19128     193.1715        29     1.604     1.434  51.32   0
       193    813.5203    551.9083 307.5772398  +6.4579878     1418.604     3585.378     4109.161      90.9978     182.4298     364.2447      2.538     7.22     1196.207     64.19128     185.1575        27     1.708     1.463 -51.11   0
       194    241.8832    547.2987 307.8153170  +6.4408413     3236.752     9752.396     11350.47     91.28714     182.5743     364.2809      2.712     6.60     1205.926     64.19128     372.1567        62     2.051     1.882 -79.39   0
       195    794.1446    543.1226 307.5856013  +6.4609725      81511.7       210356     241861.1     91.28714     182.1404     364.2085      2.493     6.03     1195.761     64.19128     8814.148       160     2.316     1.972 -45.00   0
       196    100.1604    538.1975 307.8746101  +6.4398599     2731.664     8069.091     9874.045     90.27039     181.8506     363.8463      2.722     6.95      1207.82     64.19128     336.1722        57     2.040     1.842 -72.27   0
       197    964.8123    534.1067 307.5148685  +6.4703636     978.3771      1910.72     1824.852      90.9978     181.8506      363.955      1.936     5.31     1192.878     64.19128     170.6514        11     1.117     1.064  49.22   0
       198    830.6910    530.1675 307.5708274  +6.4675375     2405.365     6044.998     6919.079     91.43147     181.9231     364.2085      2.429     6.48     1194.927     64.19128        267.6        41     1.790     1.565 -54.41   0
       199    349.4218    528.8597 307.7711856  +6.4520488     6627.444     21407.21     25683.26     90.85278      182.068     364.0636      2.786     7.26     1203.162     64.19128     734.6926        71     2.137     1.939 -79.68   0
       200    153.6296    527.3547 307.8527256  +6.4461271     952.8489     2552.311     4608.375     90.85278     182.2128     364.0274      3.112     7.42     1206.386     64.19128     145.6226        14     2.251     0.685 -51.39   2
       201    517.1924    523.0322 307.7015550  +6.4600522     2578.191     5448.867     6937.596     90.70753     181.9956      363.955      2.399     7.81       1199.5     64.19128     295.6549        33     2.025     1.219  86.99   3
       202    514.0000    523.0521 307.7028831  +6.4599376     2295.356     4645.013     5611.883     90.41634     181.5604     363.6288      2.358     7.67     1199.545     64.19128     274.2949        19     2.087     0.788  86.71   3
       203    783.4835    523.9711 307.5906860  +6.4685279     2697.114     5389.348     6408.784     91.28714     181.8506     364.0274      2.156     6.63     1195.265     64.19128     297.0299        30     2.052     1.111 -89.09   3
       204    786.4896    523.5032 307.5894506  +6.4688211     2065.158     3369.303     4043.629     91.28714     182.6465     364.1723      1.898     5.15     1195.206     64.19128      240.752        17     1.474     0.818 -86.28   3
       205    162.8409    517.0324 307.8492429  +6.4506982     2725.815     8561.453     10431.49     90.85278     181.9956     364.0274      2.775     7.65     1205.531     64.19128     312.8003        53     2.075     1.771  86.37   0
       206    559.7806    516.9854 307.6840338  +6.4639687     1038.754     3181.829     3967.289     90.85278     181.7781     364.0274      2.905    10.53     1198.627     64.19128     142.4192        24     2.064     1.497 -67.95   2
       207     34.4858    515.9930 307.9026988  +6.4468313     2308.668     6807.741     8239.459     90.85278     181.7781     363.9187      2.703     7.57     1207.066     64.19128     286.8929        46     2.005     1.655 -79.17   0
       208    258.0047    513.3760 307.8097598  +6.4553900     33588.09     109458.1     133673.9     90.70753     181.8506     363.9912      2.820     7.44     1202.907     64.19128     4128.038       113     2.279     2.038 -86.03   0
       209    176.0404    541.7769 307.8429079  +6.4409204     24289.75     75566.73     91363.93     90.85278     181.9231     363.9187      2.759     6.90     1206.974     64.19128     2870.944       107     2.257     1.992 -88.51   0
       210    780.9395    505.4743 307.5923701  +6.4760828      8109.38     21374.89     24120.39     91.57557     182.1404     364.1723      2.502     6.22     1194.552     64.19128      786.864        62     1.973     1.730 -89.81   0
       211    484.6700    504.0720 307.7157342  +6.4667987     17493.29     53673.41      67779.5     91.43147     182.2852      364.136      2.870     7.06     1198.687     64.19128     1594.267       106     2.230     2.156 -83.33   0
       212    956.7555    505.8651 307.5191749  +6.4817605     833.4645     1689.395     1458.211     91.28714      182.068     364.1723      2.216     5.11     1191.449     64.19128     93.24207         9     1.206     0.612 -82.11   0
       213    197.7162    500.5826 307.8352871  +6.4586583     1076.295     2902.182     2972.245     90.85278     181.7781     364.0999      2.389     9.08     1203.934     64.19128     180.7166        21     1.664     1.384 -67.25   0
       214    646.3113    499.1105 307.6486225  +6.4742328     977.7001     2071.799     3393.911      90.9978     182.7187     364.2809      3.373     7.95     1196.401     64.19128     117.3141        15     1.670     1.073 -48.23   2
       215    642.9865    497.7949 307.6500509  +6.4746654     987.8588     2210.165     3078.485     90.85278     181.8506     364.0274      2.707     6.79     1196.438     64.19128     169.6951        14     1.754     0.738 -61.00   3
       216    382.0271    495.3604 307.7587518  +6.4669725     863.9435     2145.688     2304.492     90.85278     181.9231     364.0274      2.445     8.51     1198.858     64.19128     114.6488        14     1.770     1.144  79.97   0
       217    312.4670    491.9670 307.7878192  +6.4660514     1390.239     2636.823     3273.281     91.14259     182.2128     364.1723      1.946     6.23     1199.198     64.19128     159.3174        14     1.541     0.709 -63.66   3
       218    313.6790    496.3403 307.7871663  +6.4642858     923.2437     1577.861     2538.309     91.43147     182.1404     364.0999      1.934     4.61     1199.623     64.19128     145.4335         7     1.086     0.555  42.48   3
       219    315.5443    492.8452 307.7865086  +6.4657915      1628.56     2883.778     3918.761     91.28714     182.1404     364.1723      2.004     6.56     1199.271     64.19128     212.5753        18     1.613     0.832 -79.81   3
       220    129.1433    491.8814 307.8641233  +6.4599581     10944.36     33057.51     39489.98     91.43147     182.1404     364.1723      2.720     6.78     1204.807     64.19128      1389.75        81     2.176     1.933  89.27   0
       221    495.3565    493.0446 307.7116600  +6.4717093     905.8938     2181.213      3301.02     91.28714     182.1404      364.136      3.325     6.82     1197.879     64.19128     118.2295        15     1.715     0.762 -79.06   2
       222     95.6382    490.4860 307.8781157  +6.4594130     1369.652     3335.108     3883.683     91.28714      182.068     364.1723      2.748     7.82     1205.711     64.19128     158.1698        21     1.775     0.963  83.68   2
       223    857.4926    490.8665 307.5609991  +6.4846597     656.8498     1607.197     1305.376     91.14259     182.3575     364.1723      2.279     5.45      1192.24     64.19128     95.00085         8     1.760     0.476  42.77   0
       224    954.3114    486.0074 307.5208624  +6.4898809     3161.034     6681.581     7602.573     90.70753     181.7781     363.8825      2.253     5.17     1190.342     64.19128     388.5642        38     1.667     1.413  89.46   0
       225    427.9858    472.5129 307.7403979  +6.4779421     16475.78      30878.7     34788.23     90.85278     181.9231     364.0636      2.060     7.63     1196.586     64.19128     1803.859        47     2.176     1.107 -76.74   3
       226    424.4069    472.1804 307.7418988  +6.4779601        14070     30895.53     36095.36     90.85278     181.8506      363.955      2.310     8.10     1196.518     64.19128      1501.55        48     2.364     1.063 -83.93   3
       227    633.9583    472.2732 307.6546728  +6.4849056     5346.425     15479.61     17763.83     91.14259     182.2128     364.2085      2.618     6.84     1195.154     64.19128     500.9291        65     2.000     1.876 -73.40   0
       228    191.3207    470.5068 307.8389715  +6.4708656     7838.685     24979.96        30940      90.9978     182.3575     364.2447      2.849     7.28     1202.002     64.19128     861.9229        80     2.206     1.987  79.96   0
       229    557.1786    469.3138 307.6867318  +6.4835707       1102.1     2321.428     2943.864     91.28714     181.8506     364.0274      2.306     6.99     1195.708     64.19128     130.6649        15     1.503     0.912 -87.32   3
       230    553.8766    468.5102 307.6881334  +6.4837925     937.0782     2024.881     2749.495     91.28714     182.4298     364.2447      2.483     6.29     1195.717     64.19128     132.4613        12     1.692     0.657 -81.62   3
       231    158.5309    471.5767 307.8525827  +6.4693270     654.3052     1435.621     2152.932     90.85278     181.9956      364.136      2.429     5.72     1202.587     64.19128     81.77283         7     1.587     0.580 -71.13   0
       232    929.5163    466.1783 307.5318527  +6.4972477      2537.17     5964.888       6347.8      90.9978     181.7781     364.0274      2.227     5.82     1190.001     64.19128     279.8744        38     1.692     1.497 -78.35   0
       233    601.0000    465.0060 307.6686374  +6.4868095     2241.506       4588.9     5276.037     90.41634     181.7056     363.9187      2.106     7.52     1195.172     64.19128      263.371        22     1.813     0.953  76.05   3
       234    604.2998    463.7849 307.6673053  +6.4874238     2567.635      4954.26     6204.373     91.28714     181.8506       363.81      2.164     7.15     1195.064     64.19128     298.7772        29     1.986     1.075  66.66   3
       235    951.9745    458.5617 307.5227613  +6.5011388     1997.035     4422.819     4971.834     90.85278     181.9231      363.955      2.231     5.99     1188.596     64.19128     262.9453        33     1.659     1.422  88.96   0
       236    513.5110    455.9432 307.7053610  +6.4876375     2852.539     6123.246     7939.513     91.28714      182.068     364.3171      2.414     7.84     1194.418     64.19128     296.9349        37     2.288     1.193  79.56   3
       237    516.7095    455.2934 307.7040517  +6.4880125      2709.76     5262.134     6800.375     91.28714     182.7187     364.2085      2.156     5.97     1194.309     64.19128     331.4176        18     1.501     0.882  83.82   3
       238    362.2389    456.0012 307.7683240  +6.4825673     1170.177      3219.94     4671.821     90.27039     181.8506     363.8463      3.087     7.49     1195.393     64.19128     152.3262        24     1.643     1.293  50.14   2
       239    871.2085    451.5057 307.5566192  +6.5013718     1815.029     4313.564     5786.864     90.85278     181.7056     363.9187      2.782     6.40     1189.968     64.19128     202.9678        33     1.760     1.433 -51.07   0
       240    878.5843    445.5712 307.5537494  +6.5040678     1282.766     2798.422     3319.439     90.85278     181.8506     364.0636      2.276     8.10      1189.56     64.19128     156.2687        19     1.626     1.127  35.36   0
       241    917.9427    444.1987 307.5374123  +6.5059415     618.1793     1248.329     1260.141     90.56205     181.7781     363.8463      2.045     5.08     1188.807     64.19128     86.11975         6     1.477     0.495 -43.47   0
       242    702.8185    442.0668 307.6270320  +6.4996728     1237.778     3662.015     4244.782     90.85278      182.068     364.0636      2.651     9.45     1191.756     64.19128     140.0728        31     1.947     1.473 -42.89   0
       243    375.3779    439.7495 307.7634068  +6.4897179     1469.233     3138.252     3516.023     90.70753     182.2128     364.0274      2.384     9.39     1193.967     64.19128     189.5603        28     2.148     1.479  63.65   2
       244    371.9983    440.2509 307.7647965  +6.4893980     1204.667     2498.593     2945.109     90.56205     181.7056     363.7013      2.338     7.23     1193.986     64.19128     135.6213        15     1.628     0.899  81.64   3
       245     67.0000    441.5331 307.8917014  +6.4786713     743.7166     1203.111     1865.951     90.41634     181.5604     363.8463      1.622     6.40     1204.034     64.19128     104.4784        11     1.863     0.617  55.80   2
       246     63.6878    442.7254 307.8930394  +6.4780680     707.5659     1793.535     1802.834     91.28714      182.502     364.2809      2.325     7.64      1204.11     64.19128     105.3804         9     1.769     0.922  59.35   2
       247    603.6089    436.7994 307.6685067  +6.4985460     3569.003     6901.007     7851.047     90.56205     181.7781     363.9187      2.037     6.99     1192.371     64.19128     382.6239        30     1.870     1.096 -86.02   3
       248    600.1906    436.3938 307.6699433  +6.4985996     3736.667     7891.165     10042.94     90.56205     181.9231     363.9912      2.375     7.64     1192.273     64.19128     402.2985        36     2.358     1.053 -88.34   3
       249    764.2373    433.1372 307.6017679  +6.5054035     7820.384     21448.69     25823.25     91.28714     182.2128     364.1723      2.644     6.71     1190.685     64.19128     820.9559        75     2.168     1.826 -61.03   0
       250    284.8111    434.4099 307.8012852  +6.4888985     949.3005      2767.55     3722.558      90.9978     181.9231      364.136      2.856     9.53     1194.553     64.19128     117.6625        18     1.996     1.269 -41.24   0
       251    791.4650    430.1616 307.5905346  +6.5075377     580.5172     1525.518     1653.443     91.14259      182.068     364.2447      2.464     3.61     1190.417     64.19128     94.89648         5     1.043     0.360  -4.52   0
       252    948.8890    427.8935 307.5250807  +6.5137029     1198.335     2191.645     2642.331     91.28714     182.6465     364.2447      1.960     4.88     1186.603     64.19128     163.8877        13     1.088     0.941 -85.05   0
       253    101.9151    425.7734 307.8777055  +6.4863488     1759.647      5426.98     6744.398     91.43147     181.8506     364.0274      2.777     8.16     1202.644     64.19128     232.2108        41     1.853     1.707  84.83   0
       254    738.7043    425.6744 307.6126487  +6.5076367     1044.115     2552.297     3006.979      90.9978     182.3575     364.1723      2.470     5.77     1190.273     64.19128     140.5701        11     1.371     0.902  40.29   2
       255   1003.1725    422.9693 307.5026501  +6.5175376     2831.224     6144.477     7158.314     90.70753     181.8506      363.955      2.327     5.21     1183.546     64.19128     333.2087        37     1.609     1.497  14.62   0
       256    338.8749    420.2888 307.7792614  +6.4965364      1257.37     3423.271     4718.464     91.28714      182.502     364.2809      3.000    10.61     1192.597     64.19128     142.3291        25     1.913     1.641 -74.48   2
       257    692.4731    418.8464 307.6321240  +6.5089188     727.3018     1759.791     2091.579     91.14259     182.2128     364.1723      2.436     4.15     1190.299     64.19128     109.1544         6     1.004     0.490 -83.58   0
       258    819.6423    407.3783 307.5795753  +6.5178839     810.3276     1972.763     2182.823     90.85278     181.9956     363.9912      2.698     6.89     1188.352     64.19128     104.4082        11     1.683     0.791 -37.19   0
       259    701.5067    405.2029 307.6288252  +6.5148543      6392.55     13946.25      17121.1      90.9978     181.7781     363.8463      2.372     6.76     1189.008     64.19128     696.6132        43     2.216     1.162  88.02   3
       260    704.4341    405.2639 307.6276046  +6.5149265     5186.915     9226.861     10565.78     91.14259     182.2128     364.1723      1.995     5.52     1188.989     64.19128     569.4995        28     1.826     0.991 -86.51   3
       261    803.9190    406.3310 307.5861559  +6.5177939     919.9241     2523.361     2654.843     91.57557     182.4298     364.2085      2.545     7.82     1188.563     64.19128     146.7871        14     1.717     0.997 -68.01   2
       262    623.4542    401.0712 307.6614557  +6.5139628     1102.469     3286.607     3918.672     91.14259     181.9956      364.136      2.698     8.86     1188.915     64.19128     131.5365        24     1.678     1.307 -40.25   0
       263    597.4048    396.2280 307.6724632  +6.5150956     6408.118     15268.53     21826.69     90.70753     181.9231     363.9912      2.941     6.69     1188.448     64.19128      729.036        67     2.478     1.740  75.26   3
       264    593.6009    395.5681 307.6740690  +6.5152414     5512.921     11000.79     12345.77     90.56206     181.9231     363.8825      2.149     7.35     1188.446     64.19128     579.9823        35     2.188     0.972 -80.16   3
       265    927.7529    395.1359 307.5349849  +6.5265307     2275.214     5263.063     5767.432     91.14259      182.068     364.2447      2.294     6.03     1185.235     64.19128     264.6653        35     1.699     1.457 -79.54   0
       266    367.1273    391.1797 307.7684896  +6.5095018     10773.03     35917.88      44277.2     90.85278     181.9956      364.136      2.846     7.64     1190.401     64.19128     1152.217        85     2.254     2.011 -82.67   0
       267    113.5961    391.4765 307.8740107  +6.5009041     1011.852     2946.734     3579.197     90.85278     181.5604     363.9912      2.697     8.93     1200.367     64.19128     132.0865        20     1.638     1.359 -11.20   0
       268    882.5673    391.7897 307.5539078  +6.5264125     771.0007     1682.874     2880.624     90.70753     181.8506     363.9912      3.115     5.36     1185.719     64.19128     100.9069         8     1.035     0.945  75.90   2
       269    881.7427    388.3104 307.5543685  +6.5278221     711.3028      1475.62      2977.86     91.14259      182.068     364.3171      3.491     3.72     1185.362     64.19128     139.6029         5     0.990     0.504  47.24   3
       270    896.5106    385.3444 307.5483211  +6.5295375     3055.489     6861.868     7601.555     91.28714     181.9956     364.3171      2.288     5.50     1184.885     64.19128     313.6107        40     1.734     1.470  75.77   0
       271    224.6934    381.8288 307.8280955  +6.5086050      5105.17     17256.01     21221.73     91.43147     181.8506     364.0636      2.869     7.78     1194.365     64.19128     591.2629        73     2.254     1.958 -88.62   0
       272     46.3887    385.4696 307.9021892  +6.5011346     614.2683     1791.733     2228.082     90.70753     181.9231     363.9912      2.874     5.53     1202.599     64.19128     99.01123         5     1.301     0.661 -43.83   0
       273    125.0456    370.3672 307.8699632  +6.5100052     1988.025     6576.359      8246.34      90.9978     182.1404     364.0636      2.859     8.28     1198.828     64.19128     283.1686        55     2.183     1.838  86.20   0
       274    148.5424    365.7025 307.8603415  +6.5127181     1051.722     2652.492     4021.618      90.9978      182.068     364.3894      3.035     8.23     1197.511     64.19128     148.1681        19     1.726     1.098 -63.15   2
       275    369.5380    361.4996 307.7684937  +6.5218401     739.2408     2372.804     2790.396      90.9978     182.1404     364.3171      2.850     8.42     1188.406     64.19128     120.8644        13     1.633     1.214  86.83   2
       276    424.2459    354.6770 307.7459522  +6.5264837     2763.222     8926.725      10842.1     91.14259     182.2128     364.1723      2.806     7.93     1186.725     64.19128     362.7938        56     2.054     1.837 -80.84   0
       277     21.8991    356.1148 307.9133824  +6.5124374     1441.231     3670.723     5169.922     91.28714     182.6465     364.2447      2.911     8.96     1202.574     64.19128        182.5        27     1.812     1.531 -57.41   2
       278    763.5413    351.7881 307.6048083  +6.5389784     5826.646     12340.76     15814.49     90.56205      182.068     363.8463      2.310     6.50      1184.12     64.19128     601.7909        42     2.223     1.156  86.27   3
       279    766.4970    351.4990 307.6035877  +6.5391961     4694.429     7877.729     9516.086     91.28714     182.7187     363.9912      1.914     4.53     1184.043     64.19128     494.6229        21     1.500     0.910 -88.70   3
       280    756.2083    353.9397 307.6077882  +6.5378459     949.3132      2184.78     2584.794     90.56205     181.9231     363.8825      2.434     7.26     1184.356     64.19128      121.817        12     1.379     1.071  69.89   0
       281   1008.4299    346.6296 307.5030367  +6.5492414     2369.789     4849.857     4808.155     90.70753     181.8506     363.8825      2.112     5.05     1179.667     64.19128     278.9376        31     1.613     1.297  85.28   0
       282    473.0257    338.9226 307.7261809  +6.5346175     1073.573     3271.466     4161.837      90.9978      182.068      364.136      2.860     9.90     1184.416     64.19128      148.009        29     2.083     1.311 -47.51   2
       283    442.7910    338.2216 307.7387906  +6.5338986     853.3028     2233.438     2995.444     90.85278     181.8506      363.955      2.622     7.29     1185.089     64.19128     114.3475        13     1.702     0.874  88.69   2
       284    447.0636    336.6917 307.7370640  +6.5346729     648.1102     1532.358     2289.477     91.28714     182.3575     364.2447      1.606     3.89     1184.922     64.19128     98.44275         5     1.256     0.344  47.45   2
       285    830.0713    334.6071 307.5776932  +6.5482857     16813.62     44255.02     51747.62     90.70753      181.633     364.0999      2.534     6.11     1182.072     64.19128     1794.262        84     2.137     1.783 -79.16   0
       286    601.9457    326.7532 307.6729260  +6.5439403     1196.069      3188.69     3590.522     91.28714     182.1404     364.2085      2.594     9.51     1182.223     64.19128     132.4551        28     1.977     1.276 -42.42   0
       287    685.4583    320.9829 307.6383558  +6.5491038     33283.38     73110.48     84641.19     90.85278      182.068     363.8825      2.305     6.81      1182.21     64.19128     3208.952        70     2.433     1.232  88.53   3
       288    688.4069    320.7782 307.6371352  +6.5492864     28082.09      48950.7     54265.48     90.70753     181.9231      363.955      1.889     5.25     1182.235     64.19128      2836.12        45     1.818     1.069 -82.75   3
       289     86.5237    316.5316 307.8878303  +6.5309492     2536.215     8124.494      10051.9     91.43147     182.2852     364.1723      2.833     8.02     1199.397     64.19128     299.5387        57     2.217     1.791 -83.96   0
       290    547.8364    317.6266 307.6957604  +6.5459069     941.3763     2652.856      3341.34     90.85278     181.9231      363.955      2.829     7.73     1181.449     64.19128     125.3204        15     1.683     0.992  84.79   2
       291    531.2404    313.3841 307.7028129  +6.5471059     2594.545     6135.199     7515.772     90.70753     181.9231     363.9187      2.461     8.06     1181.315     64.19128     277.0411        34     2.283     1.091 -89.06   3
       292    534.4937    314.0278 307.7014368  +6.5469485     2439.657     4615.595     5416.293     91.43147     181.8506     364.0636      2.041     6.64     1181.334     64.19128     257.5659        26     1.869     0.982 -84.22   3
       293    262.4109    310.8961 307.8148061  +6.5391606     990.9756     2763.198     3713.054      90.9978     181.7056      363.955      2.875     7.77      1189.97     64.19128     127.0725        14     1.751     0.964  30.30   2
       294    395.2570    308.9749 307.7595705  +6.5443912     9335.156     32148.66     39996.76     90.85278     182.1404     363.9912      2.896     7.82     1184.683     64.19128     1007.825        88     2.269     2.052 -84.63   0
       295    485.8845    299.4299 307.7221672  +6.5513569     3148.243     6775.089     7823.367     91.28714     181.9231     364.0274      2.222     7.24     1181.312     64.19128     322.8107        36     2.015     1.213 -82.12   3
       296    482.5223    299.2633 307.7235725  +6.5513136      2786.75     5405.852     6940.112     91.57557     182.2128     364.1723      2.099     6.59      1181.39     64.19128     329.6178        27     2.213     0.821 -86.85   3
       297    753.4132    298.5001 307.6108268  +6.5606500     1449.656     3981.771     4470.042      90.9978     181.8506     363.9187      2.604     7.86     1181.313     64.19128     171.3915        32     1.686     1.548  44.39   0
       298    376.4096    283.3405 307.7682865  +6.5543490     2682.416     5153.814     6249.222     90.56205     181.9956     363.8463      2.120     9.17     1184.141     64.19128     300.4735        30     2.144     1.096 -67.49   3
       299    372.2262    283.1380 307.7700349  +6.5542930     2270.518     4655.954     5419.456     90.85278      182.068     364.0636      2.237     7.82     1184.332     64.19128     269.6761        29     2.125     0.951 -82.18   3
       300    230.9357    284.6470 307.8288008  +6.5489491     813.5716     2091.095     2912.711     91.14259      182.068     364.2447      2.685     8.27      1190.45     64.19128     134.4998        14     1.813     1.054 -50.58   0
       301    740.5700    279.2221 307.6168256  +6.5681848     22874.83     45394.32     51664.06     90.56205     181.9231     363.9912      2.121     6.81      1180.03     64.19128     2315.604        54     2.236     1.081 -88.92   3
       302    744.0000    279.0093 307.6154048  +6.5683868     18151.27     32498.26     36029.24     90.41634     181.7056     363.8463      1.922     5.90      1180.03     64.19128     2194.485        39     1.910     0.966 -85.52   3
       303    415.3557    278.6950 307.7522312  +6.5575676     1025.671     2513.323     3578.623     91.28714     182.1404     364.3171      2.840     9.57     1182.102     64.19128     153.5608        15     1.980     1.363   7.75   2
       304    917.6112    275.6418 307.5432414  +6.5755466     1197.864     2861.146     3084.452     90.56205     181.9231     363.8825      2.409     7.80     1176.735     64.19128     138.1409        17     1.397     1.218 -31.59   0
       305    975.6832    276.4468 307.5190376  +6.5771415     1190.048     2533.737     3104.317     91.28714     182.1404     364.1723      2.133     5.77     1174.033     64.19128     158.8676        12     1.422     0.660  89.31   2
       306    820.6367    267.8622 307.5838767  +6.5755385     847.4963     1562.479     1489.104     91.28714     182.2128     364.1723      1.852     4.52     1178.659     64.19128     136.3168         7     0.991     0.585 -34.66   0
       307    178.3831    266.2547 307.8513029  +6.5547875     1063.269     2670.627     3860.494     90.70753      182.068     363.8825      3.069     5.85     1193.106     64.19128     146.8571        13     1.526     0.791 -55.67   2
       308    740.5019    263.6392 307.6173811  +6.5746184      2810.18     7765.854     9218.685     91.28714     181.9956     364.4256      2.627     6.71     1178.938     64.19128     310.5262        50     1.902     1.767 -79.74   0
       309    756.6262    261.7285 307.6107329  +6.5759438     1183.141     3200.686     3684.387     90.85278     181.9956     364.0999      2.490     8.88     1178.792     64.19128     153.1329        20     1.610     1.369  58.48   0
       310     61.7162    257.4153 307.9001698  +6.5545327      701.479     1276.154      2090.35     90.85278     181.7781     364.0636      3.284     5.26     1199.206     64.19128     98.56848         7     0.928     0.841 -84.02   0
       311    994.8708    252.4353 307.5118596  +6.5876951     3878.059     7992.897     9193.886     91.14259     182.1404     364.1723      2.161     4.70     1171.924     64.19128     448.8953        40     1.638     1.433 -76.26   0
       312    347.4817    255.4738 307.7812752  +6.5648920     650.9402     1820.136     3506.721     91.57557      182.502     364.2447      3.112     3.55     1184.188     64.19128     99.70679         5     0.804     0.452  71.95   2
       313    474.9979    252.6587 307.7282855  +6.5703104     765.7098     1683.717     2073.576     90.56205     181.7781     363.8463      2.631     5.75     1176.995     64.19128     99.22253        10     1.194     0.781  89.96   0
       314    471.0909    252.8753 307.7299047  +6.5700906     618.2859     1282.139     1599.513     91.28714     182.4298     364.2085      2.251     6.96     1177.263     64.19128     107.0564         8     1.397     0.972 -79.21   0
       315    235.9528    248.2096 307.8279510  +6.5641653       2100.6     7439.793     9490.785     90.70753     181.9956     363.7738      2.931     8.20     1189.205     64.19128     258.5538        56     2.198     1.890  84.54   0
       316    372.1586    238.8796 307.7715657  +6.5725693      651.536     1412.632     1478.223     91.28714     182.1404      364.136      2.281     5.02      1182.27     64.19128     100.5435         7     1.280     0.558  73.82   2
       317    369.2413    239.7262 307.7727514  +6.5721223       616.48     1521.776     1593.523     91.14259     182.2128     364.2085      2.142     4.33     1182.451     64.19128     110.3749         5     1.019     0.525  46.20   3
       318    956.1732    237.5951 307.5284716  +6.5925403     685.0972     1434.197     1899.449     90.70753     181.9231     363.9912      2.363     5.54     1173.132     64.19128     106.5719         7     0.971     0.892 -18.76   0
       319    139.0724    237.3100 307.8686521  +6.5654259     703.0303     1778.823     2779.052     91.28714     182.4298     364.1723      2.544     4.47     1195.021     64.19128     110.3068         7     1.309     0.435 -22.75   2
       320    892.3824    229.7109 307.5552962  +6.5936788     1005.109     2472.162     3344.185      90.9978     181.8506     364.0636      2.687     7.90      1174.84     64.19128     127.6887        16     1.683     1.036  69.73   0
       321    547.6089    231.2935 307.6987811  +6.5815551     924.3698     1816.614      2493.04     90.85278     181.7056      363.955      2.307     6.46     1173.908     64.19128     112.7532        11     1.613     0.726  84.84   2
       322    551.1658    230.6947 307.6973206  +6.5819209     893.8809     1851.328     2636.801     91.43147     181.9956     364.2809      2.291     5.18     1173.936     64.19128     122.7451         8     1.160     0.654 -63.34   3
       323    711.7592    228.3397 307.6305417  +6.5882412     2286.258     5276.185     6163.579     91.28714     182.1404     364.2447      2.395     7.33     1175.978     64.19128     263.0699        33     2.032     1.291  78.71   3
       324    714.6621    227.3536 307.6293664  +6.5887450     1689.787     3019.348     3578.003     91.14259     181.9956     364.2085      2.091     4.82     1175.946     64.19128     213.3621        16     1.338     0.989  73.09   3
       325    653.9490    228.3613 307.6546088  +6.5863082     1088.699       3019.4     3341.065      90.9978      182.068      364.136      2.535     9.15     1175.095     64.19128     127.0026        25     1.555     1.502 -52.46   0
       326    212.6490    213.7339 307.8388245  +6.5776242     918.7851     2888.071     3439.113     91.14259     181.9956     364.2085      2.822     9.96     1190.441     64.19128     148.1832        19     1.882     1.470  40.00   0
       327    854.1682    212.4079 307.5717908  +6.5995558     1038.696     2060.058     2271.609     90.70753     181.9231      363.955      2.035     6.42     1174.576     64.19128     133.4348        14     1.276     0.907 -89.00   0
       328    744.5831    211.6063 307.6174422  +6.5962441     639.9032     1405.039     1608.237     90.85278     181.8506     363.9912      2.066     4.97     1175.366     64.19128     97.42639         7     1.659     0.422  80.83   0
       329    446.5296    203.2768 307.7418125  +6.5897554      8480.71     28897.84     35896.71     91.57557     182.4298     364.1723      2.889     8.01     1175.358     64.19128     957.3953        87     2.291     2.055 -68.89   0
       330    771.0007    202.4789 307.6067523  +6.6008923     5999.427     12902.65     15372.99     90.41634     181.4151     363.8825      2.303     6.58     1174.804     64.19128     645.8696        42     2.161     1.192  85.24   3
       331    774.0000    202.0061 307.6055196  +6.6011873     4838.304     8800.094     10577.67     90.41634     181.7056     363.9187      1.969     4.99     1174.804     64.19128     566.9896        25     1.805     0.959 -87.56   3
       332    135.7861    196.8982 307.8713955  +6.5820055     942.9906     2413.682     3221.162     91.14259     181.8506     363.8825      3.043     8.82     1194.802     64.19128     121.8597        15     1.937     1.122 -86.53   2
       333    907.8045    192.0182 307.5501485  +6.6097583     650.0264      1230.85     1473.281     90.85278     181.7056      363.955      2.058     4.36     1171.866     64.19128     84.18396         5     1.367     0.397  89.88   0
       334    568.7452    189.3529 307.6914030  +6.5995809     1683.223     3264.225     4069.439     91.28714     182.1404     364.2447      2.191     7.92     1172.734     64.19128     211.2446        23     2.135     0.822  89.09   3
       335    571.8228    188.8456 307.6901389  +6.5998930     1803.223     3487.168     3982.323     90.85278     182.1404     363.9912      2.034     6.51     1172.764     64.19128       216.91        23     1.702     1.014  87.30   3
       336    534.6905    189.7917 307.7055662  +6.5982648     804.3645     1968.075     2539.458     90.85278     181.7781     363.9187      2.629     8.18     1172.548     64.19128     110.0917         8     1.674     1.117 -45.73   2
       337    931.0792    186.1165 307.5406574  +6.6129685     1344.186     3351.892     3281.218     91.43147      182.502      364.317      2.295     7.07     1170.721     64.19128     214.8833        25     1.587     1.531  22.46   0
       338    877.3589    185.2812 307.5630520  +6.6115297     6167.308     15110.49     16755.65     91.28714     182.1404     364.0999      2.361     5.91     1172.358     64.19128     636.6666        56     1.934     1.607  89.63   0
       339      3.9094    182.5400 307.9267847  +6.5835182     11170.75     32682.19     38703.79     91.14259     179.0741     318.0573      2.664     6.83     1201.854     64.19128     1211.714        75     2.212     1.803 -88.17  24
       340    963.9300    183.0731 307.5270826  +6.6153158     6049.665     13459.94     14700.84     91.43147     182.2852     364.2085      2.248     5.17     1169.611     64.19128     757.6727        52     1.797     1.548  87.01   0
       341    674.5128    184.4937 307.6475327  +6.6051102     1046.626     2146.926     2862.791     91.28714     182.6465     364.2447      2.601     6.64     1173.724     64.19128     116.3582        12     1.492     0.828  77.54   3
       342    676.8802    182.8960 307.6466011  +6.6058489     1065.743       2508.7      3471.67      90.9978     182.4298     364.2809      2.555     8.58     1173.687     64.19128     163.3755        20     1.915     1.074  65.01   2
       343    486.0307    178.9397 307.7261927  +6.6011242     781.5294     1658.779     2587.311      90.9978     182.1404      364.136      3.185     4.98     1172.467     64.19128     102.8762         8     1.009     0.695 -87.51   0
       344    332.3429    171.4922 307.7904301  +6.5990703     2761.345     6273.965     10375.51     91.14259      182.068     364.2809      3.107    14.14     1183.546     64.19128     473.0699        56     3.588     1.551 -62.86   2
       345    329.3132    170.6957 307.7917185  +6.5992980     2443.429     5354.827     6775.372     91.28714     182.5743     364.2447      2.411     7.21     1183.869     64.19128     302.3363        20     1.904     0.955  85.80   3
       346    867.4796    173.7771 307.5675540  +6.6159528     951.9697     2472.137     2852.677     90.85278     181.7781      364.136      2.430     8.77      1171.99     64.19128     130.3619        16     1.618     1.327  67.85   0
       347    496.9878    176.3223 307.7217197  +6.6025706     707.4486     1945.899     2450.982     90.85278     181.7056     363.9912      2.989     7.08     1172.367     64.19128     179.7656         7     1.849     0.760  -5.37   2
       348    494.2788    173.6252 307.7229390  +6.6035941      807.341     2144.699     2540.921      90.9978     181.9956      364.136      2.660     3.20     1172.338     64.19128     112.7509         5     0.736     0.469 -77.80   3
       349    814.9800    175.5581 307.5893521  +6.6134728     911.1154     2412.914     2673.907     90.70753     181.9231      363.955      2.645     6.71     1173.088     64.19128     121.6807        14     1.844     0.686  79.98   2
       350    727.5760    171.3080 307.6258864  +6.6123218     18546.46     52650.07     62203.07     91.43147     181.9231     363.9912      2.653     6.62     1173.085     64.19128     1827.332        92     2.129     1.940 -79.83   0
       351    961.1271    170.0571 307.5286890  +6.6205985     1774.027     3907.433     4695.612     91.28714     182.1404      364.136      2.365     6.67     1168.904     64.19128     206.1046        28     1.721     1.195  52.86   0
       352    895.3769    168.3312 307.5561229  +6.6191286     4044.636     9802.539     11544.87     90.85278      182.068      364.136      2.426     6.17     1170.629     64.19128     412.5823        47     1.770     1.644  89.36   0
       353    438.0084    169.5029 307.7465061  +6.6034196      1820.51     3798.852      4728.38      90.9978     181.7056     363.9187      2.242     9.17     1173.613     64.19128     188.7397        28     2.255     1.040  78.01   3
       354    440.7893    167.3971 307.7454198  +6.6043821     2021.538     3607.858     4036.013     90.85278     181.7781     364.0274      1.905     5.65     1173.316     64.19128     258.9429        21     1.637     0.935  75.04   3
       355    999.3671    168.7214 307.5128125  +6.6224190     1130.329      2717.44     2980.397     91.14259     182.1404     364.1723      2.269     8.13     1168.059     64.19128     159.8828        20     1.418     1.302  43.79   0
       356     96.6102    159.5141 307.8889773  +6.5961331     1963.751     5985.263     7337.005     90.85278     181.7781     363.9912      2.761     7.56     1196.191     64.19128     252.6194        45     1.936     1.672  84.17   0
       357    266.7910    155.9076 307.8182505  +6.6033162     12417.31     42684.11     53148.58     90.85278     181.7781      363.955      2.876     7.76     1190.039     64.19128     1452.418        95     2.302     2.050 -80.04   0
       358    242.1999    156.9884 307.8284517  +6.6020477     2403.798     8219.423     9930.861     90.85278     181.7781      363.955      2.868     8.61     1191.649     64.19128     274.1588        55     2.103     1.848  84.53   0
       359    390.8252    151.3143 307.7667674  +6.6093566      18519.7     62643.48     77415.89     91.43147     181.8506     363.9912      2.867     8.10     1176.615     64.19128     2037.804       105     2.314     2.060 -80.49   0
       360    147.7411    153.4198 307.8678982  +6.6003616     1686.345      4953.37     6626.723     90.85278     181.9956      363.955      2.976    10.57     1194.064     64.19128      197.694        37     2.102     1.851  63.30   2
       361    295.4957    148.9947 307.8065350  +6.6071305     7237.644     22713.18     31172.74      90.9978     181.7781     363.9187      3.122     8.33     1188.005     64.19128     790.6339       111     2.779     2.252  -8.92   0
       362    730.0319    147.2762 307.6256771  +6.6223287     15061.53     43150.87     50208.42     91.14259     182.2128      364.136      2.597     6.67     1171.763     64.19128      1468.16        84     2.084     1.907 -78.36   0
       363     47.0938    144.9568 307.9100873  +6.6004865     3990.499     11850.55     12913.76     91.28714     182.1404      364.317      2.603     6.76     1199.213     64.19128     465.8815        61     2.113     1.782 -88.33   0
       364    988.1846    142.8351 307.5183422  +6.6327393     732.4127     1238.882     1623.045     90.85278     181.8506     363.9912      1.989     3.83     1167.011     64.19128      103.282         5     0.911     0.461 -44.40   0
       365     82.2469    142.9668 307.8955203  +6.6024859     752.9439      1256.08     1719.198      90.9978     182.1404     364.0999      2.073     4.29     1196.954     64.19128     113.7335         7     0.767     0.684  80.34   0
       366    989.3243    127.7061 307.5183783  +6.6390255     1467.149     3258.886     4244.962     91.14259     182.3575     364.1723      2.639     5.99      1166.25     64.19128     190.1577        22     1.709     1.020  58.52   0
       367    265.6985    122.1701 307.8198522  +6.6172129     11562.14     38918.02     49231.95     91.28714     181.8506     364.2085      2.884     7.79     1190.271     64.19128     1428.778        92     2.296     2.051 -84.69   0
       368    579.1229    123.6046 307.6893105  +6.6270808     711.4399      1881.86     3577.276     90.85278     181.5604     363.9912      2.597     5.12     1171.437     64.19128     116.4692         8     1.620     0.457  77.72   2
       369    582.1952    122.6204 307.6880647  +6.6275896     859.3496     1532.191     2995.496     90.85278     181.7781      363.955      2.960     5.70     1171.436     64.19128     100.8241         9     1.083     0.844 -23.16   2
       370     12.0034    120.9516 307.9255139  +6.6092243     2164.017     4617.962     5527.726     90.56205     181.8506     363.7013      2.380     7.84     1201.388     64.19128     249.9697        35     2.031     1.437  86.01  19
       371      9.0000    121.9314 307.9267309  +6.6087190     1258.465     2371.983       2477.4     90.70753     181.5604     363.9187      2.329     5.67      1201.59     64.19128     168.2437        11     1.583     0.572  88.25  19
       372    696.0079    119.0320 307.6407992  +6.6328615     3266.178     6899.247     8985.924     90.70753     181.9956      363.955      2.454     7.49     1170.281     64.19128     388.7351        32     2.205     0.955  79.09   3
       373    698.9902    118.2566 307.6395837  +6.6332810     2929.365      5031.76     6729.102     90.56205      182.068       363.81      2.052     5.89     1170.217     64.19128     327.1772        23     1.782     0.837 -86.08   3
       374    108.1368    115.9004 307.8856635  +6.6145308     1978.807     6166.396     6945.463      90.9978     182.2128     364.2085      2.631     8.12     1195.276     64.19128     238.6615        50     2.005     1.784 -82.77   0
       375    377.0151    109.9793 307.7739207  +6.6259666     1055.979     2585.489     3557.246      90.9978     181.8506     364.0636      2.572     7.50     1179.296     64.19128     123.8661        15     1.626     0.968 -53.22   3
       376    377.9255    113.9454 307.7734069  +6.6243591     1334.743     2401.439     3294.323     91.14259      182.068      364.136      2.077     6.39     1179.055     64.19128     183.4983        14     1.420     0.849  23.81   3
       377    380.5849    111.7091 307.7723756  +6.6253714       1640.2     3446.565     4733.828      90.9978     181.9231     364.0274      2.600     6.85     1178.634     64.19128     167.0676        23     1.574     1.156  82.23   3
       378    345.1444    110.8777 307.7871594  +6.6245312      1256.13     3201.117     4495.334     91.28714     182.1404     364.1723      3.256    10.71     1183.743     64.19128     157.5096        25     2.173     1.471 -70.90   2
       379     98.2606    111.5650 307.8899228  +6.6159906     1122.219     2550.418      3255.51     91.28714     182.1404      364.136      2.602     7.24     1195.591     64.19128     365.7014        15     1.844     1.068 -24.16   0
       380    989.4188    104.4516 307.5191239  +6.6486329     941.8514     2161.342     2507.578     90.70753     182.2128     363.8825      2.532     7.82     1165.063     64.19128     101.7719        17     1.498     1.143 -61.78   0
       381    195.1318     99.7441 307.8499944  +6.6241147     2057.973     6929.275     8477.565     91.43147     181.9956     364.0999      2.870     8.46     1192.996     64.19128     271.0901        54     2.163     1.792 -81.34   0
       382    655.5577     98.8190 307.6583257  +6.6398630     2783.532     5776.723     7341.765     90.70753     181.9231     363.9187      2.283     6.85     1169.633     64.19128     292.2422        34     2.023     1.161  82.16   3
       383    658.6853     98.2040 307.6570442  +6.6402212     2257.208     4390.221     5957.868     90.70753     181.7056     363.8463      2.245     6.19      1169.49     64.19128     285.5137        20     1.711     0.895  84.66   3
       384     78.5136     99.4732 307.8985558  +6.6203230     909.1371     2434.041     2946.749     91.43147      182.502     364.1723      2.520     7.96     1196.714     64.19128     142.2843        13     1.826     0.971  66.90   0
       385    608.9001     95.7011 307.6778580  +6.6395969     3991.802     12445.29     15240.59     91.28714     182.5743     363.9912      2.792     7.93     1170.973     64.19128     398.5182        54     2.033     1.782  79.22   3
       386    612.4898     87.0844 307.6766553  +6.6432752     22492.03     69395.25     84056.34      90.9978     182.4298     364.3171      2.745     6.94     1170.487     64.19128     2201.353       104     2.235     2.001 -75.33   3
       387    336.1874     91.5902 307.7915438  +6.6321976     1615.028     4984.489     7007.313      90.9978     181.9231     364.0999      3.044     9.34     1185.117     64.19128     190.1453        47     2.163     1.783 -53.26   0
       388    516.8865     93.2711 307.7162515  +6.6375340     740.8749     1683.307     2361.515     91.43147     182.4298     364.2085      3.134     5.40     1171.299     64.19128     120.5148         5     0.988     0.834  45.58   2
       389    293.0677     81.2467 307.8098483  +6.6350286     1520.936     4195.896     6406.917     91.28714      182.068     364.1723      3.677    12.23     1189.597     64.19128     166.2106        34     2.494     1.670  40.54   2
       390    663.1578     73.7293 307.6560109  +6.6504781     726.5767     1632.988     1875.632     91.14259     182.1404     364.2447      2.156     5.56     1168.761     64.19128     108.1376         6     1.407     0.618  75.40   0
       391    678.9817     70.9900 307.6495149  +6.6521363     1191.076     1966.009     2904.688      90.9978     181.7781     364.0274      2.406     6.94     1168.394     64.19128     182.7086        15     1.579     0.964  78.67   3
       392    675.5173     70.3422 307.6509793  +6.6522884     1404.345     2712.646     3373.129     91.43147     182.1404     364.2447      2.220     7.96     1168.412     64.19128     163.7585        19     1.928     0.919  85.28   3
       393    417.2383     63.6875 307.7587452  +6.6464276     1492.236     2439.086     3772.603     91.28714      182.068     364.1723      2.268     6.11     1175.918     64.19128     164.0945        16     1.347     0.902  46.16   3
       394    420.7695     62.5185 307.7573146  +6.6470283     1570.276     3146.031     4061.716     91.14259     181.9956     364.1723      2.398     8.48     1175.784     64.19128     174.2645        22     1.859     1.080  72.14   3
       395    416.6954     60.3591 307.7590842  +6.6477841      999.743     1738.971     2190.935     91.28714      182.068     364.3171      2.132     5.43     1176.274     64.19128     147.2056         9     1.091     0.763 -69.37   3
       396    891.1430     57.2156 307.5616399  +6.6648794     2113.917       5300.1     5725.818     90.56205      182.068     363.8825      2.373     6.85     1164.253     64.19128     214.6462        38     1.768     1.539  71.11   0
       397    872.9623     58.4082 307.5691699  +6.6637830     1144.024     2753.087     2481.935     90.41634     181.8506     363.9187      2.306     7.53     1164.812     64.19128     126.4657        23     1.606     1.265  28.50   0
       398    583.5641     56.9759 307.6897194  +6.6547463     890.2379     2155.783      2658.68     90.85278     181.9231     363.9187      2.563     7.49     1169.954     64.19128     125.0164        12     1.373     1.143 -10.63   0
       399    382.7705     54.8238 307.7733973  +6.6489376     685.1937     2167.142     2698.948     90.70753     181.9956     363.9912      2.633     9.66     1180.547     64.19128     110.4835        13     2.106     1.235 -60.94   0
       400    698.2684     51.2961 307.6421510  +6.6609118     8140.458     10666.44     12076.61     91.14259     182.2852     364.2085      1.253     5.06     1167.482     64.19128     2971.786        22     2.250     0.436  79.33   0
       401    130.6561     52.2982 307.8784531  +6.6415514     1433.415     3706.013     5380.607     91.14259     182.1404     364.4256      3.188     8.90     1194.129     64.19128     186.2709        31     2.029     1.548 -40.62   2
       402     12.0152     48.9636 307.9279624  +6.6389543     5526.434     16394.38     19942.38     90.85278     181.9231     363.9187      2.715     6.70     1199.211     64.19128     649.7693        67     2.178     1.795 -81.34  16
       403    813.4536     43.0542 307.5944679  +6.6681468     3350.311     8289.701     9277.517     91.57557      182.068     364.1723      2.418     5.98     1164.333     64.19128     348.9642        48     1.911     1.574  75.36   0
       404    758.6580     43.6363 307.6172647  +6.6660844     1631.583     4429.711     5007.696     91.28714     182.1404     364.1723      2.515     9.52     1165.596     64.19128     217.1305        33     1.755     1.555  24.39   0
       405     52.3805     41.1435 307.9114230  +6.6435366     1398.179     4109.245     4259.232     90.70753      182.068      363.955      2.605     9.92     1197.056     64.19128     173.0532        34     1.833     1.498  84.63   0
       406    574.8698     37.0000 307.6940166  +6.6627066      515.742     1507.626     993.2713     90.70753     181.5604     363.9187      1.512     3.86      1169.87     64.19128     114.7214         5     1.328     0.322 -10.37   2
       407    753.0368     31.1556 307.6200276  +6.6710520     1194.189     2784.407     3336.181      90.9978     182.1404     364.0274      2.377     6.84     1165.025     64.19128     162.3473        23     1.596     1.397  29.49   0
       408    786.5380   1017.0318 307.5727564  +6.2649889     12169.05     20980.81      22097.2      90.9978     182.2128     362.2118      1.850     3.95       1224.3     64.19128     1494.718        47     1.584     1.311 -73.81  16
       409    409.0084     25.1499 307.7634802  +6.6620687     1041.333      2999.28      3236.75     90.70753     181.9956       363.81      2.519     8.20     1179.985     64.19128     151.3103        24     1.628     1.477 -22.64   0
       410     57.3311   1017.8404 307.8761139  +6.2403379     5889.005     10916.61     11055.64     91.14259     182.1404     356.7834      1.945     4.31     1223.948     64.19128     669.9552        39     1.572     1.328  82.47  16
       411    569.9900   1007.9567 307.6631611  +6.2615339     116202.8     231349.6     252895.4     90.70753     181.9231     363.8825      2.101     4.43      1225.26     64.19128     12309.85       106     1.780     1.603 -75.23   3
       412    571.7163   1000.9111 307.6626813  +6.2645012     54017.09     110408.9       120856      90.9978     182.3575     364.2447      2.119     4.73     1225.017     64.19128     5533.179        77     1.763     1.583 -74.37   3
       413    204.1618   1010.8997 307.8152638  +6.2481147     2799.584     5583.974     5884.062     91.28714     181.9956     364.4256      2.089     5.29      1224.18     64.19128     292.8058        35     1.747     1.317  79.66   0
       414    745.4370   1010.2438 307.5900865  +6.2664265     687.6901     1357.068     1401.125      90.9978     182.1404     363.9912      2.053     4.54     1223.898     64.19128     87.42273         7     1.363     0.430  78.99   0
       415    388.9036   1009.4660 307.7384518  +6.2548751     331.2057     938.4008     1346.048     91.28714     182.2128     364.2085      2.546     5.72     1225.364     64.19128     84.26221         7     2.233     0.413  37.10   0
       416    951.9984   1006.7980 307.5042582  +6.2747091     816.8535     1430.717     1403.344     90.56205      181.633       363.81      1.974     5.13     1220.756     64.19128     119.0544         8     1.034     0.720 -18.75   0
       417    780.7784   1004.9777 307.5755599  +6.2697760     5701.492        10382     11381.95      90.9978     181.9956      364.136      1.899     4.16     1223.651     64.19128     652.9978        37     1.554     1.255 -77.35   0
