#   1 NUMBER                 Running object number                                     
#   2 X_IMAGE                Object position along x                                    [pixel]
#   3 Y_IMAGE                Object position along y                                    [pixel]
#   4 ALPHA_J2000            Right ascension of barycenter (J2000)                      [deg]
#   5 DELTA_J2000            Declination of barycenter (J2000)                          [deg]
#   6 FLUX_APER              Flux vector within fixed circular aperture(s)              [count]
#   9 FLUXERR_APER           RMS error vector for aperture flux(es)                     [count]
#  12 FLUX_RADIUS            Fraction-of-light radii                                    [pixel]
#  13 FWHM_IMAGE             FWHM assuming a gaussian core                              [pixel]
#  14 BACKGROUND             Background at centroid position                            [count]
#  15 THRESHOLD              Detection threshold above background                       [count]
#  16 FLUX_MAX               Peak flux above background                                 [count]
#  17 ISOAREA_IMAGE          Isophotal area above Analysis threshold                    [pixel**2]
#  18 A_IMAGE                Profile RMS along major axis                               [pixel]
#  19 B_IMAGE                Profile RMS along minor axis                               [pixel]
#  20 THETA_IMAGE            Position angle (CCW/x)                                     [deg]
#  21 FLAGS                  Extraction flags                                          
         1    318.1624     18.9260 307.8049635  +6.6809525     12385.07      20177.4     21166.77     77.79816     155.5346     310.9147      1.720     5.04     829.6195     54.79287     2004.155        39     1.702     0.937 -34.37   0
         2     91.7541     19.3700 307.8989724  +6.6732594     2443.214     4050.162      3901.88     77.42681     155.5346     310.7292      1.700     4.79     829.4538     54.79287     360.7829        21     1.608     0.791 -36.30   0
         3    384.4111     16.8678 307.7775199  +6.6839961     2310.036     3656.307     3475.001     77.42681     155.2873     310.6983      1.704     5.12      827.673     54.79287     366.9275        22     1.669     0.748 -36.10   0
         4    645.1760     12.2477 307.6693778  +6.6945245     10428.67     16898.16     17319.52     77.55079     155.4728     310.7292      1.698     5.55     819.9796     54.79287     1754.556        35     1.679     0.876 -33.68   0
         5    522.8597     11.8346 307.7201910  +6.6906540     1446.556     2164.734     2160.562     77.79816     155.4728      310.822      1.594     5.42     820.5128     54.79287      209.318        17     1.576     0.711 -33.67   0
         6    809.6968     11.4503 307.6010759  +6.7002809     1632.758     2537.554     2512.214     77.79816      155.411     311.0074      1.668     5.43     818.5303     54.79287     222.4903        17     1.505     0.717 -32.66   0
         7    880.0852      9.7873 307.5718975  +6.7032864     1303.453     2284.661     2453.729     77.55079     155.3492     310.6983      1.972     5.84     818.3656     54.79287     203.9651        15     1.634     0.666 -34.13  16
         8    636.7704      7.7094 307.6730210  +6.6961203     8897.521     14158.67     15265.26     78.04475     155.2254     307.9028      1.716     5.46      819.906     54.79287     1455.729        34     1.651     0.943 -38.84  16
         9    245.4777      9.2212 307.8354756  +6.6825493     6487.925     10559.85      11849.4     77.55079     155.2254      310.822      1.796     5.45     829.0631     54.79287     1022.633        39     1.983     0.909 -28.64  16
        10    406.6033      7.8838 307.7686056  +6.6884390     7830.407     12608.11     13218.71     77.30263     155.1016     308.5573      1.705     5.44     826.0101     54.79287     1131.307        33     1.668     0.887 -36.35  16
        11    668.7516      5.2522 307.6598211  +6.6981904     13202.17      27215.9     32793.01     78.04475     155.3492     287.4073      2.357     9.27     819.9128     54.79287     2085.492        56     2.629     0.913 -36.53  24
        12    722.3163      6.3544 307.6375377  +6.6995030     1950.652     3033.071     3168.673     77.92155     155.4728     298.1054      1.667     5.56     819.7664     54.79287     310.4301        18     1.522     0.772 -34.72  16
        13    149.1842      6.7680 307.8755478  +6.6803676     455.0806       701.82     665.2656     77.55079     155.2254     301.5341      1.492     4.52     829.0185     54.79287     78.41925         5     0.780     0.746  15.19  16
        14    646.1872      3.5989 307.6692480  +6.6981279     2921.224     4883.661     5485.141     77.55079     150.3842     267.2814      1.752     5.22     819.8585     54.79287     455.3446        24     1.691     0.856 -39.63  25
        15    185.7205      4.6007 307.8604478  +6.6824745     1119.487     1979.924     2110.521     77.17825     154.8536     279.9567      1.860     7.38     828.9864     54.79287     169.2701        19     1.926     0.792 -22.35  16
        16     52.6139      1.6588 307.9158240  +6.6792697     2477.763     3175.846     3309.092     71.35707      128.323     238.8466      1.398     5.03     829.5067     54.79287     428.6637        14     1.326     0.626 -15.36  24
        17    909.9670    996.5052 307.5264972  +6.2969663     32812.04     66449.68     72812.98     78.04475     155.3492     310.9456      2.137     5.13      848.072     54.79287     3715.266        77     1.997     1.408 -31.97   0
        18    508.7045   1021.7006 307.6921722  +6.2733362     791.3999     1577.045     1344.277     77.92155     148.3906     263.3708      1.953     7.00     854.2646     54.79287     114.7017        14     1.910     0.719 -40.15  24
        19    217.2836    995.3392 307.8139879  +6.2745763     1529.562     2612.378     3353.582     78.04475     155.5346     310.9147      2.151     5.62     850.8151     54.79287     181.2903        17     1.553     0.753 -39.98   0
        20    105.4367    994.1757 307.8604389  +6.2713488      601.964     1133.726     1045.957     77.55079     155.2873     310.6055      1.792     4.78     848.1008     54.79287     79.93726         6     0.980     0.661 -10.25   0
        21    616.4576    992.7084 307.6484288  +6.2888615     783.0984      1424.63     1006.782     77.79816      155.411     310.9456      1.771     4.33     853.0989     54.79287      123.032         9     1.196     0.745  -3.47   0
        22    807.9836    990.3420 307.5690262  +6.2961529      1913.89      3588.55     3452.571     77.30263      155.411     310.6055      1.975     5.42     849.2616     54.79287     214.7037        25     1.559     1.102 -44.84   0
        23    756.0596    988.3430 307.5906413  +6.2952673     5230.892     10265.36        11675     78.04475     155.4728     310.8838      2.110     5.23     850.0679     54.79287     592.5811        48     1.936     1.321 -39.36   0
        24    225.3825    987.5665 307.8108885  +6.2780530     1312.968     2427.407     3016.813     77.55079     155.2873     310.6983      2.155     6.33     850.8357     54.79287     180.5042        18     1.739     0.835 -50.60   0
        25    542.2991    987.6914 307.6793716  +6.2884842     816.0349     1434.124     1338.786     77.92155     155.9047      310.822      1.796     6.69     853.3166     54.79287     115.1698        14     1.741     0.721 -33.20   0
        26    189.0861    987.4352 307.8259547  +6.2769045     651.3065      1114.61     1073.814     77.92155     155.3492     310.8528      1.960     5.86     849.8931     54.79287     86.08722        10     1.504     0.642 -19.61   0
        27     50.3675    985.6489 307.8835773  +6.2730414     2250.614     3906.418     4125.886     77.67458     155.4728      310.791      1.892     5.75     847.6732     54.79287      275.294        25     1.826     0.843 -28.28   0
        28    944.2765    983.2366 307.5127020  +6.3035721     4690.943     9813.849     10769.65     77.79816     155.5346     310.8838      2.165     5.51     847.3589     54.79287     537.9592        47     1.874     1.374 -30.44   0
        29    202.0291    979.3938 307.8208544  +6.2806526     402.8185     729.5414     551.8035      77.4268     155.2873     310.6674      1.711     3.92     849.9904     54.79287     78.79675         5     1.277     0.344 -47.71   0
        30    917.9640    974.9239 307.5238994  +6.3061380     1566.356       3211.2     3534.082     77.79816     155.5346     310.8838      2.230     6.00     847.5836     54.79287     198.7206        24     1.621     1.200 -27.00   0
        31    626.6296    976.6241 307.6447463  +6.2958365     686.1141      1333.03     1457.715     77.42681     155.3492     310.6674      2.058     4.84     852.4032     54.79287     90.60211         7     1.128     0.589 -44.75   0
        32    638.7614    970.9977 307.6399002  +6.2985593     3766.561     6928.652     7000.833     77.05367     155.2254     310.6055      1.903     5.07     851.9965     54.79287     455.1567        34     1.706     1.097 -27.07   0
        33    250.8927    971.3738 307.8008472  +6.2855819     3744.034     6546.195     6761.535     78.04475     155.2254     310.6983      1.847     5.33     850.7686     54.79287     451.0331        28     1.705     0.923 -31.45   0
        34    777.4521    971.3384 307.5823323  +6.3029915     982.3174     1885.618     2082.378     77.92155      155.411      310.822      1.997     7.68      849.451     54.79287     122.4096        17     1.529     1.080 -33.22   0
        35     19.3577    968.9096 307.8970091  +6.2789215     1739.468     2981.275     3190.042     77.92155     155.4728     310.9147      1.907     6.13     847.1733     54.79287     225.2101        22     1.772     0.893 -32.41   0
        36    460.9803    969.5582 307.7137261  +6.2932825     986.8179     1494.078     2168.057     77.42681     155.2873     310.6674      1.751     5.72     852.4183     54.79287     125.7614        13     1.420     0.650 -34.21   0
        37    988.8293    969.5494 307.4946692  +6.3106873      602.583     1215.976     2047.712     77.55079     155.5963     310.7601      2.073     3.74     845.9854     54.79287     90.74481         6     1.382     0.291 -17.39   0
        38    869.5080    967.4332 307.5442593  +6.3076353     560.7757     923.3345      1008.75     78.04475     155.3492     310.8838      1.973     4.19     848.0229     54.79287     98.41425         6     1.118     0.449 -11.86   0
        39    563.2806    963.5640 307.6714735  +6.2991364     1439.192     2626.563     2489.043     77.79816     155.5346     310.8528      1.844     7.04      852.572     54.79287     189.9404        21     1.711     0.871 -30.02   0
        40    287.3184    964.8763 307.7859499  +6.2894701     827.1252     1213.293     1218.411     78.16776     155.7198     310.9765      1.529     5.35     851.0421     54.79287     119.5396        12     1.197     0.784 -29.96   0
        41     52.6835    960.5126 307.8834632  +6.2834936     806.8447      1222.18     1680.888     77.67458     155.6581     310.8838      1.844     5.82     846.9381     54.79287     127.0546         9     1.425     0.670 -30.76   0
        42    602.8541    959.5523 307.6551851  +6.3020988     1195.581     1826.386     1508.065     77.92155     155.4728     310.8838      1.709     4.74     852.3679     54.79287     155.3293        16     1.234     0.873 -30.43   0
        43    282.2784    957.9326 307.7882748  +6.2921694     1317.416     2357.678     2592.026     78.04475     155.5346      310.822      1.831     5.91     850.7498     54.79287     179.5493        17     1.825     0.648 -27.20   0
        44    551.2445    955.8131 307.6767282  +6.3019384     510.0174     838.7935     821.5345     77.30263     155.2873     310.6055      1.455     3.53     852.3614     54.79287     98.56439         5     1.119     0.321  11.93   0
        45    750.2892    953.5673 307.5941996  +6.3094321     771.0143     1358.403     1601.588     78.04475     155.2873     310.8528      1.882     6.20     849.6182     54.79287     98.20825        11     1.454     0.742 -23.25   0
        46    124.7350    952.2480 307.8538426  +6.2892953     598.2677     988.8949     1201.973     77.79816     155.3492     310.9147      1.898     5.33     847.1813     54.79287     98.76709         7     1.541     0.520 -26.98   0
        47    887.0300    950.1334 307.5375656  +6.3153533     5269.955     10585.43     10920.18     77.67458     155.4728      310.822      2.076     5.31     847.6138     54.79287     618.0132        40     1.806     1.206 -30.33   0
        48    422.9866    947.4858 307.7302339  +6.3011374     1821.181     3285.049     3192.092     77.55079     155.2873     310.7601      1.840     5.41      851.467     54.79287     224.1058        22     1.647     0.847 -30.64   0
        49    324.4404    945.9244 307.7711819  +6.2985219      8447.51     14510.58     15012.74     77.79816     155.4728     310.8838      1.861     4.94     850.4749     54.79287     999.3962        39     1.818     1.002 -36.15   0
        50    592.5187    947.4131 307.6598811  +6.3067685     484.6904     742.3752     266.6843     77.55079     155.2254     310.6983      1.578     4.20     852.0104     54.79287     82.82959         5     1.028     0.490  -3.25   0
        51    244.6406    944.9050 307.8043318  +6.2963004     6336.961     11052.72     11859.48     77.92155      155.411     310.9765      1.838     5.14     849.9803     54.79287      751.318        37     1.859     1.012 -30.47   0
        52    572.7399    939.3461 307.6683597  +6.3094454     1108.602     1738.644     1941.476     78.04475      155.411      310.822      1.773     6.22     851.8155     54.79287     138.4899        14     1.401     0.777 -34.57   0
        53    902.4289    935.2904 307.5316708  +6.3219871     718.6509     1369.239      1445.65     78.04475     155.2254     310.7601      1.991     6.01     847.1052     54.79287     108.4887         8     1.300     0.781   8.58   0
        54    858.2688    934.5042 307.5500244  +6.3208581     578.4721      737.175     309.6711     77.79816     155.5963     310.8838      1.427     4.59     847.9916     54.79287     101.1877         6     1.100     0.545 -63.39   0
        55    135.2635    935.3575 307.8500422  +6.2966163      556.723     766.8279     166.4062     77.92155      155.411     310.8838      1.403     4.24     846.7719     54.79287     73.10663         6     1.109     0.461  -7.42   0
        56    401.1290    932.7907 307.7397980  +6.3064805     588.1695     889.2428     693.3589     77.42681     155.1016     310.6983      1.761     4.62     850.8206     54.79287     82.81885         7     1.062     0.572 -66.31   0
        57    969.3957    930.9601 307.5040228  +6.3259776     651.6137     1306.637     1809.873     77.17825     155.2254     310.5746      2.254     6.34     845.2212     54.79287     107.0455         9     1.482     0.763 -20.28   0
        58    738.9317    928.2346 307.5997609  +6.3195148     1366.084     2456.636     2559.385     77.79816     155.5346     310.9456      1.996     6.01     849.4031     54.79287     168.4374        22     1.636     0.913 -29.58   0
        59    563.6383    928.1267 307.6725131  +6.3137761      594.899     947.2949     827.3094     77.79816     155.4728     310.9147      1.587     3.44     851.5058     54.79287     86.61182         5     0.773     0.441 -72.62   0
        60    615.0130    923.8391 307.6513359  +6.3172419     575.9896     1078.372     512.1577     77.42681     155.2873     310.6364      1.744     6.46     851.3054     54.79287     75.95154         8     1.444     0.811 -42.55   0
        61    603.5940    924.8696 307.6560403  +6.3164397     822.9334     1407.767     1224.342     77.42681     155.1016     310.6983      1.878     4.99     851.3796     54.79287     126.9408         9     1.323     0.532 -40.25   0
        62    524.3606    923.9066 307.6889550  +6.3142209     1056.049     1841.095     1753.603     78.04475      155.411     310.9456      1.827     5.40      851.298     54.79287     177.8131        16     1.345     0.998 -35.27   0
        63    970.3071    923.8101 307.5038833  +6.3289591     1033.902     1856.001     1997.698     77.55079     155.1016     310.6674      1.927     6.42     845.0522     54.79287     131.1778        15     1.569     0.738 -21.85   0
        64    657.6852    921.7357 307.6336969  +6.3195182     2107.721     3721.013     3905.992     78.04475     155.5963     310.8838      1.869     5.50     850.8943     54.79287     265.3557        22     1.573     0.888 -29.38   0
        65    948.4880    918.8834 307.5131033  +6.3302751     551.0244     832.0173      1065.54     77.67458     155.6581     310.8838      1.480     4.87     845.6416     54.79287     81.76074         6     0.970     0.694  15.66   0
        66     71.6146    917.4674 307.8770576  +6.3018894      1664.22     2816.905      2855.81     77.42681     155.3492     310.7601      1.877     5.62     845.8898     54.79287     250.6781        20     1.744     0.786 -35.28   0
        67     54.1974    918.0077 307.8842671  +6.3010885      2448.53     4521.685      4736.85     77.30263     155.1635     310.6674      1.982     5.26     845.9056     54.79287     315.4256        24     1.664     0.895 -33.79   0
        68    818.4631    917.9241 307.5670989  +6.3263913     806.7078     1328.274     1638.886     78.16775     155.4728      310.822      1.850     4.52     848.1299     54.79287     122.1072         8     1.037     0.566 -44.88   0
        69    197.6819    916.9865 307.8247581  +6.3062685      2003.28     3475.143     3749.403     77.55079     155.2254     310.6674      1.804     5.52     848.0076     54.79287     256.7844        23     1.718     0.897 -25.24   0
        70    231.5108    913.8992 307.8108233  +6.3086638     747.2508     1322.358     676.8487     77.92155     155.9047      310.822      1.690     5.41     848.9361     54.79287     119.7882         9     1.566     0.527 -40.26   0
        71    336.4825    913.2269 307.7672832  +6.3124172     953.5951     1806.825     2010.992     77.79816     155.2873      310.791      1.806     5.57     849.6758     54.79287     148.7285        15     1.650     0.654 -22.05   0
        72    788.3571    912.9760 307.5797590  +6.3274421     597.0292     1086.353     1400.662     77.55079     155.3492     310.6983      2.456     4.83     848.4966     54.79287      79.8363         6     0.825     0.801  24.08   2
        73    652.2596    910.8611 307.6363128  +6.3238281     5935.118      10398.4     10885.25     77.92155     155.4728     310.8838      1.851     5.15     850.6702     54.79287     742.8164        36     1.777     1.006 -31.73   0
        74     12.0197    909.7541 307.9020480  +6.3030952     862.9238     1598.643     1592.129     77.55079      155.411     310.6983      1.925     6.08     845.8669     54.79287     119.1125        11     1.658     0.626 -39.92   0
        75    442.4626    908.5221 307.7234594  +6.3178648     508.2855     660.0603     456.2681     78.16776     155.5346     310.8528      1.726     4.29     850.3284     54.79287     85.34442         5     1.206     0.435 -34.74   0
        76    890.1593    906.8940 307.5377119  +6.3333050     2264.847     4129.482     4213.481     78.04475      155.411     310.9456      1.926     5.42     846.8889     54.79287     268.1512        27     1.631     1.053 -25.50   0
        77     25.5579    907.4463 307.8965078  +6.3044972     926.1452     1407.498     1439.999     77.92155     155.4728     310.7601      1.814     6.03     845.8356     54.79287     128.4577        13     1.539     0.665 -41.31   0
        78    335.1693    904.1326 307.7681338  +6.3161276     14256.92     24600.62     26437.45     77.67458     155.4728      310.822      1.810     5.20     849.5306     54.79287     1825.428        44     1.741     1.029 -32.92   0
        79     69.9017    905.2097 307.8781814  +6.3068922     1242.626     1933.225     1957.271     77.67458     155.1016     310.6674      1.741     6.42     845.7841     54.79287     166.1725        16     1.546     0.748 -34.01   0
        80    206.3258    903.5069 307.8216245  +6.3121190      1108.52     1882.102      2156.42     77.79816     155.5963      310.822      1.879     5.41     847.8605     54.79287     158.1129        14     1.573     0.697 -44.86   0
        81    386.6139    902.9508 307.7468239  +6.3183176     690.1317     1009.068     756.4518     77.30263      155.411     310.5746      1.681     2.44      849.739     54.79287     127.4618         5     0.738     0.558   7.49   0
        82     98.3466    895.0712 307.8667187  +6.3120208     1487.298     2582.009     2520.407     77.79816      155.411      310.791      1.790     6.15      845.673     54.79287     196.8951        21     1.821     0.788 -39.08   0
        83    412.8146    895.2439 307.7362093  +6.3223654      945.076     1549.954     1098.918     77.30263     155.2873     310.6055      1.864     5.72     849.6917     54.79287     149.4728        12     1.412     0.652 -33.85   0
        84    666.4158    891.2458 307.6310948  +6.3323920     860.5273      1466.21     2024.676     77.42681     155.3492     310.6055      2.423     6.48     850.0001     54.79287     110.8152        12     1.330     0.887 -77.34   0
        85    493.4474    891.5650 307.7028692  +6.3265495     508.6687      668.239     679.1993     77.55079     155.4728      310.791      1.488     4.24     849.8496     54.79287      77.8504         5     1.230     0.417 -35.53   0
        86     81.5654    888.7317 307.8738963  +6.3140808     2150.491     3808.395     4250.097     77.79816     155.5346     310.9456      1.984     7.93     845.6252     54.79287     307.8065        25     2.147     0.825 -31.63   0
        87    880.3970    888.5641 307.5423761  +6.3405501     1559.488     2985.321     3161.865     77.05367     155.2873     310.6674      1.930     5.18     846.7411     54.79287     199.0703        22     1.511     1.059 -50.78   0
        88    850.8498    888.3173 307.5546475  +6.3396792     1596.875     2972.715     2616.982     77.92155     155.4728     310.8838      1.896     5.99     847.2694     54.79287     211.3329        22     1.581     0.977 -32.14   0
        89    814.4225    887.6071 307.5697897  +6.3387728     2516.518     4604.611     5339.952     77.42681     155.2873     310.6674      1.985     5.10     847.9729     54.79287     284.1688        29     1.719     1.035 -34.55   0
        90    445.1293    885.7472 307.7231172  +6.3273540     622.3917     1181.197     1985.979     77.79816      155.411      310.791      3.026     5.32     849.4469     54.79287     108.4215         7     1.237     0.743 -21.67   0
        91    330.9578    885.5850 307.7705049  +6.3236442     552.7365     994.5091     1217.887     77.42681     155.2254     310.6055      1.911     4.31     849.2726     54.79287     75.54846         5     0.811     0.652  83.91   0
        92    550.2754    879.2623 307.6796972  +6.3335051     302253.2     511243.6       537843     78.16776     155.4728     310.8528      1.805     4.98     849.7777     54.79287      40535.3       166     1.888     1.232 -32.38   0
        93    394.4750    881.9117 307.7442681  +6.3272621     7280.301      12067.3     12744.34     77.92155     155.7814     310.9456      1.790     4.95     849.1551     54.79287     869.9836        35     1.754     0.939 -32.30   0
        94    638.1795    881.9869 307.6431237  +6.3352823     1021.043     1677.262     1270.614     77.67458     155.1635     310.7601      1.556     5.29     850.1266     54.79287     144.0457        14     1.525     0.719 -27.99   0
        95    337.7210    880.3062 307.7678755  +6.3260470     11445.29     19385.36     20453.46     77.67458     155.6581     310.9147      1.821     5.20     849.1063     54.79287     1481.604        46     1.801     1.022 -30.75   0
        96    656.0651    876.4824 307.6358851  +6.3381446     3193.602     5416.596     6123.652     78.04475     155.7198     310.8838      1.902     5.12     849.7382     54.79287     383.8503        28     1.720     0.908 -28.51   0
        97    888.3016    875.2794 307.5395394  +6.3462941     4119.897     8051.105     9241.237     77.79816     155.8431     310.8838      2.120     5.39     846.3234     54.79287     473.6182        40     1.993     1.149 -16.61   0
        98    728.1539    873.2323 307.6060749  +6.3418637     685.2189     1205.254     1054.324     77.67458     155.4728     310.7601      2.017     5.60     849.0897     54.79287     83.34125         8     1.270     0.697 -23.60   0
        99    631.0701    870.5057 307.6464589  +6.3397870     2972.774     5128.377     5868.564     77.79816     155.5346     310.8528      1.889     5.06     849.9685     54.79287     434.5558        27     1.632     0.968 -31.88   0
       100   1021.8612    869.4219 307.4843022  +6.3531051     3564.887     6655.244     7014.765     77.55079     146.3042     261.1362      1.956     4.85     842.5176     54.79287     430.4684        33     1.569     1.263 -42.27  24
       101    819.5671    869.4385 307.5682621  +6.3464420     1367.494     2564.069     2677.234     77.55079     155.2873     310.6364      1.918     5.83     847.6996     54.79287     167.9916        18     1.587     0.859 -36.03   0
       102    623.1213    866.3723 307.6498964  +6.3412309     1671.825     4021.299     5319.744     77.79816      155.411     310.8528      2.574     9.73      849.974     54.79287     226.4053        36     2.642     0.999 -56.85   0
       103    946.2799    868.5005 307.5157026  +6.3510001     613.2556     1251.288     1723.222     77.79816     155.8431     310.8838      1.960     4.16       844.99     54.79287     92.80591         7     1.027     0.482   8.54   0
       104    907.5059    863.1115 307.5319755  +6.3519489     2620.794     4836.532     5070.627     77.92155     155.9047     310.9147      1.925     5.19      845.812     54.79287     311.4833        29     1.709     1.040 -25.52   0
       105    318.0319    863.8709 307.7765990  +6.3321794     889.3411     1508.505      1377.45     77.79816     155.4728      310.822      1.837     5.72     849.0964     54.79287     140.9149        12     1.289     0.716 -34.00   0
       106    365.6577    859.2567 307.7569887  +6.3356602     2391.345     3959.794      3688.92     78.04475     155.5346     310.8838      1.696     5.18      848.419     54.79287     332.8239        21     1.553     0.836 -31.47   0
       107    501.6687    849.2980 307.7008753  +6.3442682     2792.835     5215.462     5234.373     77.92155     155.5963     310.8528      1.977     7.79     848.5461     54.79287     448.3389        26     1.787     0.950 -49.91   0
       108    846.5760    847.6644 307.5577804  +6.3563196       1058.9     1639.621     1649.769     77.55079     155.4728     310.7601      1.559     4.99      846.757     54.79287     169.7136        13     1.336     0.660 -35.46   0
       109    548.6938    845.0814 307.6814999  +6.3475622     5759.199     9709.636     11211.91     77.67458     155.7198     310.9456      1.867     5.19       848.64     54.79287     784.3553        34     1.672     0.998 -33.91   2
       110    555.7172    844.3639 307.6786090  +6.3480903     1314.145     2349.327     2867.177     77.92155      155.411      310.822      1.833     5.36     848.7063     54.79287     181.4194        13     1.296     0.802 -34.13   3
       111    466.4256    844.3301 307.7156689  +6.3451541     1421.828      2219.66     2028.161     77.55079     155.3492      310.791      1.702     4.68     848.3025     54.79287     214.3088        17     1.365     0.918 -25.66   0
       112    260.7777    844.8803 307.8009988  +6.3381224     656.4039     885.9104     756.7834     77.55079     155.1635      310.822      1.562     4.24     847.5657     54.79287     111.1447         6     1.067     0.480 -39.78   0
       113    884.5116    843.0010 307.5421913  +6.3594935     1139.491     2098.783     1997.734     77.17825     154.9776     310.6055      1.944     6.05     846.0627     54.79287     153.4014        18     1.536     0.831 -24.08   0
       114    108.2208    843.3906 307.8643617  +6.3336804     1309.375     2232.442      2114.18     77.55079     155.1635     310.6674      1.701     6.21     844.7608     54.79287     197.7633        15     1.485     0.765 -31.17   0
       115    683.6963    842.5059 307.6255552  +6.3530811     718.8475     1087.407     1185.154     77.92155     156.0279     310.7601      1.785     5.26     848.8661     54.79287     102.7145         7     1.177     0.664 -50.14   0
       116    519.3593    838.9348 307.6938808  +6.3491304     17972.65     30295.61     32016.68     77.92155      155.411     310.9456      1.788     4.98     848.3846     54.79287     2304.308        44     1.750     0.988 -32.67   0
       117    360.3857    840.6324 307.7598024  +6.3431734     672.6315     1177.116     847.0052     77.55079     155.2254     310.7601      1.941     4.71     847.7766     54.79287     131.8287         7     1.356     0.464 -35.79   0
       118    933.0399    837.0623 307.5222480  +6.3635420     3254.769     6047.853     6028.243     77.92155     155.4728     310.8838      1.912     4.91     845.2988     54.79287     349.5012        31     1.650     1.098 -25.87   0
       119    405.1422    834.6397 307.7414286  +6.3471278     495.9186     932.6197     880.2761     77.92155     155.5346     310.8838      1.765     4.47     847.6179     54.79287     70.02856         5     1.154     0.493 -55.94   0
       120     29.4963    829.6342 307.8974962  +6.3367461     1402.806     2447.342     2091.144     78.04475     155.3492     311.0074      1.827     6.90      843.561     54.79287     200.7737        17     1.539     0.868 -28.85   0
       121    311.9134    827.6891 307.7803545  +6.3469118     3051.754     4964.811     5351.974     77.67458     155.9047     310.9765      1.734     4.90     847.5547     54.79287     433.3857        24     1.577     0.878 -28.02   0
       122    777.5214    823.4009 307.5872530  +6.3640606      48742.2     83437.69     87721.68     77.17825     154.9156     310.6674      1.834     4.79     847.5792     54.79287     6181.913        68     1.784     1.153 -30.86   0
       123     11.8722    825.8550 307.9049377  +6.3377208     2061.427     3619.195     4107.726     77.79816     155.3492      310.822      1.802     5.65     843.1356     54.79287     269.8239        24     1.733     0.874 -29.49   0
       124    234.6109    821.4385 307.8126470  +6.3469317     4768.316     8349.454     10575.21     77.42681     155.2873     310.5746      2.053     5.53     845.7963     54.79287     699.7019        35     1.911     0.911 -29.32   0
       125    421.3905    821.7736 307.7351171  +6.3529760      744.975     1131.386     783.3001     77.55079     155.2873     310.7292      1.585     4.50     847.2617     54.79287      123.208         7     1.049     0.548 -26.90   0
       126    902.8204    818.5822 307.5354082  +6.3701760     7126.173     12899.56     13317.98     77.67458     155.3492     310.7601      1.907     4.93     845.7181     54.79287     827.1771        42     1.791     1.130 -31.11   0
       127    705.7825    818.0177 307.6172085  +6.3639179     19226.01      33002.8     35683.77     77.67458     155.1635      310.791      1.814     4.73     848.4653     54.79287     2396.839        56     1.800     1.137 -30.50   3
       128    699.4432    814.5179 307.6199568  +6.3651535     81447.52     134110.1     141355.3     77.92155     155.4728      310.822      1.817     5.05     848.4453     54.79287      10918.8        85     1.812     1.131 -33.24   3
       129    344.2874    815.5594 307.7673261  +6.3529902     18988.75     31610.25      33442.3     77.92155      155.411     310.8838      1.794     5.71     846.9031     54.79287      2728.63        47     1.757     0.993 -33.53   0
       130    406.1581    813.3413 307.7417222  +6.3559529     20457.78     33942.31     35796.82     77.92155     155.4728     310.9147      1.764     5.24     846.8769     54.79287     3040.359        49     1.730     1.023 -32.15   0
       131    393.9232    815.4778 307.7467284  +6.3546662      1311.32     2283.392     2724.567     78.16775     155.7198     310.9456      1.977     6.00     846.9199     54.79287     185.2084        17     1.491     0.960 -32.70   0
       132    633.2951    814.8909 307.6473990  +6.3628173     792.2661     1276.427      1962.14     77.92155     155.9664     310.8528      2.073     5.44     848.4775     54.79287     102.1318        11     1.448     0.577 -32.11   1
       133    234.2066    799.9562 307.8135375  +6.3557856     745193.6      1738071      1929540     77.42681     155.2254     310.5436      2.323    13.45      845.038     54.79287      63897.7       566     2.561     1.965 -41.00   4
       134    640.3071    809.2189 307.6446787  +6.3653901     6021.173     10227.01     10856.68     77.79816     155.2254     310.6983      1.833     4.96     848.3391     54.79287     832.0682        32     1.679     0.963 -29.65   0
       135    429.0067    807.2305 307.7324444  +6.3592309     1495.726     2396.788      2579.44     77.30263     155.2873     310.6364      1.750     5.99     846.9509     54.79287      214.827        18     1.777     0.660 -34.22   0
       136    153.9308    806.6051 307.8466301  +6.3503803     741.9543     1066.884     1041.446      77.4268     155.1016     310.6983      1.646     5.44     844.1876     54.79287      112.645        10     1.487     0.561 -29.50   0
       137    592.1394    802.0000 307.6649127  +6.3667801     666.8425     950.9083     1488.607     77.17825     155.2254     310.5127      1.513     3.21     847.8084     54.79287     119.7068         7     0.869     0.543 -38.86   2
       138    594.6544    800.2804 307.6639264  +6.3675729     569.5379     791.3858     1331.868     77.92155     155.4728     310.8838      1.450     3.62      847.777     54.79287      103.921         5     0.811     0.488  81.19   2
       139    675.1437    799.4573 307.6305468  +6.3705688     2316.799     3675.169     4185.308     78.04475     155.5346     310.9147      1.735     5.76     848.2437     54.79287     297.2727        18     1.447     0.800 -35.99   0
       140    144.3237    800.3430 307.8508282  +6.3526466     907.0132     1592.021     1656.017     77.92155      155.411      310.791      1.874     5.86     843.8958     54.79287     137.9385        12     1.439     0.672 -35.56   0
       141    119.3523    800.4116 307.8611895  +6.3517901     963.0018     1573.987     1363.395     77.30263     155.3492     310.5436      1.805     5.24     843.5974     54.79287     161.9655        15     1.603     0.798 -19.68   0
       142    943.4620    811.9921 307.5187597  +6.3742336     1772.914     3281.843     3449.544     77.30263     155.2873     310.6674      2.002     6.30     844.8775     54.79287     220.7594        22     1.501     0.982 -33.10   0
       143    409.1038    796.0504 307.7410804  +6.3631876     49701.53     82601.91     86989.07     77.79816      155.411     311.0074      1.780     5.41     846.2641     54.79287     6886.962        68     1.806     1.023 -31.67   0
       144    952.1044    797.5265 307.5156558  +6.3804892     666.6452       1180.5     1124.738     77.67458     155.5963     310.8528      1.795     5.27      844.452     54.79287     93.07037         7     1.271     0.618 -37.10   0
       145    526.8617    794.9584 307.6922422  +6.3675309     6560.148      10840.2     11185.06     77.92155     155.4728     310.9456      1.770     5.31     847.2045     54.79287     935.9584        31     1.700     0.894 -33.26   0
       146    443.8666    793.6372 307.7267333  +6.3653333      4218.42     7087.532     8018.614     77.79816      155.411     310.9456      1.844     5.18     846.7995     54.79287     585.4612        33     1.843     0.949 -26.16   0
       147    772.1315    791.4644 307.5905588  +6.3770660      10344.4     17669.85     18213.21     77.92155     155.5346     310.8838      1.828     4.90     847.0819     54.79287      1361.42        41     1.731     1.054 -28.70   0
       148    754.1238    792.8209 307.5979877  +6.3759126     1283.372     1530.373     1101.305     77.55079     155.2254      310.791      1.260     3.91     847.5195     54.79287     403.9612         8     1.263     0.470 -33.22   0
       149    440.2021    787.0043 307.7284770  +6.3679501     2113.997     3571.821     3812.485     77.30263     155.0396     310.6055      1.798     5.65     846.3898     54.79287      299.048        21     1.699     0.733 -31.57   0
       150      1.9712    787.4502 307.9103415  +6.3532442     1020.681     1184.493      1260.04     74.51831     132.7391     243.9803      1.282     4.87     841.4871     54.79287     143.6024        10     1.078     0.623 -60.56  24
       151    793.8637    785.7718 307.5817290  +6.3801319     1005.673     1740.417     1896.068     77.55079     155.4728      310.791      1.879     6.19     846.5591     54.79287      127.553        14     1.446     0.747 -37.87   0
       152    129.8237    783.7484 307.8574048  +6.3590154     10416.14     17918.87     19274.55     77.42681     155.4728     310.7601      1.802     5.40     843.4016     54.79287      1485.84        39     1.762     0.979 -31.14   2
       153    121.9995    780.9896 307.8607450  +6.3598947     2708.852     4712.625     6153.695     77.55079     155.1635     310.6674      2.001     5.38     843.2335     54.79287     380.0459        25     1.834     0.814 -36.67   2
       154    137.9025    784.0417 307.8540420  +6.3591623     2798.643     4719.112       5036.6     77.92155     155.3492     311.0691      1.787     5.03     843.5066     54.79287     374.9358        24     1.658     0.836 -31.61   0
       155    899.6483    809.9955 307.5370118  +6.3736161     5603.431     10289.66     10754.47     77.30263     155.2873     310.5436      1.900     4.96     845.7168     54.79287     695.4785        41     1.696     1.174 -29.61   0
       156    917.6360    780.0405 307.5305468  +6.3865732     5447.351     9775.185     10799.66     77.67458     155.4728     310.6983      1.920     4.80     844.9138     54.79287     676.1134        36     1.699     1.087 -28.09   0
       157    966.0650    778.8513 307.5104850  +6.3886574      1352.88     3254.482     4737.035     77.92155      155.411     310.8838      2.506     0.00     843.7496     54.79287     861.9285        19     1.643     1.300  61.22   0
       158    673.0847    777.6403 307.6321322  +6.3795067     1506.567     2728.469     2479.462     77.92155      155.411      310.822      1.906     5.12     847.4341     54.79287      232.298        21     1.659     0.974 -39.72   0
       159    560.0835    776.9613 307.6790571  +6.3760571     2233.378     3495.948     3572.931     77.92155      155.411      310.791      1.663     5.19     846.5914     54.79287      317.331        19     1.482     0.806 -38.41   0
       160    407.9961    776.5273 307.7421958  +6.3712097      1095.59     1976.602     1755.934     77.42681     155.0396     310.6983      1.833     5.77     845.4426     54.79287     148.6122        11     1.304     0.719 -39.50   0
       161    121.9317    774.6461 307.8609868  +6.3625108     1819.365     3321.636     4102.016     77.92155      155.411      310.822      1.961     6.61     843.1073     54.79287     285.2355        19     1.635     0.835 -29.66   0
       162    911.7430    772.0740 307.5332590  +6.3896678     2622.415     4515.886     4881.375     77.92155      155.411      310.822      1.862     4.90     844.8133     54.79287     327.4291        26     1.651     0.986 -29.44   0
       163    941.2359    771.3732 307.5210407  +6.3909275     2413.517     4719.951     4657.321     77.42681     155.2254     310.6055      2.043     5.26     844.1932     54.79287     292.4111        29     1.764     1.035 -26.02   0
       164    972.3416    770.9317 307.5081442  +6.3921329     1586.467     3017.751     3122.347     78.04475      155.411     310.8528      2.022     5.95     843.5397     54.79287     204.7534        21     1.503     1.004 -31.55   0
       165    664.3060    771.0860 307.6359954  +6.3819226     1408.305     2292.239     2141.298     77.92155     155.9047     310.9456      1.675     6.73     847.1365     54.79287      199.297        16     1.609     0.789 -25.09   0
       166    810.9880    769.4744 307.5751665  +6.3874235     783.8134     1468.253     1490.272     77.42681     155.1635     310.6364      1.851     5.50     846.2025     54.79287     136.6639        10     1.470     0.581 -31.42   0
       167    237.0672    766.3669 307.8134803  +6.3697451     1715.078     3072.496     4942.675     77.79816     155.5346      310.822      2.378     5.46     844.2397     54.79287     240.1405        16     1.471     0.799 -26.37   2
       168    886.8054    766.8799 307.5437836  +6.3909911     831.3401     1464.068     1651.733     77.55079     155.0396     310.6364      1.716     5.10       845.22     54.79287     122.7457         9     1.143     0.643 -48.27   0
       169    256.9631    762.5529 307.8053510  +6.3719786     615.4615     1219.476      1173.21     77.67458     155.4728      310.791      1.956     6.63     844.4918     54.79287     94.81055         8     1.668     0.740 -49.84   0
       170    903.1945    760.5995 307.5371908  +6.3941230     979.7361     1953.041     1618.963     77.30263     155.1635     310.6674      2.132     7.64     844.7422     54.79287     118.6316        18     1.877     0.869 -34.09   0
       171    929.6167    761.3858 307.5261972  +6.3946679     845.2483     1418.607     927.3124     77.67458     155.1635      310.791      1.760     5.44     844.1216     54.79287     128.6253        11     1.360     0.613 -26.72   0
       172    151.7237    761.8170 307.8490541  +6.3687943     708.1813     1093.808     1022.329     77.42681     155.2254     310.7601      1.681     5.47     843.2765     54.79287     125.4813        11     1.580     0.534 -17.22   0
       173    956.3743    759.2231 307.5151630  +6.3964410     2084.004     3591.985      4182.93     77.42681     155.3492      310.791      1.935     4.74     843.6855     54.79287      242.569        25     1.502     1.088 -23.59   0
       174    676.0217    758.3076 307.6315607  +6.3875838     968.1719      1593.17     1751.277     77.92155     155.2873     310.6674      1.646     5.92     846.6625     54.79287     142.2248        11     1.488     0.662 -21.42   0
       175    396.6398    754.0731 307.7476634  +6.3801026     621.2988     1037.687     856.0152     77.79816     155.5346     310.9147      1.607     5.75     844.4435     54.79287      107.308         9     1.626     0.572 -24.37   0
       176    997.9014    752.7043 307.4981435  +6.4004976     1290.489     2451.713      2391.73     77.92155     155.9664     310.6983      1.937     6.29     843.1227     54.79287     158.9973        21     1.590     0.977 -27.83   0
       177    624.1020    752.4755 307.6533063  +6.3882781     633.0383     1045.927     937.5442     77.55079     155.6581      310.822      2.152     4.97     846.3629     54.79287     94.33484         7     1.172     0.596 -45.29   0
       178    799.4548    751.2098 307.5805647  +6.3945829     1153.028     1868.099     1753.715     77.30263      155.411     310.5746      1.663     4.36     846.1672     54.79287     163.6528        16     1.359     0.889 -42.06   0
       179    885.5457    748.4042 307.5449240  +6.3985762     1245.225     2530.601      2433.85     77.30263     155.2254     310.5436      1.966     6.19     844.9138     54.79287       184.71        16     1.505     0.891 -26.16   0
       180    860.1044    743.7630 307.5556394  +6.3996545      826.869     1324.437     1380.053     78.04475     155.3492     310.9765      1.696     5.54     845.4983     54.79287     110.6702        11     1.576     0.549 -24.39   0
       181    842.6830    739.9116 307.5629995  +6.4006706      1316.89     2231.364     2147.212     77.67458     155.6581     310.8838      1.778     4.82     845.6342     54.79287     187.8974        18     1.404     0.991 -38.52   0
       182     41.6421    738.9857 307.8955111  +6.3745659     2242.475     4008.681     4074.757     77.30263     155.2873     310.6055      1.871     5.37     841.9025     54.79287     308.4355        23     1.731     0.819 -34.50   0
       183    105.8284    736.9819 307.8689389  +6.3775232     855.8124     1670.272     2195.516     77.55079     155.2873      310.791      2.344     6.57     842.0421     54.79287     118.9081        12     1.442     0.841  71.45   0
       184    654.2326    727.4312 307.6416392  +6.3996103     5791.793     9620.507     9754.523     77.42681     155.2254     310.5746      1.758     6.24     845.5128     54.79287     843.4839        33     1.663     1.002 -30.15   0
       185    600.9141    726.8563 307.6637897  +6.3980879     1238.655     2174.181     2247.957     77.92155     155.4728     311.0074      1.862     5.63     845.4467     54.79287     189.3806        17     1.664     0.756 -24.86   0
       186    522.6663    727.2647 307.6962546  +6.3953350     565.3636      793.057     1176.137     77.92155     155.4728     310.8838      1.608     5.48     844.6641     54.79287     88.30261         7     1.453     0.583 -25.28   0
       187    511.6701    727.3021 307.7008175  +6.3949562     762.8013     1290.255     1331.904     77.79816     155.6581     310.8528      1.630     4.78     844.6179     54.79287     121.2444         9     1.359     0.476 -40.48   0
       188    991.2596    722.5103 307.5019087  +6.4127430       2165.7     3843.351     4470.216     77.79816     155.5346     310.9456      1.901     5.25     843.1883     54.79287      239.354        24     1.615     0.990 -34.43   0
       189    117.1473    723.5258 307.8646943  +6.3834530     3409.222     5851.755     6416.475     77.92155     155.5346     310.8528      1.830     5.64     841.7665     54.79287     502.6323        28     1.720     0.893 -29.38   0
       190    628.1085    723.0104 307.6526309  +6.4005730      1955.21     3070.559     2920.936     77.67458     155.1016     310.6674      1.644     4.69     845.4065     54.79287     285.6101        17     1.488     0.714 -36.61   0
       191    303.9362    723.4926 307.7871683  +6.3896574     577.2164     937.3732     1106.068     77.92155     155.6581     310.9147      1.588     5.28     843.0784     54.79287     93.25092         8     1.534     0.513 -29.50   0
       192    239.3721    723.1854 307.8139764  +6.3876457     743.0801     1002.153     1386.266     77.55079     155.2873     310.7601      1.402     4.75     842.6079     54.79287     117.4894         8     1.092     0.586 -29.92   0
       193    901.1545    719.1159 307.5394241  +6.4111799     3243.738     5588.973      6089.31     77.92155     155.4728     310.8838      1.802     4.49     843.9667     54.79287     417.7952        29     1.679     0.966 -36.07   0
       194    771.0206    719.4958 307.5934284  +6.4067371     18446.84      30998.4     32393.43     77.79816     155.2873     310.6674      1.792     5.34     845.5391     54.79287     2629.579        50     1.746     1.042 -32.61   0
       195    498.8277    719.5701 307.7064074  +6.3977235     1052.316     1626.052     1336.005     77.42681     155.2254     310.6364      1.595     5.50     844.3539     54.79287     158.8101        13     1.384     0.708 -39.55   0
       196    470.0675    719.7963 307.7183373  +6.3966795     1369.587     2142.157     2339.696     77.30263     155.1635     310.6364      1.733     6.33     844.1403     54.79287     202.2056        14     1.367     0.823 -23.28   0
       197    316.1480    719.5875 307.7822310  +6.3916737     624.3779     1060.732     1153.271     77.30263      155.411     310.5746      1.675     3.51     842.8604     54.79287     111.1163         5     0.812     0.439 -19.11   0
       198    273.1252    719.1295 307.8001034  +6.3904380     703.8159     762.1576     784.2832     78.16775     155.5963     310.8528      1.355     4.98     842.6708     54.79287     102.4697         8     0.907     0.777 -16.81   0
       199    244.5003    713.3171 307.8121799  +6.3918889     5803.448     9384.398     10241.85     77.92155     155.9664     310.9456      1.737     5.32     842.0063     54.79287     794.1154        31     1.697     0.862 -34.46   0
       200    651.6256    712.2916 307.6432286  +6.4057736     6550.903     10833.65     10888.58     78.04475     155.2254     310.6983      1.768     5.23     845.0193     54.79287     886.0391        33     1.653     0.962 -36.21   0
       201    634.0016    713.4212 307.6505062  +6.4047258     925.0406     1446.873     1434.224     77.55079     155.1635     310.5746      1.722     5.66     845.0834     54.79287      139.618        11     1.392     0.649 -33.90   0
       202    347.5943    711.7958 307.7694407  +6.3959309     690.9006     987.8755     828.4374     77.30263     155.1635     310.7292      1.636     3.17     842.3809     54.79287     140.6909         8     0.971     0.576 -16.72   0
       203    911.7063    704.5866 307.5355297  +6.4175247     1287.774     1948.418     1692.315     77.67458     155.2254     310.6983      1.619     5.22      843.443     54.79287     139.4512        16     1.369     0.851 -42.74   0
       204    723.3658    700.6921 307.6138388  +6.4129281     3510.372     5999.247     6110.781     78.04475     155.3492     310.9147      1.809     4.94     844.9445     54.79287     466.1915        30     1.622     1.020 -33.36   0
       205    678.5970    701.1666 307.6324059  +6.4112557     952.2643     1666.477     1805.391     77.17825     155.2873     310.6055      1.737     5.71      844.643     54.79287     129.8821        12     1.476     0.622 -27.79   0
       206    989.6506    697.2275 307.5034210  +6.4231266     7565.541      13465.9     14468.63     77.55079     155.5963      310.791      1.886     4.97     843.0613     54.79287      905.028        38     1.749     1.093 -33.22   0
       207    927.9036    697.6884 307.5290368  +6.4209053      1975.15     3533.664     3858.367     77.92155     155.8431     310.8838      1.919     5.43     842.9237     54.79287     253.5266        21     1.544     0.920 -37.65   0
       208      8.4196    697.5974 307.9106952  +6.3905464     1816.704     3373.891     4234.412     77.55079     155.0396     310.6055      2.099     6.63     840.6157     54.79287     317.3668        26     1.912     0.982 -23.49  16
       209    425.6819    695.5169 307.7375758  +6.4052340     563.3307      882.304     1163.473     77.67458     155.7198     310.9456      1.772     4.25     843.1738     54.79287     107.2592         7     1.345     0.383 -34.28   0
       210    542.7314    695.1025 307.6890050  +6.4092739     629.2243     957.3406     1036.693     77.92155     155.5963     310.8528      1.639     4.20       843.77     54.79287     105.8241         6     1.243     0.404 -35.35   0
       211     66.8918    692.4648 307.8865994  +6.3946063     23882.38     39564.09     41543.96     77.92155     155.6581     310.8528      1.785     5.15      840.499     54.79287     3492.737        53     1.784     1.003 -32.72   0
       212    528.3262    693.2700 307.6950458  +6.4095544     2059.271     3096.787     3090.326     78.04475     155.5963     310.8838      1.727     5.21     843.6534     54.79287     335.6495        17     1.530     0.692 -33.92   0
       213    496.9734    690.2903 307.7081597  +6.4097484     1316.401     2099.256     2013.171     78.04475     155.2254     310.7292      1.721     5.91     843.4493     54.79287     188.1394        14     1.495     0.657 -31.26   0
       214    917.5834    689.3465 307.5335995  +6.4240091     911.1315     1575.996     2003.057     77.42681     155.5346     310.5746      2.084     6.68     843.0554     54.79287      126.415        14     1.519     0.823 -20.20   0
       215    537.6996    686.7753 307.6913729  +6.4125450     1052.242     1780.056     1742.005     78.04475     155.2254     310.6983      1.883     5.82     843.5074     54.79287     151.6046        13     1.454     0.720 -42.71   0
       216    712.9127    684.2606 307.6187281  +6.4193661     3190.155     5135.801     4945.014     78.04475     155.6581     310.9147      1.675     4.94     844.3582     54.79287     521.6044        22     1.592     0.804 -33.01   0
       217    735.0640    682.6008 307.6095887  +6.4207817     3776.302     6225.603     6464.659     77.17825     155.2254     310.6055      1.776     6.08     844.5186     54.79287      566.742        26     1.592     0.888 -29.25   0
       218    566.4699    680.6783 307.6796353  +6.4160120     3276.127     5123.263     4987.951     78.16776     155.7198      310.822      1.701     5.69     843.6184     54.79287     482.0138        24     1.624     0.845 -30.06   0
       219    402.5587    681.3396 307.7476499  +6.4103212     1235.043     2088.602     2603.972     77.92155     155.4728     310.9147      1.879     5.05     842.4155     54.79287     183.5784        17     1.587     0.720 -29.42   0
       220    226.9027    680.3049 307.8205948  +6.4049324     1624.586       2614.8     2880.039     77.92155     156.0279     310.6983      1.778     5.98     839.7405     54.79287     289.6274        15     1.561     0.669 -27.64   0
       221   1007.7875    678.6312 307.4965133  +6.4313994     4045.859     7306.527     6973.998     77.42681     155.2873      310.791      1.859     5.28     843.0668     54.79287     440.3082        33     1.714     1.059 -29.76   0
       222    310.3322    679.7207 307.7859853  +6.4079371      1349.65     1937.465     1887.505     78.04475     155.6581     310.8528      1.647     5.78     840.2377     54.79287     209.1735        13     1.512     0.621 -27.55   0
       223    973.2609    677.5242 307.5108825  +6.4307210     7129.533     12313.05     12533.17     78.16776     155.4728     310.8528      1.862     4.81     842.8774     54.79287     840.1841        39     1.715     1.093 -30.26   0
       224    693.1129    676.1484 307.6272186  +6.4220617     793.2679      1184.03     1429.435     77.92155     155.3492     310.9456      1.571     5.53     843.9269     54.79287     121.8408        12     1.318     0.654 -18.19   0
       225     84.7870    674.5582 307.8797754  +6.4025915     731.6537     1321.358     1791.561     77.30263     155.2873     310.6055      1.825     5.31     840.0062     54.79287     154.8575        11     1.446     0.551 -35.15   0
       226    799.8530    671.6580 307.5830612  +6.4274341     1124.393     1803.238      1947.48     77.92155     155.4728     310.8528      1.856     6.13     844.1832     54.79287     157.7823        15     1.572     0.672 -38.62   0
       227    418.4771    672.1524 307.7413511  +6.4146400     2928.382     4475.293     4378.446     77.79816     155.5346      310.822      1.708     5.14     842.7239     54.79287       401.14        21     1.572     0.791 -33.71   0
       228    131.6480    671.3236 307.8604341  +6.4054814     22784.79     36852.15     38017.67     77.79816     155.5346      310.822      1.747     5.18     839.9434     54.79287       3187.4        46     1.744     0.952 -33.54   0
       229    636.6525    671.4004 307.6508141  +6.4221588     635.4115     796.0307     426.6657     77.17825     155.0396     310.4199      1.403     4.90     843.7264     54.79287     86.41113         8     1.016     0.669  -4.95   0
       230    351.5126    665.7076 307.7693634  +6.4150847     746.6055     1077.462     920.6715     77.92155     155.9047     310.9456      1.608     4.88     840.1848     54.79287          120        10     1.140     0.626 -35.89   0
       231    968.1812    660.6161 307.5135559  +6.4375334     5778.647     11243.87     12259.35     77.67458     155.2254     310.7601      2.041     4.75     842.2248     54.79287     627.2191        45     1.765     1.293 -29.12   0
       232     12.6227    660.0610 307.9102165  +6.4061796     1076.721     1751.303     1274.698     77.55079      155.411     310.7601      1.636     6.22     839.6647     54.79287     147.4572        17     1.660     0.779 -28.14   0
       233   1022.6675    655.8550 307.4910969  +6.4412904     69696.26     101667.4     104322.6     77.30263      137.293     249.5092      1.618     5.37     841.8827     54.79287     9638.048        54     1.549     1.085 -58.10  24
       234    561.6609    655.9626 307.6824604  +6.4260553     46026.06     73028.91     76338.76     77.92155     155.5346     310.8528      1.714     5.34     842.6134     54.79287     6924.881        57     1.736     0.960 -32.00   0
       235    204.6274    657.7391 307.8306001  +6.4135086      619.621     1000.442     1121.165     77.55079     155.5346     310.7601      1.460     3.34     839.3623     54.79287     111.1342         5     1.197     0.270 -34.75   0
       236    926.0470    657.3660 307.5311550  +6.4374889     582.8603     872.2947      533.205     77.67458     155.4728      310.791      1.853     5.45      842.143     54.79287     74.23907         8     1.219     0.687   0.92   0
       237    521.2345    655.9256 307.6992425  +6.4247352     700.7899     979.0607     1060.518     77.79816     155.4728      310.822      1.340     4.43     842.3572     54.79287     142.9142         9     1.228     0.695 -25.81   0
       238    169.0667    652.7843 307.8455272  +6.4143748     2476.662     4286.561     4411.906     77.42681     155.3492     310.7601      1.827     5.52     839.6583     54.79287     335.1064        24     1.612     0.962 -33.06   0
       239    491.4594    653.1009 307.7116967  +6.4249172     448.2203     664.5179     254.6279     77.67458      155.411     310.9765      1.532     5.07     842.1561     54.79287     87.91272         7     1.771     0.410 -28.59   0
       240     61.8458    647.0428 307.8902247  +6.4131874     1183.957     1663.984     1719.772     77.92155     155.4728      310.791      1.579     5.24     839.5787     54.79287     156.9421        11     1.462     0.550 -28.90   0
       241    458.9089    639.8235 307.7256540  +6.4293218     59787.88     96668.09     100726.1     77.92155     155.2873     310.6983      1.721     5.30      841.507     54.79287     9732.575        66     1.747     0.990 -32.48   0
       242      2.7978    641.6671 307.9149147  +6.4134457     1599.469     2178.513      1925.66     77.42681     142.6468     256.3088      1.510     5.75     839.4582     54.79287     209.7794        14     1.313     0.749 -37.46  24
       243    645.2812    636.6534 307.6483969  +6.4367866     707.0958     1052.315     635.4628     77.92155     155.4728     310.9147      1.609     5.40      842.506     54.79287     123.6776         9     1.616     0.509 -23.79   0
       244    133.2477    635.0427 307.8609922  +6.4205101     1662.269     2715.447     2626.823     77.92155      155.411      310.791      1.734     5.33     839.4945     54.79287     230.4945        19     1.590     0.794 -30.38   0
       245    412.3560    632.7937 307.7452140  +6.4306840     869.8071     1245.498     1203.606     77.42681     155.2254     310.5436      1.705     5.63     840.8442     54.79287     132.4109        11     1.542     0.579 -35.15   0
       246    166.8509    633.7824 307.8470867  +6.4221448     6825.467     7063.181     7266.346     77.42681     155.5346     310.6055      0.612     0.98     839.4615     54.79287     3836.774         7     0.465     0.438 -42.64   0
       247    605.8551    631.0578 307.6649505  +6.4377950     773.2046     1274.023     1628.219     78.04475     155.5346     310.8838      1.804     2.49     841.9297     54.79287     154.8937         8     0.824     0.642 -51.21   2
       248      5.4118    630.7050 307.9141995  +6.4180572     552.6337     763.4322     1561.587     77.67458     155.2254     289.0406      1.926     5.52     839.3427     54.79287     84.76672         9     1.504     0.571 -23.12  16
       249    304.2642    629.0491 307.7902079  +6.4286521     1925.648     3329.432     3683.163     77.79816     155.3492     310.9147      1.803     4.78     839.3812     54.79287     276.7665        22     1.575     0.832 -30.39   0
       250    456.8083    627.6016 307.7269363  +6.4342973     870.4202     1274.741     2338.933     77.30263     155.1635     310.6364      1.701     5.06     841.0057     54.79287     131.9685         9     1.353     0.535 -37.67   0
       251    731.0162    623.1557 307.6132595  +6.4451863     4805.806     7677.438     7609.099     77.42681     155.3492     310.6364      1.680     5.54     843.5966     54.79287     745.6866        26     1.611     0.839 -32.60   0
       252    784.5201    618.4384 307.5912070  +6.4488973     13077.81     20944.05     21605.26     77.79816     155.5346      310.822      1.748     5.13     842.6517     54.79287     1852.754        44     1.719     0.996 -33.86   0
       253   1002.0297    618.9498 307.5008964  +6.4558461     873.4529     1552.881     1349.808     77.55079     155.5963     310.7601      1.785     5.45     839.5354     54.79287     112.8743        10     1.285     0.745 -42.99   0
       254   1023.2409    617.8411 307.4921281  +6.4570011     1173.531     1591.935     1975.687     72.42615     129.5895     240.6499      1.388     4.88     839.0697     54.79287     180.2867        11     1.066     0.757 -68.47  24
       255    608.4774    616.5765 307.6643475  +6.4438592     2794.601     4375.458     4205.901     77.55079     155.3492      310.822      1.717     5.15     841.2888     54.79287     436.6364        23     1.742     0.753 -34.85   0
       256    526.8521    618.4698 307.6981674  +6.4403818     1128.745     2170.206      2375.53     77.79816     155.3492      310.822      1.961     5.93     840.8796     54.79287     156.3069        13     1.425     0.693 -36.69   0
       257     29.5458    617.9894 307.9046110  +6.4241073     695.4604     1031.708     937.7336     77.30263      155.411     310.5436      1.578     5.01     839.2105     54.79287      91.3844        10     1.063     0.669 -28.00   0
       258    925.4838    612.3353 307.5328937  +6.4560586     973.3854     1759.241     1971.177     78.04475     155.7198     310.9147      1.917     6.36     840.7413     54.79287     142.6714        15     1.718     0.662 -32.21   0
       259    184.4918    611.6388 307.8405099  +6.4318699     734.1122     1277.523     1321.671     78.04475      155.411     310.9147      1.738     5.30     839.0911     54.79287     106.4453        10     1.499     0.529 -28.90   0
       260    366.9233    610.2673 307.7648298  +6.4384791     940.2834     1417.958     1137.436     78.04475     155.5346      310.822      1.673     4.99     839.4318     54.79287     146.1008        13     1.381     0.695 -38.98   0
       261    221.0133    610.3170 307.8253947  +6.4336262     1183.926     2037.571     2124.388     77.55079     155.2254     310.6983      1.785     6.66     838.8123     54.79287     213.4883        17     1.656     0.751 -34.95   0
       262    860.5496    601.5609 307.5602100  +6.4583686     2638.141     4196.484     4520.492     77.79816     155.4728      310.822      1.733     5.38     841.4049     54.79287     344.3635        21     1.596     0.789 -30.25   0
       263    156.5185    601.4495 307.8524644  +6.4351482     754.1044      1268.45      1247.91     77.92155     155.4728     310.8838      1.514     2.45     839.1594     54.79287     134.0321         5     0.690     0.469  69.40   2
       264    819.3313    599.1028 307.5774031  +6.4580257     2365.142     3989.024     4062.612     77.79816     155.6581     310.8528      1.749     5.30     841.5975     54.79287     299.8723        23     1.629     0.840 -35.37   0
       265    790.0872    595.0137 307.5896800  +6.4587501     2134.181     3696.724     4780.041     77.55079     155.2873     310.7601      1.996     5.26     841.8114     54.79287       316.73        20     1.738     0.736 -36.74   3
       266    799.8671    590.3007 307.5857778  +6.4610179     147042.1     238783.1       250334     77.92155     155.5963      310.822      1.754     5.25     841.4742     54.79287     21744.58       116     1.805     1.124 -33.27   2
       267    247.2473    594.3746 307.8150417  +6.4410761     7539.887     12096.87     12705.39     77.55079     155.5346     310.7292      1.709     5.50     838.3612     54.79287     1167.794        30     1.648     0.871 -31.13   0
       268    728.0164    591.5649 307.6155627  +6.4581276     475.2227     775.7877     1795.682     77.55079     155.2254     310.6674      1.686     4.25     842.5222     54.79287      73.1557         5     0.788     0.653 -87.26   0
       269    289.0494    592.1456 307.7977646  +6.4433810     1664.768     1589.907     985.1475     77.92155     155.4728     310.8838      0.549     1.22      838.586     54.79287     982.3448         5     0.516     0.342 -87.23   0
       270    181.4919    588.8842 307.8425213  +6.4411629     55785.39     89857.61     95388.75     77.67458     155.8431     310.9456      1.731     4.97     838.7473     54.79287       7578.6        84     1.889     1.059 -34.97   0
       271    105.4973    585.1609 307.8741915  +6.4401789     5808.155     9427.418      9617.34     77.92155     155.3492     311.0382      1.734     4.92     839.0652     54.79287     869.2661        27     1.691     0.827 -29.15   0
       272    970.7341    581.8823 307.5151264  +6.4701180     1107.385     1919.498     2108.513     78.16776     155.7198     310.9147      2.002     5.85     838.9642     54.79287     144.1997        14     1.358     0.709 -39.42   0
       273    219.9737    580.6047 307.8268263  +6.4458561     682.2112     1126.343     1572.093      77.4268     155.2873     310.6983      1.941     4.88     837.8116     54.79287     96.79474         8     1.171     0.575 -36.74   0
       274    836.4926    577.6118 307.5709979  +6.4674623     4196.386     6940.832      7104.05     77.67458     155.1635     310.6674      1.796     5.17     840.9125     54.79287     526.2676        33     1.631     1.049 -31.41   0
       275    354.8305    575.9482 307.7710032  +6.4522450     16332.38     26246.01     27806.12     77.67458     155.5963      310.791      1.695     5.16     838.0449     54.79287     2550.527        43     1.693     0.922 -31.83   0
       276    443.8337    577.0822 307.7340186  +6.4547215     581.3604     1018.402     1458.314     77.92155     155.4728      310.822      1.705     4.70     839.2208     54.79287     143.7393         7     1.082     0.580 -32.17   2
       277    157.8619    574.3735 307.8528187  +6.4463688      1631.15     2796.573     2993.871     77.55079     155.4728     310.7601      2.285     8.59     838.9803     54.79287     240.1143        29     2.834     0.727 -28.08   0
       278    521.2178    570.8020 307.7021059  +6.4598720     6211.578     9703.408     10074.99     77.55079     155.0396     310.5746      1.669     5.35     839.8947     54.79287     1009.191        29     1.630     0.839 -33.06   0
       279    231.9754    572.7586 307.8221085  +6.4494925     873.4205     1491.011     2606.859     77.55079     155.3492     310.6364      2.049     5.91     837.4557     54.79287      108.129        11     1.460     0.674 -31.63   0
       280     94.0885    572.1095 307.8793670  +6.4451875     826.9896     1358.381     1433.715     77.92155     155.9664     310.9456      1.562     5.39     839.0479     54.79287     156.8171        12     1.553     0.597 -40.84   0
       281    790.4493    570.8975 307.5903368  +6.4687169     5530.191     8808.797     8832.666     77.92155      155.411     311.0074      1.696     5.13     841.0239     54.79287      725.962        26     1.632     0.834 -29.76   0
       282    379.3426    567.5400 307.7611105  +6.4565269     1511.296     2333.057     2487.092     78.04475      155.411     310.8838      1.593     5.37     838.0208     54.79287     209.6334        18     1.560     0.706 -30.79   0
       283    566.0076    563.7758 307.6837483  +6.4642520     2322.481     3881.128     4413.835     77.42681     155.3492     310.6983      1.768     5.25     839.9313     54.79287     358.6904        20     1.848     0.641 -30.09   0
       284    168.1765    564.0931 307.8488833  +6.4509543     6302.912     10250.62     10626.68     77.92155     155.2873     310.6983      1.718     5.20     838.7058     54.79287      921.394        29     1.669     0.863 -27.98   0
       285     39.8198    562.9089 307.9022037  +6.4471837     4571.486     7709.397     8293.431     77.79816     155.2254     310.6983      1.793     5.27     839.0991     54.79287     693.0121        32     1.729     0.941 -29.56   0
       286    807.1197    562.9492 307.5836823  +6.4725472      1520.54     2633.866     3196.645     77.92155     155.5346     310.8528      1.847     4.79     840.6538     54.79287     221.2772        19     1.480     0.892 -35.71   0
       287    263.4328    560.4866 307.8094632  +6.4556004     84408.16     133598.2     139005.2     77.92155     155.2873     310.8528      1.745     5.49     837.1968     54.79287      13134.3        77     1.777     1.014 -32.18   0
       288    553.2564    557.7389 307.6892442  +6.4663227      822.545     1277.778     1216.554     78.04475     155.4728     310.8838      1.521     4.87     839.8174     54.79287     142.3983         8     1.431     0.470 -35.27   0
       289    247.2255    555.5271 307.8163579  +6.4571106     1232.628     1941.091     2207.217     77.55079     155.3492      310.791      1.692     5.20      836.924     54.79287     219.3119        11     1.485     0.523 -32.89   0
       290    962.8679    554.0642 307.5193215  +6.4813423     1552.613     2310.048     1677.307     77.92155     155.4728     310.8838      1.640     4.84     838.4872     54.79287     202.7384        18     1.549     0.774 -31.32   0
       291    786.6237    552.6668 307.5925351  +6.4761162      15218.3     24216.14      24765.7     77.55079      155.411      310.791      1.723     4.99     840.4426     54.79287      2168.05        38     1.668     0.924 -32.08   0
       292    490.1845    551.2238 307.7156457  +6.4669278     37597.75     66627.06     70318.64     77.67458     155.2873      310.791      1.885     5.24     839.3881     54.79287     4966.404        72     1.877     1.164 -26.56   0
       293    640.6930    549.4044 307.6532259  +6.4726501     754.7785     1374.875     1565.749     77.55079     155.1635     310.5746      2.510     5.94     840.1596     54.79287     129.4747        12     1.845     0.538 -28.54   0
       294    202.5077    547.7275 307.8351832  +6.4588479     1905.732     3168.016     3949.902     77.79816     155.5963     310.8838      1.804     5.70     837.2572     54.79287     266.7642        21     1.810     0.738 -30.96   0
       295     37.9270    548.1990 307.9034854  +6.4531926     1126.266     2098.801     2441.844     77.30263     154.9776     310.7292      1.981     6.64     839.0995     54.79287      144.954        16     1.596     0.775 -33.83   0
       296    660.5364    546.0320 307.6451012  +6.4746970     1491.513     2234.624     1968.845     77.67458     155.5346      310.822      1.597     5.49     840.3795     54.79287     194.1064        16     1.453     0.753 -39.27   0
       297    650.3084    546.0172 307.6493478  +6.4743656     2825.103     4540.826     4409.411     77.67458     155.2254     310.7601      1.732     5.25     840.2228     54.79287     433.6751        23     1.761     0.782 -36.23   0
       298    251.7121    547.6130 307.8147618  +6.4605259     594.2109     676.4374     -673.407     77.55079     155.2873     310.7292      1.156     2.84     836.6602     54.79287     109.0472         5     0.737     0.432  22.16   0
       299    712.1471    545.1394 307.6237055  +6.4767681     1427.565     2402.383     2324.502     77.92155      155.411     310.8528      1.762     6.20     840.3101     54.79287      219.578        15     1.542     0.700 -39.47   0
       300    387.8620    541.9962 307.7584323  +6.4673527     1635.172     2624.188      2709.88     77.30263     155.2254     310.5746      1.697     5.16     837.1697     54.79287      245.993        16     1.590     0.649 -32.26   0
       301    319.4198    540.1777 307.7869053  +6.4658378     3824.604     5851.093     5973.513     77.67458      155.411      310.791      1.643     4.85     836.6319     54.79287     610.5942        23     1.643     0.775 -30.74   0
       302    134.5243    538.9394 307.8636997  +6.4602208     24538.73     38792.73     40215.97     78.16775     155.4728      310.822      1.721     4.96     838.6385     54.79287     3283.882        45     1.733     0.925 -33.61   0
       303    862.6338    538.6756 307.5614480  +6.4843956     1448.699     2507.154     2258.383     77.79816     155.4728      310.822      1.763     5.30     839.6113     54.79287     215.7977        17     1.510     0.759 -32.90   0
       304    499.2621    539.6158 307.7122670  +6.4720194     2099.669     3426.311     3841.167     77.42681      155.411     310.6674      1.757     5.77      839.007     54.79287     353.4089        16     1.627     0.638 -29.46   0
       305     99.7005    537.2037 307.8782138  +6.4597817     2510.561     4114.732      4278.82     77.67458     155.2254     310.5127      1.722     5.74     838.7277     54.79287     342.6346        19     1.553     0.719 -36.89   0
       306    336.6546    535.4255 307.7799106  +6.4683700     1049.686      1675.76      2068.29     77.55079     155.5346     310.6983      1.680     5.40     836.4279     54.79287     159.9951        11     1.399     0.587 -36.90   0
       307    960.0870    533.0790 307.5211772  +6.4899133     4501.619     7587.872     7740.765     77.67458     155.7814     310.9765      1.785     4.99     837.8411     54.79287     591.0912        30     1.658     0.956 -34.09   0
       308    533.3508    525.7630 307.6985806  +6.4788641     1349.644     2115.677     1756.461     77.67458      155.411     310.7292      1.619     5.68     838.2457     54.79287     217.2056        17     1.569     0.734 -38.44   0
       309      1.1948    522.5858 307.9195968  +6.4625447     4315.705     5037.541     5493.101     65.60517     121.0811     231.4517      0.906     2.27     839.4598     54.79287     1308.635        11     1.075     0.394  87.83  24
       310    431.5272    519.9207 307.7410474  +6.4779095     41879.15     65284.55     67838.49     78.16775     155.7198     310.8528      1.694     5.20     836.7745     54.79287     5811.374        57     1.720     0.951 -32.35   0
       311    639.5677    519.5248 307.6546947  +6.4849468     11840.14     18270.73     18788.61     77.79816     155.5346      310.822      1.704     5.15     838.3948     54.79287     1698.856        36     1.635     0.894 -31.01   0
       312    279.3003    520.1111 307.8042348  +6.4727920     881.8501     1422.835     1534.646     77.92155     155.9047      310.822      1.608     5.35     835.8104     54.79287     146.2788         9     1.445     0.559 -35.54   0
       313    196.6789    517.6677 307.8386149  +6.4710624     17999.58     30874.01     32264.89     78.04475     155.5963     310.8528      1.847     5.17     836.5678     54.79287     2611.251        52     1.763     1.114 -27.35   0
       314    162.4837    518.6779 307.8527759  +6.4695115     1415.389     2337.483     1751.647     78.04475     155.7814     310.9456      1.758     5.06      837.651     54.79287     220.5656        16     1.590     0.758 -32.99   0
       315    973.4291    517.9074 307.5161450  +6.4966149     1069.132     1810.975     1805.306     78.04475     155.2254     310.7601      1.856     5.32     837.0078     54.79287     171.1487        13     1.287     0.783 -22.00   0
       316    902.1675    517.3898 307.5457473  +6.4944837     634.3014      921.561      1235.33     77.42681     155.2254     310.6983      1.642     4.92     838.0437     54.79287     117.1052         7     1.487     0.462 -37.01   0
       317    813.5122    517.1454 307.5825613  +6.4916650     1018.995     1389.576     904.8766     77.92155     155.3492     311.0074      1.442     5.34     838.9286     54.79287     132.2252        11     1.282     0.629 -32.59   0
       318    561.3323    516.2646 307.6872830  +6.4837093     2801.743     4466.671     4338.605     77.92155     155.4728     310.8838      1.660     5.96     837.6035     54.79287     431.0651        19     1.544     0.717 -31.77   0
       319    935.2863    513.2723 307.5321353  +6.4972733     4160.602     6824.414     7334.616     78.04475     155.7198     310.8528      1.786     5.10      837.348     54.79287     611.4583        27     1.644     0.880 -33.17   0
       320    608.3937    511.8486 307.6678938  +6.4870863     6236.334      9750.98     10156.77     77.42681     155.2873     310.4818      1.668     5.15     837.3255     54.79287     915.8634        29     1.624     0.842 -32.79   0
       321     97.2324    512.0010 307.8800877  +6.4701026     864.0511     1587.449     1856.978     77.30263     155.2873     310.6055      2.003     3.45     837.9377     54.79287     144.1912         7     0.881     0.551 -41.93   2
       322    508.1945    510.8664 307.7095239  +6.4841818     559.0231     950.4081     455.5245     77.42681     155.1635     310.6674      1.988     5.39     837.1481     54.79287     90.79565         6     1.200     0.682 -38.09   0
       323    957.9247    505.5201 307.5229958  +6.5012182     3176.376     5152.871     5562.582     78.16775     155.7198     310.9765      1.785     4.79     836.7284     54.79287     469.6907        25     1.638     0.860 -35.28   0
       324    520.5396    503.1765 307.7046570  +6.4877640     7151.353     11265.98     11419.74     77.55079      155.411     310.7601      1.703     5.37     836.6488     54.79287     1039.764        31     1.670     0.824 -31.63   0
       325    396.4978    504.7381 307.7560994  +6.4830177     851.2382     1261.802     1694.707     77.67458     155.5346     310.9147      1.633     5.17     835.6063     54.79287     137.0692        10     1.152     0.656 -39.43   0
       326    366.3814    503.4731 307.7686443  +6.4825432     2510.472     3871.055     3902.256     77.42681      155.411      310.791      1.743     5.78     835.2416     54.79287     374.6766        19     1.575     0.734 -37.47   0
       327    735.9018    503.6196 307.6152345  +6.4946902     557.2792     739.4762      628.113     77.79816     155.3492     310.6055      1.504     4.93     838.4672     54.79287     118.6155         8     1.510     0.455 -28.49   0
       328     89.9496    502.7033 307.8834243  +6.4736987     546.2596     817.5182     418.3709     77.79816      155.411     311.0382      1.619     4.24        837.8     54.79287     88.09967         6     1.513     0.339 -28.72   0
       329    877.0973    498.8527 307.5567753  +6.5013103     2830.318      4481.23      5111.86     77.79816     155.4728        311.1      1.725     4.79     837.5737     54.79287     420.7925        23     1.587     0.828 -29.50   0
       330    529.9682    499.7450 307.7008580  +6.4894920      647.756     782.8902     822.4901     77.79816     155.4728      310.822      1.444     4.98      836.464     54.79287     125.2097         7     1.371     0.512 -40.94   0
       331    225.1928    498.4455 307.8274252  +6.4799420     574.3489     1108.336     952.4658     77.42681     155.2873     310.5127      1.722     5.47     835.2892     54.79287     95.42572         9     1.629     0.518 -28.43   0
       332    884.5920    493.1656 307.5538540  +6.5039046     1933.297     3126.105      3162.26     77.42681     155.2873     310.6364      1.765     5.59     837.1534     54.79287     280.6561        17     1.445     0.775 -33.66   0
       333    923.6603    492.3919 307.5376600  +6.5055099     1098.904     1837.235     1920.231     77.30263     155.2873     310.6055      1.762     6.39     836.4241     54.79287     170.3732        16     1.646     0.696 -27.66   0
       334    103.6105    492.3146 307.8781035  +6.4784402     746.2822     1174.151     1025.737     77.55079     155.2254     310.6983      1.707     6.11     837.2122     54.79287      107.176        11     1.376     0.764 -31.60   0
       335    261.1317    492.3966 307.8127095  +6.4836298     332.7581     398.1924    -20.56335     77.30263     155.1016     310.6364      1.148     4.14     834.8847     54.79287     73.97565         5     1.172     0.418 -13.41   0
       336    708.4507    489.2249 307.6271131  +6.4997268     2735.061     4354.433     4486.677     77.55079     155.4728     310.7601      1.722     5.51     837.4564     54.79287     364.8376        21     1.578     0.769 -32.85   0
       337     70.2425    488.4693 307.8920849  +6.4789198     1807.745     3048.277     2873.298     77.79816     155.4728     310.9147      1.707     4.96     837.9442     54.79287     290.6627        19     1.532     0.830 -36.35   0
       338    419.1738    487.8288 307.7472538  +6.4907477     1106.508     1616.227      1708.06     77.42681     155.2873     310.7292      1.636     5.84     835.0199     54.79287     167.4188        13     1.478     0.649 -34.04   0
       339    379.1697    487.7233 307.7638648  +6.4894676     3604.823     5717.756      5612.08     77.79816     155.5346     310.8528      1.736     5.19     834.7099     54.79287     631.6342        26     1.708     0.805 -28.67   0
       340    607.0564    484.0583 307.6693810  +6.4985135     9701.159     15357.65     16119.16     78.04475     155.4728     310.8838      1.695     4.97     835.3799     54.79287     1483.994        33     1.620     0.901 -32.41   0
       341    769.9990    480.2787 307.6018603  +6.5054491     14798.75     24283.66      27290.3     77.17825     154.9156     310.6364      1.788     5.88     837.4739     54.79287     2416.089        56     2.281     0.978 -41.01   0
       342    289.3831    481.1760 307.8013589  +6.4891973     2600.644     4157.596      4054.78     77.67458     155.3492      310.791      1.744     5.09     834.2254     54.79287     381.1623        20     1.559     0.762 -37.70   0
       343    413.2297    480.5096 307.7499674  +6.4935722      617.546     939.3619     708.6502     78.04475     155.2254      310.791      1.630     4.97     834.6428     54.79287     91.58661         8     1.365     0.513 -33.04   0
       344    372.6481    477.5824 307.7669131  +6.4934376     1476.086     2322.471     2299.519     77.42681     155.5346     310.6364      1.619     5.22     834.2629     54.79287     205.7026        16     1.606     0.646 -33.92   0
       345    798.9520    477.5745 307.5899305  +6.5075196     1088.485     1845.845     1867.746     77.55079     155.5346     310.7601      1.613     5.44     837.3903     54.79287     164.5409        12     1.489     0.560 -32.95   0
       346    954.9789    475.4639 307.5252233  +6.5135282     1633.876     2686.239     2906.523     77.55079     155.4728     310.7292      1.697     5.73     835.5524     54.79287     201.8942        16     1.396     0.809 -40.23   0
       347    703.0770    474.6321 307.6298330  +6.5055732      556.087     839.8735      865.551     77.79816     155.4728      310.791      1.511     4.83     836.6581     54.79287      101.721         7     1.551     0.426 -29.32   0
       348    360.8682    473.8664 307.7719283  +6.4945816      732.941     1086.936     1928.964     77.92155     155.5346     310.8838      1.699     4.33      834.058     54.79287     115.5897         7     1.166     0.457 -34.49   0
       349    107.1812    472.6672 307.8772834  +6.4866684     4188.831     6935.912     7326.632     77.55079      155.411     310.7601      1.743     6.52      836.671     54.79287      677.264        29     1.668     0.859 -33.15   0
       350   1008.9581    470.0810 307.5029922  +6.5175256      3484.48     6777.753     7187.547     77.92155     155.4728      310.822      2.045     4.91      835.093     54.79287     391.9587        36     1.690     1.267 -19.25   0
       351    745.2543    471.4756 307.6124282  +6.5082671     2260.496     3684.439     4195.571     77.79816     155.4728     310.8838      1.751     5.88     836.9621     54.79287     375.1125        18     1.476     0.804 -31.13   0
       352    264.9258    469.8344 307.8118937  +6.4930686     1393.833     2215.553     1735.712     77.79816     155.4728      310.822      1.784     5.42      834.137     54.79287      247.512        13     1.563     0.554 -37.32   0
       353    343.0132    467.3941 307.7795583  +6.4966621     2986.526     4590.994     4281.245     77.55079     155.2873     310.7292      1.620     5.89     833.8041     54.79287     542.5931        21     1.564     0.780 -33.62   0
       354    271.4339    468.3188 307.8092429  +6.4939098     503.5399      789.366     639.1753     77.79816     155.4728     310.8838      1.877     4.48      834.022     54.79287      116.204         5     1.245     0.495 -43.26   0
       355    698.9119    465.1473 307.6318800  +6.5093510     1590.794     2605.321     2853.654     77.92155     155.3492     310.9765      1.679     6.10     836.0974     54.79287     243.4127        15     1.603     0.662 -34.88   0
       356    230.9888    463.2061 307.8262053  +6.4946799     811.9633     967.6888     1324.403     77.55079     155.2873     310.7601      1.434     5.41     834.1876     54.79287     114.0758        11     1.287     0.641 -36.29   0
       357    441.9585    458.7542 307.7387715  +6.5035026     619.8403     921.3839     836.3526     77.79816     155.4728     310.6983      1.926     4.98      833.824     54.79287     93.53595         7     1.382     0.509 -41.35   0
       358    540.3208    458.0396 307.6979597  +6.5070492      860.005     1143.716     1412.514     77.79816     155.5346      310.822      1.464     4.74     833.8602     54.79287      132.623         9     1.401     0.455 -25.64   0
       359    462.4041    456.3598 307.7303638  +6.5051671      1381.97     2266.731     2273.305     77.17825     155.2254     310.5746      1.745     6.77     833.7148     54.79287     214.2557        17     1.844     0.698 -32.32   0
       360    825.2831    454.8962 307.5797576  +6.5177484     1446.994     2279.431     1807.034     77.79816     155.8431     310.9456      1.694     4.65     836.2864     54.79287     201.3712        18     1.343     0.935 -31.55   0
       361    810.7764    454.0978 307.5858071  +6.5176001     1760.761     2854.039     2998.287     78.04475     155.2254     310.6983      1.713     5.14     836.2924     54.79287     251.3016        20     1.628     0.764 -32.29   0
       362    708.2178    452.2625 307.6284482  +6.5149766     14108.55     22110.06     23488.92     77.55079      155.411     310.6983      1.674     5.35     835.5417     54.79287     2234.113        36     1.641     0.873 -32.76   0
       363    611.1440    453.9152 307.6686948  +6.5110909     725.2775     1018.409      811.556     77.92155     155.4728     310.9765      1.492     4.44     834.4092     54.79287     109.6692         7     0.898     0.625 -39.69   0
       364    629.2632    448.3688 307.6613583  +6.5139785     2273.652     3729.629     3873.347     77.67458     155.5346      310.822      1.726     6.25     834.4538     54.79287     376.7991        18     1.583     0.693 -30.43   0
       365    700.7850    446.9908 307.6317107  +6.5169075     514.0496     1268.313     1971.094     77.67458     155.2254     310.7292      2.097     3.66     835.2168     54.79287     121.0839         5     1.021     0.378  85.56   2
       366    604.4319    445.3463 307.6717688  +6.5144064     5223.811     8215.107     8672.138     77.79816     155.5346      310.791      1.733     5.33     834.0402     54.79287     744.6688        27     1.669     0.847 -30.42   3
       367    600.6951    442.8331 307.6734046  +6.5153204     13938.29     22186.96     23280.87     78.04475     155.3492     310.9456      1.713     5.57     833.9279     54.79287     2114.532        40     1.686     0.945 -34.01   3
       368    933.5298    442.0641 307.5352449  +6.5266095     3604.292     5715.134     5780.269     77.92155     155.4728     310.8528      1.699     4.97     835.2082     54.79287     522.7152        23     1.612     0.793 -32.04   0
       369    372.5802    438.3515 307.7682600  +6.5096289     28174.84     44412.68     46196.56     77.42681     155.5346     310.6674      1.725     5.22     832.9083     54.79287     3893.936        54     1.733     0.959 -33.56   0
       370    888.9912    437.8352 307.5538780  +6.5268891     1311.579     2297.477     2626.654     77.42681     155.2873     310.6364      1.771     6.06      835.476     54.79287     207.2601        14     1.473     0.701 -36.14   0
       371    118.7139    437.9771 307.8736649  +6.5013700     2224.516     3419.552     3361.533     77.92155     155.2873     310.7292      1.651     5.15      835.966     54.79287     314.1828        21     1.532     0.825 -32.66   0
       372    902.2471    432.5713 307.5485504  +6.5294984     4490.408      7418.39     7867.251     77.55079     155.5346     310.7601      1.786     5.53     835.2957     54.79287      742.719        30     1.683     0.892 -33.01   0
       373     51.9556    433.4740 307.9015306  +6.5010127     1435.201     2578.694     2826.954     77.79816     155.5346     310.8838      1.866     5.52     837.3406     54.79287     241.5315        17     1.651     0.731 -34.67   0
       374    885.7793    434.3900 307.5553267  +6.5282055     634.0952     1300.266     1359.686     77.55079     155.1635     310.6983      2.212     4.98     835.3948     54.79287     86.30658         7     1.068     0.656 -26.06   0
       375    584.3990    433.6700 307.6804775  +6.5185646     522.0384     923.7274     1065.301     77.30263     155.0396     310.6674      2.003     4.58     833.2868     54.79287     82.43329         6     1.240     0.480 -28.26   0
       376    958.2144    430.5448 307.5253812  +6.5321767     492.6251     616.6506     475.3455     77.30263      155.411     310.5746      1.535     5.31     834.6302     54.79287       78.646         7     1.391     0.573 -33.17   0
       377    230.0760    428.9442 307.8277376  +6.5087919     13193.42     21398.08     22125.09     77.92155      155.411      310.791      1.721     5.25     832.9461     54.79287     2048.955        37     1.696     0.910 -34.59   0
       378     64.3414    424.2213 307.8967008  +6.5052432     597.2979     1229.311      1503.71     77.55079     155.3492     310.6674      2.306     3.04     836.8195     54.79287     141.4662         5     0.760     0.665  61.12   2
       379    724.7392    422.5607 307.6225839  +6.5277819     822.6481     1134.672      1563.81     77.92155     155.4728     310.9147      1.566     5.49     834.1111     54.79287     158.6357        10     1.332     0.638 -31.02   0
       380    693.3563    421.8535 307.6356373  +6.5270387     713.8732      1240.94     1855.314     77.92155     155.4728     310.8528      2.088     5.08     833.9244     54.79287     124.8102         8     1.485     0.492 -37.27   0
       381    951.6002    421.6969 307.5284230  +6.5356114     571.3509     718.0055     1089.605     77.42681     155.1016     310.4508      1.582     3.74     834.5668     54.79287     132.7998         5     0.937     0.428 -17.13   3
       382    954.4718    420.4872 307.5272712  +6.5362052     754.3207     1204.725     889.5455     78.04475     155.7198     310.8528      1.314     4.30     834.4872     54.79287     127.8427         6     1.063     0.495  86.07   2
       383    175.7277    419.1037 307.8506317  +6.5110518     707.4261     1262.284     1423.817     77.67458     155.6581      310.822      2.287     5.32     834.6935     54.79287     100.0773        10     1.591     0.503 -48.55   0
       384    343.2273    418.4949 307.7811137  +6.5168535     1118.777     1858.933     1842.854     78.04475     155.2254     310.7601      1.752     5.87     832.3296     54.79287     203.1617        14     1.732     0.630 -33.07   0
       385    130.3443    417.6366 307.8695220  +6.5101518     4861.194     7908.355     7914.089     77.79816     155.4728     310.8838      1.735     5.79     835.5657     54.79287     749.0486        27     1.656     0.832 -32.75   0
       386    235.0763    416.6060 307.8260771  +6.5140505     1381.514     2152.331     2237.929     77.55079     154.9776     310.6983      1.655     5.81     832.5006     54.79287     182.4495        16     1.614     0.668 -35.63   0
       387    427.3866    416.4192 307.7462435  +6.5204955     449.1412     927.1329     1281.466     77.67458     155.2254     310.7601      1.907     4.78     831.9095     54.79287     101.3918         6     1.467     0.441 -39.42   0
       388    152.3585    413.3295 307.8605280  +6.5126600     2383.708     4297.325     4823.097     77.79816     155.4728     310.9147      1.901     5.01     835.3297     54.79287     356.1846        30     1.823     0.977 -44.42   0
       389    816.9953    413.5057 307.5845837  +6.5345608     658.5135     1028.425     860.7206     77.67458     155.1635     310.6055      1.576     5.20     834.6212     54.79287     112.5665         9     1.413     0.540 -39.85   0
       390    548.3204    412.3466 307.6961719  +6.5261746     887.2155     1397.313     1514.927     77.92155     155.4728     310.9147      1.815     5.21     831.4054     54.79287     142.7761        10     1.396     0.548 -34.67   0
       391    375.8604    408.1470 307.7679135  +6.5222051       2104.5     3208.032      2908.58     77.92155      155.411     310.8528      1.566     4.59     831.7609     54.79287      307.525        18     1.594     0.655 -32.54   0
       392    264.6971    408.1158 307.8140655  +6.5185366     820.0355     1176.881     893.1701     77.92155     155.8431     310.9147      1.460     6.33     832.3485     54.79287     142.0588        14     1.564     0.720 -39.49   0
       393    964.5616    406.9918 307.5235330  +6.5421079     912.3596     1597.395     1567.844     77.17825     155.2254     310.5746      1.866     6.36     833.6865     54.79287     121.3092        14     1.524     0.755 -39.36   0
       394    429.7143    401.6527 307.7457732  +6.5266677     7061.605     11285.34      11473.4     77.92155      155.411     310.9765      1.726     5.56     831.2781     54.79287     1115.969        34     1.722     0.883 -33.68   0
       395     26.2587    402.5294 307.9132421  +6.5129320     2903.725     4976.175     5913.662     78.04475     155.4728     310.8528      1.955     6.61     837.1038     54.79287     479.1122        28     1.953     0.832 -38.98   0
       396    762.2881    400.4496 307.6077347  +6.5381471     1913.653     2986.282     3346.546     77.92155     155.2873     310.9765      1.709     4.77     833.5527     54.79287      275.137        18     1.523     0.742 -26.26   3
       397    770.3495    398.8102 307.6044426  +6.5390896     12238.87     19406.89     20419.18     77.42681     155.3492     310.5436      1.704     5.27     833.5975     54.79287     1826.562        38     1.701     0.867 -31.83   2
       398    333.9077    397.4496 307.7856906  +6.5252318     983.4152     1593.138     1641.763     77.79816     155.2873     311.0074      1.710     5.43     831.5327     54.79287     170.1433        12     1.522     0.547 -31.79   0
       399   1014.2467    393.9122 307.5033408  +6.5491412     3263.613      5698.91     6364.507     77.92155     155.3492     310.8838      1.841     5.05     832.1157     54.79287     476.4208        25     1.629     0.904 -35.14  16
       400    945.4660    390.7126 307.5320056  +6.5481995     539.6873     889.6273      834.716     77.92155     155.6581     310.8838      1.830     4.99     833.2477     54.79287     82.18036         5     1.106     0.636 -26.87   0
       401    178.5420    390.3028 307.8504335  +6.5230332     785.0246     1210.059     980.0385     77.67458      155.411     311.0074      1.694     5.87     834.2518     54.79287     121.8443        10     1.315     0.738 -44.19   0
       402    896.4167    388.3881 307.5524487  +6.5475447     541.8774     805.5026     704.2199     77.67458     155.1635     310.7601      1.416     3.53     833.4891     54.79287     98.63171         5     1.284     0.280 -44.90   0
       403    517.5389    387.0384 307.7098012  +6.5356042     466.3807     511.2567     787.5425     77.92155     155.5346     310.8528      1.338     4.88     830.4823     54.79287     75.07904         7     1.317     0.512 -28.80   0
       404    449.9738    385.8918 307.7378915  +6.5338436     2122.009     3488.343     3355.291     78.04475     155.2254     310.6983      1.754     5.50     830.6072     54.79287     351.6409        20     1.671     0.737 -38.53   0
       405    477.7477    385.3307 307.7263791  +6.5349936     2918.972     4622.901     4777.533     77.79816     155.3492     310.7601      1.697     5.86     830.6121     54.79287     456.0254        19     1.583     0.718 -32.42   0
       406    907.0199    384.8204 307.5481655  +6.5493664     792.5004     1000.472     611.8568     77.67458      155.411      310.791      1.440     5.33     833.2938     54.79287     119.9867         9     1.227     0.653 -41.64   0
       407    835.7305    381.7524 307.5778677  +6.5482853     30564.55      50962.5     53015.25     77.92155      155.411     310.8838      1.787     4.94      833.251     54.79287     4190.594        59     1.763     1.100 -37.55   0
       408    327.8401    377.6736 307.7888748  +6.5331939     911.8905     1477.984     1732.842     77.79816     155.4728     310.8838      1.812     5.51     830.8904     54.79287     115.7941        11     1.361     0.630 -28.83   0
       409     53.1953    378.4854 307.9028704  +6.5237511     707.9216     1362.807     1059.002     77.42681     155.1635     310.5436      2.152     4.62     835.7981     54.79287     105.9255         7     1.252     0.485 -25.03   0
       410     15.5830    374.8986 307.9186062  +6.5239823     1021.331     1639.828      1555.64     77.92155     155.2873     310.6674      1.697     6.26     836.0446     54.79287     141.1317        14     1.530     0.720 -34.14   0
       411    607.4976    374.3330 307.6728778  +6.5438205     2522.692     4097.129     4273.926     77.92155     155.5346     310.9147      1.723     5.07     830.8549     54.79287     359.3225        18     1.578     0.698 -34.49   0
       412    850.2495    369.3290 307.5722551  +6.5538917     1108.527     1911.173     1963.272     77.92155      155.411     310.8838      1.757     6.61     832.6767     54.79287     136.9605        16     1.668     0.735 -44.75   0
       413    692.1642    367.7766 307.6379444  +6.5493213     75148.88     119106.5     124312.7     77.55079     155.2254     310.6364      1.692     5.52     831.7252     54.79287     12625.79        79     1.743     1.033 -32.32   0
       414    105.8298    371.7472 307.8812459  +6.5282798     1475.226     1668.276     1893.165     77.67458     155.5963      310.791      0.749     2.50     835.1919     54.79287     534.6506         5     0.678     0.382 -21.79   0
       415     71.3021    367.6221 307.8957195  +6.5288363     1361.875     1996.895     1826.571     77.79816     155.2254     310.6674      1.752     5.72     835.3873     54.79287     189.4191        18     1.648     0.717 -32.46   0
       416    554.6174    364.5641 307.6951610  +6.5461063     2601.073     4001.166     4457.043     77.42681     155.2873     310.6364      1.722     5.50     829.6193     54.79287     422.1653        19     1.530     0.729 -34.83   0
       417     58.6101    366.2111 307.9010363  +6.5289972     409.1227     502.3678     384.7819     77.67458     155.2873      310.822      1.289     2.84     835.4068     54.79287     91.84308         5     0.732     0.443 -69.39   0
       418    933.7197    364.5145 307.5377586  +6.5586272     689.2139     1215.911      1111.75     77.67458     155.7814     310.9456      1.942     5.85     832.0345     54.79287      124.588         9     1.569     0.614 -41.63   0
       419    381.6769    365.3712 307.7669366  +6.5400543     494.2023     589.4856     551.1175     77.79816     155.5346     310.8838      1.467     5.24     829.7071     54.79287     118.9911         7     1.515     0.512 -22.12   0
       420     91.8328    363.5563 307.8873330  +6.5311961      5932.56     9672.178     9532.609     77.55079      155.411     310.6983      1.737     5.16      835.202     54.79287     925.9757        31     1.684     0.872 -36.17   0
       421    537.8875    360.7415 307.7022354  +6.5471314     7012.833     11018.69     11661.05     77.92155     155.5346     310.9765      1.678     5.26     829.3879     54.79287     1124.024        30     1.619     0.868 -35.38   0
       422    266.8429    358.5765 307.8148419  +6.5390560     2436.455     4011.572     3110.298     77.55079     155.3492     310.6983      1.703     5.85      831.629     54.79287     398.4325        21     1.598     0.784 -32.28   0
       423    400.7369    356.0067 307.7593380  +6.5445505     24628.98     39578.44     41355.28     77.30263     155.2873     310.6364      1.708     5.11     829.2092     54.79287     3783.304        47     1.712     0.926 -33.65   0
       424    508.4768    354.8024 307.7146459  +6.5486109     1259.573     1843.949     1708.158     77.30263     154.9776     310.7292      1.587     5.89     829.4791     54.79287     205.8467        13     1.449     0.674 -32.99   0
       425    380.4923    354.2108 307.7678036  +6.5446218     1120.252     1833.368     2197.879     77.67458     155.1635     310.6983      1.729     5.68     829.1951     54.79287     178.4043        13     1.615     0.563 -29.85   0
       426    667.9690    353.9983 307.6484521  +6.5542104     369.8828     576.8583     548.0128     77.30263     155.2873     310.6364      1.980     3.75      830.774     54.79287     74.32111         5     1.656     0.244 -31.97   0
       427    479.9660    351.3821 307.7265983  +6.5490802     1100.758         1645     1540.228      77.4268     155.2873     310.6674      1.573     5.69     829.6003     54.79287     188.9816        14     1.584     0.575 -33.98   0
       428    795.6943    348.2366 307.5956128  +6.5608009      888.874     1590.283     1422.583     78.04475     155.3492     310.9456      1.889     6.83     831.7528     54.79287     129.0468        12     1.469     0.890 -32.04   0
       429    377.4036    348.3560 307.7692828  +6.5469363     677.8158     1101.089     1657.556     77.30263     155.1016     310.5127      1.691     5.22     829.0599     54.79287      135.821         8     1.669     0.462 -35.55   0
       430    632.5845    347.8071 307.6633514  +6.5555981     480.6616     789.2313     812.0446     77.55079     155.2254     310.6983      1.617     3.40      829.879     54.79287     91.09351         5     1.166     0.286 -35.17   0
       431    489.8592    346.3822 307.7226586  +6.5514711     8144.914     12840.48      13140.7     77.55079     155.3492     310.6055      1.679     6.13     829.2704     54.79287     1332.573        29     1.653     0.825 -33.93   0
       432    759.0374    344.8790 307.6109455  +6.5609786     3102.385     4936.806     5062.007     77.79816     155.5346     310.8528      1.665     4.71     831.5374     54.79287     492.7111        25     1.556     0.937 -31.35   0
       433    914.1049    344.7143 307.5465650  +6.5661549      778.989     1163.911     1478.239     77.92155     155.8431     310.9147      1.535     4.99     831.3422     54.79287     128.5432        10     1.229     0.609 -35.23   0
       434    316.3285    343.2550 307.7948119  +6.5470196     1150.064     1750.046     1676.422     77.79816      155.411      310.822      1.669     5.80     830.0355     54.79287     180.1284        13     1.365     0.774 -27.59   0
       435    150.6105    337.6951 307.8638020  +6.5438213     673.0372     1067.499     1256.334     77.55079     155.1016     310.6364      1.501     4.78     834.1553     54.79287     150.2995         5     1.355     0.478 -65.12   2
       436    153.3132    336.3846 307.8627240  +6.5444519     651.8588     884.3882      948.853     77.55079     155.2254     310.7601      1.202     4.09      834.079     54.79287     131.9753         6     1.034     0.539 -52.23   3
       437    429.6793    336.1685 307.7479880  +6.5536968     483.0114      848.303     764.2662     77.79816     155.4728      310.822      1.765     3.44     828.6495     54.79287      89.2345         5     0.778     0.439 -75.61   0
       438    235.4706    331.2525 307.8287868  +6.5492947     2102.213     3222.994      3053.95     77.79816      155.411      310.791      1.673     5.52     831.8297     54.79287     289.9972        18     1.602     0.732 -37.69   0
       439    379.7329    330.5645 307.7689139  +6.5543572       7366.6      11491.6     11863.88     77.79816     155.5346     310.9147      1.699     5.68     828.7032     54.79287     1161.382        29     1.607     0.847 -35.79   0
       440    733.0997    330.4604 307.6221981  +6.5660750     959.3878     1479.269     1707.288     77.67458      155.411     310.9765      1.680     5.71     830.6745     54.79287     166.9863        13     1.521     0.604 -34.28   0
       441    747.5746    326.2956 307.6163274  +6.5682715     52150.51     81308.23     85141.11     78.04475     155.2254     310.7292      1.727     5.19     830.6186     54.79287     7277.972        67     1.732     1.004 -34.69   0
       442    419.2092    325.9235 307.7526795  +6.5575793     2274.797     3589.408     4140.874     77.55079     155.0396     310.6674      1.771     5.27     828.3545     54.79287     336.1548        20     1.569     0.763 -35.84   0
       443    982.3646    323.2850 307.5189385  +6.5772467     1414.819     2374.482     2613.692     77.92155      155.411      310.822      1.823     4.90     830.2955     54.79287     235.7595        15     1.557     0.658 -25.35   0
       444    565.2247    323.3531 307.6921398  +6.5634677     1185.418      1940.89     2054.112     77.55079     155.4728     310.7292      1.711     5.61     827.8928     54.79287     189.6926        12     1.507     0.589 -37.82   0
       445    923.3815    322.4586 307.5434574  +6.5756471     2084.526     3580.677     3281.856     77.55079     155.3492     310.6364      1.744     6.26     830.6751     54.79287     308.9421        17     1.544     0.713 -31.67   0
       446    455.9847    322.4707 307.7375263  +6.5602210     1041.482     1984.142     2494.969     77.42681      155.411     310.7601      1.870     6.27     828.1992     54.79287     166.5767        15     1.638     0.674 -24.94   0
       447    405.4486    321.5015 307.7585415  +6.5589493     1935.425     3097.031      3474.94     77.92155      155.411     311.0382      1.797     5.83     828.3432     54.79287     306.6537        18     1.538     0.763 -23.40   0
       448    285.5643    321.0243 307.8083328  +6.5551767     696.8105      1166.26     1450.321     77.55079     155.2873     310.6364      1.699     4.59     830.0972     54.79287      101.641         8     1.232     0.485 -28.88   0
       449    827.0322    315.7612 307.5836879  +6.5752389     1152.566     2085.092     2525.671     77.55079     155.2873     310.6674      1.934     5.34     830.6862     54.79287     160.5367        15     1.451     0.747 -32.47   0
       450    456.2113    316.3464 307.7376380  +6.5627565     546.4258     1100.139     1684.774     77.30263      155.411     310.5746      1.780     4.26       827.96     54.79287      143.759         6     1.606     0.322 -23.05   0
       451    436.3527    312.9814 307.7459964  +6.5634886     1032.455     1512.848     1681.569      77.4268     155.4728     310.6674      1.819     5.59      827.943     54.79287     168.9957        12     1.597     0.557 -36.88   0
       452    182.1669    312.8620 307.8515370  +6.5551183     2211.327     3571.051     3719.317     77.67458     155.5346      310.791      1.697     4.94     832.8499     54.79287     316.9086        20     1.587     0.765 -32.62   0
       453    746.0679    310.8484 307.6174705  +6.5745982     5621.329     8940.637     9217.185     77.92155      155.411     310.8528      1.696     5.22     829.8969     54.79287     982.9229        27     1.644     0.817 -34.56   0
       454    217.4221    311.3177 307.8369515  +6.5569248     647.6255     1102.436     898.0518     77.67458     155.1635     310.7601      1.728     5.09     831.9802     54.79287     120.9774         9     1.649     0.445 -37.10   0
       455    336.2878    310.7608 307.7876180  +6.5610933      606.083     1057.275     929.0057     77.92155      155.411     310.8838      1.789     4.66      828.829     54.79287     95.25336         7     1.364     0.452 -30.98   0
       456     79.6161    309.7983 307.8942176  +6.5529798     949.8065     1734.562     1979.681     77.55079     155.1016     310.6364      1.899     3.49     834.6199     54.79287     164.3895         9     1.035     0.697 -40.62   2
       457    762.3650    308.8291 307.6107713  +6.5759690     2495.808     3845.036     4018.001     77.55079     155.2254     310.6674      1.661     5.53     829.9871     54.79287     377.8053        20     1.589     0.771 -31.35   0
       458    304.8315    305.3375 307.8008610  +6.5622900     348.3019     491.0533     325.0256     77.67458     155.5346      310.822      1.136     3.63     829.2121     54.79287     77.92969         5     1.510     0.251 -41.71   0
       459     65.6544    304.4359 307.9001950  +6.5547296     1278.436     2032.279     1365.337     77.79816     155.4728     310.8838      1.622     5.67     834.7059     54.79287      198.899        15     1.665     0.617 -41.90   0
       460    352.0963    303.7098 307.7812915  +6.5645272     1795.525     3246.511      3482.87     77.92155     155.9047     310.8528      1.959     6.62     828.4178     54.79287     312.8194        26     2.009     0.845 -17.12   0
       461   1000.6710    299.6149 307.5121281  +6.5876195     5187.875     8819.508     8614.746     77.42681      155.411     310.7601      1.828     4.93     829.9039     54.79287     674.6428        32     1.713     0.935 -33.48   0
       462    478.5700    299.7816 307.7289110  +6.5703334     2184.463     3330.601     3286.541     77.55079     155.2873     310.7601      1.686     6.01     827.0833     54.79287     326.7332        16     1.522     0.668 -35.59   0
       463    241.2328    295.4012 307.8276014  +6.5642840     5555.263     9004.683     9728.911     77.17825     155.2873     310.6055      1.731     5.51     830.9419     54.79287     931.6577        28     1.669     0.827 -33.20   0
       464    249.3554    296.2134 307.8242016  +6.5642180     498.7945     603.2492     742.6824     77.30263     155.2873     310.6055      1.491     4.28     830.6647     54.79287     85.36975         5     1.020     0.665 -28.84   0
       465    761.3441    288.4466 307.6118779  +6.5843489      712.427     994.6484     1007.305     77.92155     155.4728     310.9147      1.688     4.05     829.0664     54.79287     132.6525         5     1.237     0.433 -31.67   0
       466    218.2149    288.0993 307.8374042  +6.5665349     595.9771     1006.417      1075.76     77.92155     155.2254     310.5746      1.700     4.13     831.5775     54.79287     126.1474         7     1.408     0.345 -32.73   0
       467    375.4737    286.1815 307.7721745  +6.5725363     1628.687     2871.443     2729.725     77.42681      155.411     310.7601      1.828     5.76     827.8668     54.79287     230.7385        17     1.611     0.690 -34.69   0
       468    962.1873    284.8277 307.5286021  +6.5924576     1008.917      1494.75     1295.972     77.42681     155.2873     310.7601      1.724     5.63      829.634     54.79287     135.8467        14     1.382     0.691 -26.12   0
       469    297.5785    282.2562 307.8046491  +6.5715770     1077.361     1684.935     1043.738     77.55079     155.4728     310.6674      1.676     6.11      828.757     54.79287     168.0659        14     1.572     0.667 -44.31   0
       470    145.0982    282.1157 307.8679635  +6.5665796     1822.483     2787.469     3172.085     77.92155     155.8431     310.9147      1.589     4.53     833.0213     54.79287     284.0738        16     1.493     0.669 -36.02   0
       471    554.7665    277.5405 307.6980197  +6.5820325     2092.658      3230.23     3315.322     77.79816     155.5346      310.791      1.654     6.17     826.1376     54.79287     348.5924        18     1.594     0.679 -33.27   0
       472    898.5156    276.6073 307.5553159  +6.5937553     1641.829     2565.988     2415.641     77.55079     155.1635     310.6983      1.623     4.60     829.2764     54.79287     241.0653        17     1.418     0.797 -36.11   0
       473    718.4526    274.9700 307.6301392  +6.5884974     4993.575     7606.579     7570.311     77.67458     155.5963      310.791      1.675     4.99     828.0547     54.79287     721.2878        25     1.553     0.838 -37.06   0
       474    659.1339    274.9814 307.6547697  +6.5865354     2103.041     3278.781     3168.942     77.55079     155.4728     310.7601      1.723     5.50     827.2541     54.79287     316.2091        18     1.506     0.772 -37.41   0
       475    957.2813    274.5153 307.5309840  +6.5965530     687.9663     573.2892    -354.6165     77.67458     155.7814     310.9147      1.272     4.75     829.2355     54.79287     107.8442         6     1.067     0.599 -55.00   0
       476    374.5577    269.0534 307.7731307  +6.5795759     805.1982      1403.31     681.2259     77.92155     155.4728     310.8528      1.631     5.70     827.6356     54.79287     121.3888        10     1.481     0.618 -29.88   0
       477    914.6112    266.8109 307.5489600  +6.5983290     939.1375      1512.34     1486.178     77.67458     155.2873     310.8528      1.748     6.73     828.8819     54.79287     147.1238        15     1.543     0.824 -39.66   0
       478    218.0222    260.5339 307.8384125  +6.5779065      2254.14     3519.575     3327.905     77.55079     155.4728      310.791      1.637     5.62     831.4074     54.79287     384.5219        19     1.455     0.845 -34.24   0
       479    860.7935    259.0219 307.5715680  +6.5997720      1599.31     2450.155     2191.624     77.42681     155.2873     310.6674      1.655     5.28     828.3519     54.79287     226.3505        17     1.588     0.666 -37.70   0
       480    751.0920    258.6105 307.6171343  +6.5963266     1615.748     2477.582      2491.97     77.67458     155.1016     310.6364      1.647     5.97     827.8742     54.79287     314.3167        15     1.472     0.681 -32.98   0
       481    240.0029    253.9203 307.8295086  +6.5813651     624.3832     777.8485     429.2615     77.30263     154.9776     310.6055      1.333     4.66     830.6107     54.79287      101.676         7     0.964     0.638 -54.86   0
       482    451.8605    250.3151 307.7416630  +6.5898685     22185.12     35245.89     36549.38     78.04475     155.5346     310.9147      1.696     5.33     826.0548     54.79287     3388.363        47     1.726     0.937 -34.07   2
       483    457.5376    244.9529 307.7394858  +6.5922697      1324.91     2075.862     2277.042     77.79816     155.3492     310.8838      1.783     5.92     825.8257     54.79287     194.7103        14     1.660     0.594 -39.97   3
       484    312.0663    253.0103 307.7996177  +6.5841287     520.3918     1003.445     1117.499     77.42681     155.3492     310.7292      1.950     3.71     828.2661     54.79287     85.03351         5     0.637     0.623  -2.23   0
       485    777.9141    249.2884 307.6063089  +6.6010589     12695.21     20468.61     21862.36     77.67458     155.7198     310.9765      1.714     5.35     827.6832     54.79287     2047.701        45     1.805     0.939 -30.27   0
       486    717.7813    244.4259 307.6314415  +6.6010832     616.4644     1149.246     1130.332     77.55079     155.2873     310.7601      1.673     4.04     827.0838     54.79287     94.16528         6     0.906     0.515 -46.86   2
       487    140.0561    243.6691 307.8713526  +6.5822816     2114.956     3363.347      3377.15     78.04475     155.3492      310.822      1.681     5.71     832.8945     54.79287     362.0297        18     1.566     0.772 -33.60   0
       488    114.4859    242.7349 307.8820010  +6.5818186     985.1172      1764.25     2431.533     78.04475     155.6581     310.8838      1.795     5.53     833.6358     54.79287     152.3819        11     1.507     0.573 -24.62   0
       489    167.0425    241.7050 307.8602139  +6.5839877     591.1265      961.056      975.877     77.92155      155.411     310.9765      1.365     5.42      832.171     54.79287     91.29974         6     1.324     0.625 -34.76   0
       490    914.4134    239.6548 307.5499504  +6.6095320      1367.34     2266.938     2720.936     77.30263      155.411     310.6055      1.764     5.89     827.7441     54.79287     201.1128        14     1.403     0.745 -37.44   0
       491    575.8540    236.0238 307.6906570  +6.5998663     4519.106     7153.303     7407.712     77.42681     155.4728     310.6674      1.642     5.24     825.3611     54.79287     736.8529        26     1.594     0.814 -34.45   0
       492    296.2865    236.9299 307.8067108  +6.5902434     1048.219     1671.509     1360.213     78.04475     155.7198     310.8838      1.506     5.28     828.2886     54.79287     177.2527        12     1.508     0.540 -33.93   0
       493    538.7179    235.8865 307.7060818  +6.5986960     2011.019     3224.679     3532.277     77.67458     155.6581     310.9456      1.753     6.11     825.1325     54.79287     316.4932        19     1.651     0.698 -30.15   0
       494    380.4462    235.1453 307.7718259  +6.5937671     1517.446     2448.116     2236.411     77.92155     155.4728     310.8838      1.715     5.81     827.0837     54.79287     213.0728        17     1.587     0.682 -39.99   0
       495    936.8230    232.9395 307.5408694  +6.6130416     2418.856      3884.66     3871.429     77.55079      155.411     310.7601      1.699     4.85     827.5569     54.79287     348.4946        21     1.582     0.802 -34.44   0
       496    882.9507    232.4680 307.5632558  +6.6114627     10511.92        16973     17547.59     77.79816      155.411     310.8528      1.718     5.75      827.182     54.79287     1688.022        36     1.672     0.932 -32.78   0
       497    558.2399    232.3246 307.6980951  +6.6008113     801.9523     1283.224     1170.792     77.79816     155.4728     310.8838      1.811     4.90       825.14     54.79287     148.9675         9     1.398     0.487 -37.20   0
       498    310.8982    232.7467 307.8007845  +6.5924542      1032.71     1418.551     1101.365     77.79816     155.4728     311.0691      1.420     5.12      828.061     54.79287     150.1429        10     1.244     0.596 -47.03   0
       499    969.6191    230.2408 307.5273408  +6.6152347     8957.364     14569.73     14630.15     77.55079     155.2873     310.5746      1.754     4.88     827.4359     54.79287     1250.152        36     1.726     0.930 -34.85   0
       500    202.5783    232.4169 307.8457719  +6.5890002     556.3781     944.9808     755.7597     77.67458     155.2254      310.791      1.559     4.00     831.4772     54.79287     108.7798         5     1.156     0.395 -35.57   0
       501      9.0806    229.4000 307.9262153  +6.5838221      23683.5        39448     41812.52     77.17825     154.8536     310.5746      1.759     5.41       836.04     54.79287     3700.584        55     1.768     1.024 -30.76  16
       502    680.9913    230.2984 307.6471918  +6.6057009     2748.428     4121.119     4044.113     77.67458     155.1016     310.6364      1.551     5.05     826.2966     54.79287     445.2932        19     1.477     0.748 -31.86   0
       503    255.3882    230.2046 307.8239189  +6.5916641     989.4095     1488.024     1352.564     77.55079     155.2254     310.7292      1.574     5.62     829.7837     54.79287       126.52        12     1.464     0.607 -36.72   0
       504    489.6383    225.3279 307.7268159  +6.6014319     2073.995     3117.138     3116.157     77.79816      155.411     310.9147      1.624     4.76     824.8707     54.79287     295.6786        17     1.555     0.660 -33.78   0
       505    408.6517    222.9247 307.7605250  +6.5997449     498.5507     500.6851     346.5134     77.92155     155.5346     310.8528      1.222     4.49     826.3098     54.79287     109.0746         5     1.224     0.468  61.56   0
       506    821.4200    221.8099 307.5891633  +6.6138354     2020.651     2963.935     3001.552     77.55079     155.1635     310.7292      1.629     4.65     826.5325     54.79287     279.5256        17     1.351     0.843 -32.20   0
       507    873.6508    220.9789 307.5675020  +6.6158990     1732.313     3053.096     3508.725      77.4268     155.5346     310.7292      2.033     5.23     826.6008     54.79287     254.4487        18     1.586     0.734 -38.40   0
       508    501.6009    221.2355 307.7219861  +6.6035166     2556.824     3948.384     4027.542     77.05367     155.2873     310.6674      1.666     5.35     824.7311     54.79287     371.5231        19     1.600     0.713 -29.75   0
       509    733.1192    218.4765 307.6259420  +6.6123005     38400.75     60251.39     62589.43     78.16775     155.7198     310.9765      1.691     5.42     826.2833     54.79287     6604.894        59     1.711     0.974 -33.90   0
       510    336.1672    218.0343 307.7907872  +6.5993639     5735.049     12039.66     12831.53     77.55079     155.2254     310.6055      2.174     8.80     827.6356     54.79287     694.5746        42     2.040     1.130 -56.90   0
       511    966.8588    217.1619 307.5289243  +6.6205427     2525.961     4322.388     3932.948     77.92155     155.5346     310.8838      1.783     5.32     826.9365     54.79287     344.7352        23     1.544     0.986 -30.53   0
       512    901.0146    215.5582 307.5563204  +6.6190376     6964.663     11320.35     11735.42     77.30263     155.2873     310.6055      1.726     5.83     826.6142     54.79287      1124.84        32     1.654     0.913 -34.04   0
       513   1005.1000    215.8399 307.5130883  +6.6223463     1480.977      2539.56     2409.773     77.92155     155.3492     311.0691      1.715     5.11     826.9293     54.79287     206.7339        19     1.583     0.845 -32.59   0
       514    444.4644    214.7502 307.7459291  +6.6043040     5073.407     7851.335     8526.816     77.79816      155.411     310.8838      1.723     5.68     825.2852     54.79287     713.4105        28     1.652     0.832 -33.35   0
       515    218.8820    211.6172 307.8397029  +6.5981262      772.279     1147.998     1374.142     77.55079     155.1635      310.791      1.656     5.60     831.1157     54.79287     147.4899         9     1.413     0.625 -39.95   0
       516    101.9012    206.2679 307.8884558  +6.5964530     4579.883     7658.812     8287.568     77.92155     155.5963     310.8528      1.801     4.79     833.5546     54.79287        714.9        30     1.742     0.877 -32.22   0
       517    921.0326    205.0098 307.5483605  +6.6240508     767.1562      1359.96     1768.771     77.42681     155.2254     310.6983      1.767     4.52      826.338     54.79287     103.0082         7     1.115     0.521 -49.45   0
       518    598.1135    204.3655 307.6824762  +6.6136694     600.3356     1071.731     1224.415     77.92155     155.3492     310.8528      2.096     5.51     824.6012     54.79287     106.4304         9     1.710     0.501 -35.51   0
       519    272.1636    202.8296 307.8178749  +6.6035196     33006.82     53201.08      55442.8     77.55079     155.2254     310.6983      1.700     5.11     829.5448     54.79287     5173.226        57     1.735     0.975 -32.68   0
       520    247.4126    203.9254 307.8281153  +6.6022469     6284.351     10172.26     10784.56      77.4268     155.1635     310.6674      1.698     5.21     830.3041     54.79287     873.6906        28     1.646     0.827 -32.19   0
       521    701.5833    201.7671 307.6395974  +6.6181574     735.4522       1084.8      1314.92     77.55079     155.2254     310.7292      1.645     5.36     825.3134     54.79287     156.1935         8     1.426     0.569 -33.11   0
       522    396.2503    198.2796 307.7665030  +6.6095073     49258.04     77442.31     80725.29     77.92155     155.5346     310.8528      1.687     5.14     825.7624     54.79287     8046.856        61     1.711     0.965 -33.47   0
       523    152.1997    199.6940 307.8677925  +6.6008358     3836.853     6019.876     6274.466     77.42681     155.1016     310.4818      1.660     5.45     832.1684     54.79287     634.5074        25     1.611     0.802 -34.17   0
       524    413.5404    198.8660 307.7593038  +6.6098375     1454.102     2118.816     2001.332     78.04475      155.411     310.8528      1.749     5.27     825.3068     54.79287     199.4653        16     1.570     0.638 -39.21   0
       525    300.2451    196.0183 307.8064439  +6.6072616        17855     28295.03     29439.44     77.55079     155.3492     310.6055      1.691     5.12     828.8629     54.79287     2634.971        42     1.688     0.909 -32.80   2
       526    307.9735    195.4747 307.8032531  +6.6077420     1973.874     3490.928     4659.991     77.55079      155.411      310.822      2.168     6.47     828.5861     54.79287     289.9897        26     2.005     1.013 -51.65   2
       527    735.5435    194.3277 307.6257445  +6.6223485      32400.6     50208.47     52077.06     77.79816      155.411      310.822      1.697     5.02      825.118     54.79287     4810.183        53     1.719     0.937 -35.96   0
       528    566.8419    197.1549 307.6957037  +6.6156127     501.7598     883.7558      1355.25     77.79816     155.4728     310.6983      1.738     3.88      824.084     54.79287     74.23938         5     1.354     0.319 -32.04   0
       529    683.7991    196.0364 307.6471745  +6.6199362     888.4753     1397.616     1475.953     77.05367     155.2873     310.6674      1.616     5.07     824.9544     54.79287     150.9878        10     1.276     0.569 -18.30   0
       530    783.9891    194.7450 307.6056131  +6.6237736     1085.124      1780.17     2025.451     77.30263      155.411     310.5436      1.784     6.07     825.1725     54.79287     221.4482        14     1.636     0.633 -28.97   0
       531     23.0005    195.2051 307.9215896  +6.5983988      654.726     1110.935     1095.179     77.30263     155.1635     310.6364      1.767     6.25     835.8718     54.79287     120.9532         9     1.375     0.799 -24.56   0
       532     52.2506    191.8215 307.9095587  +6.6007671     8449.266     13969.48      14860.1     77.42681     155.5346     310.7292      1.743     5.08      834.902     54.79287     1270.144        35     1.674     0.930 -33.04   0
       533     86.1295    189.8414 307.8955584  +6.6027095     1418.819     2089.302     1922.183     77.79816     155.4728     310.9147      1.609     4.83     833.7166     54.79287     222.0225        16     1.483     0.715 -33.84   0
       534    994.4759    188.7921 307.5184041  +6.6331618     1015.379     1821.945     1922.802     77.55079     154.9776     310.6674      1.829     4.95     825.9733     54.79287     125.1545        12     1.246     0.698 -23.29   0
       535    720.6725    182.0172 307.6323324  +6.6269395     582.1277     815.1998     479.1613      77.4268      155.411     310.7601      1.666     3.15     824.4775     54.79287     157.9701         6     1.003     0.472 -37.31   0
       536    570.4344    178.0605 307.6948528  +6.6236131     707.6001     1293.561     1690.039     77.92155     155.4728      310.822      1.910     3.36     823.4415     54.79287      121.988         7     0.853     0.592 -63.30   2
       537    994.7480    174.8752 307.5187563  +6.6389154     1931.605       3414.2      3723.72     77.92155     155.5346     310.8528      1.812     5.63     825.4865     54.79287      264.392        20     1.582     0.917 -30.18   0
       538    577.9164    172.4994 307.6919325  +6.6261557     942.3878     1568.222       1894.4     77.92155     155.9664     310.9456      1.783     5.25     823.2973     54.79287     195.4547        12     1.643     0.630 -28.78   0
       539    271.0676    169.0845 307.8194660  +6.6174121      30064.1     47947.66     50343.05     78.16776     155.7198     310.8838      1.694     5.06     830.4089     54.79287     4535.343        56     1.741     0.981 -33.44   0
       540    586.2764    170.6470 307.6885231  +6.6271965     1831.876     2681.514     2646.495     77.79816     155.5346      310.822      1.652     5.09     823.3289     54.79287     341.9945        16     1.452     0.683 -36.41   0
       541    330.5538    171.1051 307.7946968  +6.6185489     1108.834     1674.814     1586.384     77.79816      155.411     310.9765      1.684     5.05     827.7044     54.79287     180.4767        10     1.300     0.554 -36.40   0
       542     16.2818    167.8002 307.9253042  +6.6094870      4248.42     7193.783      7722.27     77.17825     154.9776     310.5127      1.818     6.12     836.2584     54.79287     648.6056        32     1.704     1.049 -47.34   0
       543    702.7288    165.5138 307.6403369  +6.6331598     8047.984     12327.85     13242.92     78.04475     155.7198     310.8838      1.708     5.76     823.7059     54.79287     1321.194        29     1.618     0.830 -35.51   0
       544    180.3029    167.1555 307.8572198  +6.6151988     881.2244     1710.129     1643.721     77.92155      155.411     311.0074      2.000     5.38     831.4568     54.79287     169.9283         9     1.404     0.583 -28.60   0
       545    256.9170    164.2659 307.8255041  +6.6189320     799.6608     1186.732     1056.037     78.16776     155.7198     310.9147      1.563     5.06     830.6312     54.79287      110.686        10     1.499     0.484 -29.38   0
       546    113.4205    162.8762 307.8851358  +6.6147457     4801.405     7631.834     8278.857     77.55079     155.2254      310.791      1.699     4.89     832.4784     54.79287     679.7512        26     1.623     0.815 -30.43   0
       547    575.6559    160.5116 307.6932735  +6.6310293     664.8566     948.8143     984.6909     77.92155     155.3492     310.9765      1.596     4.31     822.8927     54.79287     133.3564         7     1.360     0.389 -37.25   0
       548    641.6584    159.3598 307.6659037  +6.6336845     811.4246     1430.189     1632.794     77.92155     155.4728     310.9147      2.090     5.08     823.2648     54.79287     123.0983         8     1.513     0.482 -34.79   0
       549    452.6655    159.7139 307.7443731  +6.6272927     1331.414     1658.127     1380.763     77.92155     155.6581     310.9147      1.500     5.34     823.1198     54.79287     190.6923        11     1.264     0.636 -38.12   0
       550    384.1365    158.7668 307.7728618  +6.6254159     3720.007     6706.818     7232.227     77.79816     155.5346      310.822      1.929     4.55     825.0406     54.79287     511.2919        32     1.640     1.140 -39.01   0
       551    348.5067    157.7527 307.7876911  +6.6246549     3195.224     5042.691     5131.716     77.79816      155.411     310.9765      1.746     5.53     826.5175     54.79287     487.2955        22     1.644     0.747 -30.27   0
       552    103.0311    157.5870 307.8896281  +6.6165839     1805.404     2732.734     2866.297     77.42681     155.2254      310.791      1.574     5.13      832.551     54.79287     247.3127        16     1.469     0.701 -36.18   0
       553    561.1129    157.1765 307.6994246  +6.6319254     707.3638     1323.316     1471.141     77.92155     155.2873     310.7292      1.963     5.34      822.685     54.79287     107.9301         7     1.264     0.636 -60.56   0
       554    664.7952    155.1834 307.6564359  +6.6361722     877.5679     1325.494     1827.112     77.55079     155.1635     310.6983      1.784     5.94     823.2327     54.79287     118.4822        12     1.392     0.712 -35.75   0
       555    153.3754    153.9600 307.8688457  +6.6197520     454.1617     852.6676     1359.566     77.55079     155.2873     310.6364      2.122     4.19     831.6697     54.79287     70.63556         5     0.801     0.626  -5.76   0
       556    995.4324    151.7392 307.5192453  +6.6484880     1348.281     2520.926     2589.011     77.67458     155.5346      310.791      2.015     5.89      824.368     54.79287     188.0067        13     1.502     0.651 -40.03   0
       557    200.4757    146.5991 307.8495358  +6.6243528     5332.707     8657.537     8814.147     77.17825     154.9156     310.6674      1.765     5.48     831.0315     54.79287     773.7131        26     1.660     0.821 -34.56   0
       558    662.3430    145.2650 307.6577868  +6.6401853     6415.391     9875.932     10261.03     78.04475      155.411     310.8838      1.680     5.10     822.8752     54.79287     1071.732        30     1.629     0.822 -32.24   0
       559     83.3045    146.3038 307.8981998  +6.6205862     2152.004     3548.999     3758.896     77.92155     156.0895     310.6983      1.792     6.83     833.0718     54.79287     314.9303        21     1.813     0.799 -40.60   0
       560    839.0303    146.1730 307.5843825  +6.6456371     479.7251     870.0682     1568.159     77.42681     155.2254     310.6983      1.584     4.63     823.4113     54.79287     83.19714         6     1.457     0.417 -25.21   0
       561    810.5035    144.8065 307.5962748  +6.6452611     1083.056     1924.605     2304.329     77.67458     155.1635     310.6364      2.005     5.47      823.332     54.79287     207.8167        16     1.560     0.909 -34.77   0
       562    614.4341    142.6289 307.6777704  +6.6396916     9314.957     14760.05     15923.42     77.42681     155.2254     310.6364      1.757     5.82     822.6877     54.79287     1406.594        37     1.706     0.872 -35.52   3
       563    617.9753    134.1228 307.6765852  +6.6433197     51398.46     81507.91     84924.09     77.55079     155.3492      310.822      1.675     5.26     822.4417     54.79287      8134.84        65     1.723     0.974 -34.54   2
       564    248.9865    143.0836 307.8295104  +6.6274124     718.1179     1132.105     1275.606     77.55079     155.2873     310.6983      1.586     5.14      830.669     54.79287     129.8246         9     1.379     0.542 -37.05   0
       565    553.0339    141.8214 307.7032950  +6.6379967     588.0742     826.6348     402.7478     77.42681     155.2873     310.6674      1.609     4.56     822.3234     54.79287     117.6591         6     1.080     0.547 -23.50   0
       566     13.2585    141.8236 307.9274362  +6.6201086     878.5572     1515.065     1585.875     77.55079     155.4728     310.7292      2.007     4.94     836.2156     54.79287     129.5309        10     1.419     0.488 -35.17   0
       567    341.5859    138.3959 307.7912162  +6.6324155     3796.916     6036.056      6294.93     77.55079     155.1635     310.7292      1.766     5.71     827.1123     54.79287     610.3296        28     1.812     0.812 -41.89   0
       568    987.6608    136.8420 307.5229707  +6.6543817     714.2579     1201.237     780.2987     77.92155     155.4728     310.9456      1.676     6.23     823.3739     54.79287      116.582        11     1.484     0.735 -52.16   0
       569    523.4277    137.5163 307.7157341  +6.6387952     1704.492      2581.71     2484.185     77.92155     155.2254     310.7292      1.708     6.05     822.2283     54.79287     232.4332        16     1.568     0.704 -35.74   0
       570    684.4152    134.5094 307.6489814  +6.6453534     510.3403     822.7158     665.9696     77.67458     155.2873     310.7292      1.456     4.11     822.5812     54.79287     97.05859         5     1.143     0.422 -36.59   0
       571    296.9864    127.9548 307.8100877  +6.6352478     3297.645     5223.718     5048.806     77.30263     155.2873     310.6055      1.690     5.21     830.0064     54.79287     512.4907        22     1.545     0.825 -34.11   0
       572    697.3029    122.1838 307.6440427  +6.6508664     992.0927     1414.508     1265.913     77.79816     155.2873     310.6983      1.520     5.81     822.1948     54.79287     173.7382        12     1.557     0.669 -33.31   0
       573    668.2154    121.3083 307.6561515  +6.6502678     1364.894     2141.702     2387.711     77.67458     155.2873     310.7292      1.736     5.66     822.0436     54.79287     217.2913        13     1.438     0.629 -32.77   0
       574    682.3844    118.0134 307.6503779  +6.6520955     3096.038     4993.041      4895.16     77.67458     155.1635      310.791      1.638     5.31     821.9814     54.79287     427.1477        19     1.550     0.737 -32.89   0
       575      2.4521    109.3184 307.9330206  +6.6331661     4077.822     9647.165     16544.95     77.92155     138.9623     251.4653      5.261    11.10     836.3719     54.79287     682.4169       102     4.489     1.700 -89.50  24
       576    878.6151    105.3193 307.5693109  +6.6638045     1904.818     3094.564     2691.536     77.55079     155.2254     310.6983      1.652     5.12     822.8698     54.79287     310.3759        17     1.615     0.657 -31.64   0
       577    896.7134    104.2494 307.5618305  +6.6648421     3678.959     5680.268     6041.218     77.92155      155.411     310.9456      1.677     5.32     822.8077     54.79287      499.137        22     1.562     0.825 -30.60   0
       578    576.9283    104.8661 307.6946129  +6.6540403     757.8468     1136.016     1197.324     77.92155     155.5346     310.9147      1.483     4.92     821.6089     54.79287     145.3961         9     1.423     0.481 -35.55   0
       579    588.6544    103.0210 307.6898052  +6.6551893     1660.867     2693.022     2515.775      77.4268     155.4728     310.6674      1.646     4.79     821.5721     54.79287     247.3411        19     1.590     0.764 -30.05   0
       580    234.7221    102.3995 307.8368038  +6.6437324     876.4087     1475.319     1947.719     77.17825     154.8536     310.6055      1.856     4.95     830.5627     54.79287      172.074         9     1.360     0.510 -40.91   0
       581    387.4261    100.9830 307.7734389  +6.6493761     1827.252     2961.151     2658.073     77.55079     155.2873      310.791      1.691     5.01     825.1363     54.79287     320.6663        15     1.517     0.602 -39.07   0
       582    135.3605     98.0111 307.8782123  +6.6422475     3085.022     5134.596     5345.436     77.30263     155.2873     310.6055      1.745     5.39     830.9767     54.79287     433.6167        20     1.577     0.765 -35.53   0
       583     17.2379     95.8310 307.9273361  +6.6392244     11883.19     19768.46      21317.8     77.55079     155.2254     310.6983      1.785     5.11     835.4476     54.79287     1818.174        42     1.713     1.001 -30.92   0
       584    283.5343     96.3852 307.8167365  +6.6478329     1378.004     2295.714     2574.573     77.42681     155.3492      310.791      1.803     5.43     830.4963     54.79287     210.1338        14     1.518     0.627 -26.71   0
       585    752.0171     95.1741 307.6222259  +6.6638201     585.4624      1024.04     1619.455     77.55079     155.2873      310.791      1.753     4.64     821.8929     54.79287     100.3128         8     1.439     0.425 -36.57   0
       586    556.4495     95.4238 307.7034343  +6.6572611     563.4025     805.6006       1058.4     77.55079     155.5346     310.7601      1.862     3.43     821.3904     54.79287     95.98877         5     1.166     0.291 -20.70   0
       587    544.2421     94.9081 307.7085211  +6.6570706     714.2712     1188.951     990.8212     77.92155     155.4728     310.9456      1.589     4.44     821.3945     54.79287     134.2915         7     1.381     0.406 -31.98   0
       588    939.3556     93.8078 307.5444705  +6.6705560     437.3714     715.1226     702.6706     77.42681     155.3492     310.5436      1.220     3.44      822.046     54.79287     77.86755         5     0.768     0.445 -73.66   0
       589    424.1088    109.1111 307.7579324  +6.6472352     3943.071     6244.902     6240.662     77.92155     155.9664     310.9456      1.682     5.09     823.5491     54.79287     685.6317        24     1.601     0.768 -34.08   0
       590    885.7298     91.6223 307.5668145  +6.6696927     564.0806     772.1634     637.1484     77.55079      155.411      310.822      1.608     4.97      822.441     54.79287     94.43359         6     1.381     0.505 -37.74   0
       591    819.0007     90.1256 307.5945771  +6.6681123     5578.487     9005.651     9238.979     77.17825     154.9156     310.6674      1.654     5.13      822.441     54.79287     900.7051        27     1.619     0.822 -32.29   0
       592    764.1237     90.5757 307.6173522  +6.6661175     3040.815     4903.991     4935.173     77.55079      155.411      310.822      1.699     5.11     821.9539     54.79287     554.4858        23     1.640     0.782 -29.82   0
       593    409.2943     91.1000 307.7646899  +6.6541793     1074.042     1558.429     2185.168     77.92155     155.9664     310.6983      1.666     5.05     824.2465     54.79287     203.2026        11     1.301     0.554 -25.48   0
       594    911.5483     88.6771 307.5561906  +6.6717585     811.1929     917.2207      890.357     78.04475     155.5346     310.8528      1.053     1.88     822.1647     54.79287     425.2875         5     1.054     0.556 -62.06   0
       595    526.6418     88.7052 307.7160385  +6.6590492     1074.556      1466.16      1557.79     77.92155      155.411     310.9765      1.482     5.01     821.3855     54.79287     169.2426        10     1.274     0.557 -33.91   0
       596     57.5353     87.7530 307.9108753  +6.6438975     3107.448     4921.169     4463.674     77.79816      155.411     310.9147      1.692     4.93     833.0991     54.79287     472.6271        23     1.580     0.791 -32.77   0
       597     42.1191     88.6508 307.9172466  +6.6430148     862.1536     1393.363     892.9951     77.92155     155.5346     310.8528      1.622     5.31      833.884     54.79287      149.711        10     1.452     0.547 -31.25   0
       598    418.6476     86.9946 307.7609438  +6.6561835     862.4053     1182.503     1275.522     77.30263     155.2873     310.5436      1.612     5.25     823.8472     54.79287     150.6293        10     1.459     0.534 -37.74   0
       599    647.0683     87.2625 307.6660755  +6.6636230     537.2562     803.4063     977.6795     77.92155      155.411     310.8838      1.164     3.90     821.1246     54.79287     122.2063         6     1.151     0.525 -26.08   0
       600    581.5339     84.0193 307.6934000  +6.6627974     1193.139     1792.773     1893.775     77.55079     155.4728     310.7601      1.549     5.61     821.1999     54.79287     197.1891        12     1.276     0.696 -41.24   0
       601      1.4546     82.3927 307.9343437  +6.6442466     1853.221     2706.784     4141.618     69.16936     125.2158     235.4844      2.204     2.82     835.3418     54.79287      401.702        12     1.264     0.647  78.58  24
       602     72.1542     79.1079 307.9050964  +6.6479514     801.8918     1250.307     1203.769     77.92155      155.411     310.9765      1.755     5.45     832.1172     54.79287     115.5692        11     1.601     0.523 -32.51   0
       603    758.8026     77.9958 307.6199835  +6.6711347     1974.091     2940.113     2721.603     77.30263     155.0396     310.6674      1.575     4.59     821.4748     54.79287     305.3687        17     1.451     0.717 -30.78   0
       604    399.4275     78.1767 307.7692219  +6.6591871     1041.884     1484.136      1421.29     77.42681     155.3492     310.6983      1.621     4.86     825.0402     54.79287      156.379        11     1.279     0.643 -29.38   0
       605     96.6246     77.1562 307.8950007  +6.6495696     829.8461     1339.766     1103.061     77.42681      155.411     310.7292      1.716     6.15     830.9923     54.79287     123.3044        11     1.551     0.710 -47.31   0
       606     85.2784     71.9617 307.8998876  +6.6513369     9017.451     14759.04      15613.1     77.79816     155.5346     310.8528      1.744     5.02     831.3328     54.79287     1311.356        33     1.657     0.910 -32.33   0
       607    414.4118     71.5293 307.7632228  +6.6624268     2627.766     3955.274     3997.665     77.42681     155.2254     310.6674      1.673     5.53     824.3271     54.79287     454.9808        19     1.589     0.778 -28.00   0
       608    628.0850     63.8022 307.6747461  +6.6726800     17571.23     28001.06     29317.25     77.30263     155.1016     310.5746      1.680     5.28     820.8099     54.79287     2994.511        39     1.673     0.905 -34.60   0
       609    252.0513     65.8397 307.8308388  +6.6593974      1335.45      2212.13     3435.346     77.79816     155.4728     310.8528      2.034     5.54     830.0159     54.79287     200.8145        16     1.552     0.742 -34.26   0
       610    527.8929     59.8874 307.7164867  +6.6709857     5171.835     8080.801     7999.555     77.92155     155.9047     310.9456      1.664     5.27     821.0085     54.79287     876.3702        28     1.600     0.858 -35.47   0
       611    245.9679     60.3451 307.8335502  +6.6614636     1758.669     3092.345      3643.32     77.79816     155.4728      310.791      1.764     5.96     829.9169     54.79287     237.4917        18     1.622     0.721 -31.05   3
       612    253.9705     55.9935 307.8303734  +6.6635251     9010.188      14572.6      15629.9     77.42681     155.2254     310.6674      1.688     5.04      829.849     54.79287     1343.572        35     1.695     0.895 -34.36   2
       613    433.3790     55.5615 307.7558828  +6.6696455     22458.94     35173.31      36367.7     77.55079     155.2254     310.6055      1.716     5.76     823.7029     54.79287     3584.988        44     1.698     0.902 -33.52   0
       614    615.9769     57.0231 307.6800021  +6.6750784      789.423     1532.346     2220.251     77.42681     155.2873      310.791      2.086     6.28     820.7127     54.79287     128.7484        11     1.406     0.788 -37.81   3
       615    614.2180     53.5804 307.6808480  +6.6764413     3157.415      5164.83     5563.584     77.67458     155.2873      310.791      1.733     4.90     820.6639     54.79287     537.3311        23     1.624     0.844 -35.24   2
       616    911.2153     55.4721 307.5574398  +6.6854538      1869.22     3091.451     2974.828     77.42681     155.3492     310.7601      1.784     5.49       820.43     54.79287     270.7198        19     1.674     0.717 -37.66   0
       617    499.0350     57.1684 307.7285625  +6.6711539     583.6832     833.3168     696.7015     77.55079     155.2254     310.6055      1.509     3.95     821.3484     54.79287      92.7879         6     0.994     0.450 -37.31   0
       618    314.1615     55.9067 307.8053803  +6.6655557     1166.993     1772.837     2224.241     78.04475      155.411     310.9147      1.624     5.58     829.3136     54.79287     174.9714        14     1.458     0.736 -27.76   0
       619     19.4575     55.6441 307.9277708  +6.6558854     2206.186     3506.076     3689.719     77.79816     155.4728     310.9147      1.729     5.14     833.0731     54.79287     325.2079        24     1.655     0.860 -37.78   0
       620    546.3445     55.6228 307.7089671  +6.6733559     580.3024     1151.758     1078.143     77.55079     155.4728     310.6674      2.069     5.57      820.731     54.79287     106.6046         9     1.381     0.633 -22.71   0
       621    241.9279     52.5923 307.8354890  +6.6645297     2961.725     4923.604     5913.405      77.4268     154.9776     310.7601      1.775     5.93     829.8002     54.79287      482.668        21     1.633     0.767 -31.19   0
       622    294.9430     50.7473 307.8135351  +6.6670485     1025.172     1741.052     2170.308     77.92155     155.4728     310.8528      1.896     5.53     829.6638     54.79287     143.8788        12     1.507     0.573 -42.17   0
       623    931.5538     45.7351 307.5493187  +6.6901426     911.4737     1573.205     1448.134     77.92155      155.411     310.8528      1.753     5.15     819.7795     54.79287     116.7315        10     1.167     0.642 -34.09   0
       624    683.3433     45.0948 307.6524248  +6.6822261      1849.01     3304.801     3632.707     77.79816     155.4728     311.0382      1.878     5.91      820.481     54.79287     256.2652        18     1.633     0.744 -37.06   0
       625     87.6596     46.0141 307.8997740  +6.6621259     597.3708     771.7986     717.4999     77.30263      155.411     310.6055      1.598     4.72     830.3903     54.79287     98.93622         6     1.224     0.516 -42.50   0
       626    194.0623     40.9369 307.8557591  +6.6677532     758.8101     1089.295     1110.137     77.92155     155.4728     310.8838      1.527     5.04     829.5978     54.79287     143.2744         9     1.428     0.503 -39.51   0
       627    248.4941     40.3940 307.8331730  +6.6697824     758.0203     1253.235     1934.644     77.67458     155.1635     310.6674      1.807     5.31     829.5824     54.79287     130.8171         9     1.414     0.563 -33.23   0
       628    171.4819     38.0447 307.8652337  +6.6681978     10669.22     16888.71     16959.85     77.92155     155.4728      310.822      1.703     4.77     829.5469     54.79287     1545.126        35     1.639     0.925 -33.44   0
       629    515.6494     36.2022 307.7223670  +6.6803574     2848.124     4456.695     4860.467     77.30263     155.1016     310.4508      1.695     6.26     820.9182     54.79287     446.4376        23     1.576     0.861 -34.55   0
       630    917.0823     35.5275 307.5556704  +6.6938797     3816.826     6347.741     6658.756     78.16775     155.7814     310.8838      1.766     5.29     819.4175     54.79287     554.7598        28     1.611     0.934 -35.12   0
       631    718.1965     34.1023 307.6383185  +6.6879135     1963.407     3091.362     2986.205     77.67458     155.1635     310.5436      1.611     5.31     820.3214     54.79287     301.8239        16     1.487     0.724 -35.45   0
       632    453.9144     34.4648 307.7480637  +6.6790329     1774.617     2493.526      2169.83     78.04475     155.6581     310.8838      1.619     5.93     822.9027     54.79287     266.1046        15     1.497     0.661 -32.49   0
       633     72.8443     34.1463 307.9063266  +6.6665324     433.2241     620.0032      439.168     77.92155     155.4728     310.8528      1.611     4.60     830.4044     54.79287     65.74603         6     1.466     0.411 -45.18   0
       634    981.8670     31.8522 307.5288869  +6.6975288     1550.316     2806.895     3310.247     77.79816      155.411      310.822      2.083     6.42       817.87     54.79287     202.7355        19     1.638     0.832 -37.55   0
       635    701.2615     28.3581 307.6455444  +6.6897258     7152.893     11042.31     11534.38     77.92155     155.4728     310.9456      1.700     5.58     820.2161     54.79287     1111.059        29     1.643     0.840 -34.12   0
       636    621.5219     27.6298 307.6786855  +6.6873942     3605.552     5659.983     5526.981     77.79816     155.5346     310.8528      1.744     5.35     820.2183     54.79287     547.3254        25     1.614     0.813 -36.58   0
       637    323.6495     27.3175 307.8024023  +6.6776706     947.4028     1419.713     2080.685     77.92155     155.4728     310.8838      1.606     5.36     829.5682     54.79287     155.6743        11     1.362     0.595 -28.49   0
       638    377.1683     25.8401 307.7802260  +6.6800529     719.5128     993.2983     693.4174     77.55079     155.2873     310.7292      1.345     5.74     827.9394     54.79287     111.5275        11     1.472     0.631 -28.94   0
       639    421.7091     23.9241 307.7617928  +6.6823181     6335.579     9861.102     10346.78     77.92155     155.7198     310.8838      1.680     5.30     824.6526     54.79287     913.3761        28     1.588     0.863 -34.04   0
       640     22.5489     23.6616 307.9275666  +6.6691890     8234.733     13081.46     13276.89     77.92155      155.411     310.8528      1.749     5.20     831.1616     54.79287     1162.104        32     1.650     0.908 -33.71   0
       641    668.9165     22.4119 307.6591771  +6.6911128     702.0771     1284.059     1125.445     77.55079     155.2873     310.6983      1.738     5.53     820.1491     54.79287     135.9603        10     1.440     0.600 -32.06   0
       642    495.7326     21.6814 307.7311262  +6.6856926     592.1567     775.0735     980.4749     78.04475     155.7198     310.9147      1.179     2.79     821.2084     54.79287     126.8725         5     0.818     0.447 -16.29   3
       643    498.5078     20.3775 307.7300175  +6.6863226     635.9946     787.1707     1093.765     77.92155     155.2873     310.6983      1.049     2.13     821.1323     54.79287      143.966         5     0.673     0.471  69.14   2
       644    743.2885   1019.4405 307.5949007  +6.2820098     6298.402     11792.35     12474.49     77.92155      155.411     290.4663      1.958     4.88     850.7631     54.79287     729.1772        41     1.781     1.185 -31.61  16
       645    538.7780   1020.0148 307.6797491  +6.2750254     3460.693     6627.463     7705.893     77.67458     155.2873     284.3829      2.081     5.39     854.2631     54.79287     402.9749        36     1.780     1.155 -36.36  16
       646     83.1597     18.1799 307.9025816  +6.6734652     1425.184     2296.604     2188.983     77.55079     155.2873     310.6055      1.707     5.95     829.6069     54.79287     203.9072        14     1.523     0.654 -36.23   0
       647    786.6749     17.5390 307.6104335  +6.6970087     693.3314     771.3702     645.4822     78.16776     155.4728     310.8528      1.465     5.11     819.1172     54.79287     126.0535         9     1.296     0.729 -36.16   0
       648    288.9323   1018.8669 307.7834653  +6.2672377     12882.01     23247.67     25507.68     77.92155     155.4728     296.1655      1.982     5.05     852.9064     54.79287     1552.064        55     2.057     1.089 -33.24  16
       649    453.2444     16.9064 307.7489321  +6.6862582     601.3977     976.7076     587.1602     77.79816      155.411     310.9765      1.598     3.92     823.0563     54.79287     126.4659         6     0.994     0.443 -49.35   0
       650    979.5797     14.0754 307.5304312  +6.7047915      603.389     973.7201     597.5258     77.55079     155.2873      310.791      1.672     4.41      817.071     54.79287     110.1005         7     1.278     0.433 -24.70   0
       651    413.0844   1019.1157 307.7319384  +6.2712428     821.4985      1435.58     1410.998     77.67458     155.5963     293.9187      1.885     6.23     853.2725     54.79287     108.9313        10     1.618     0.675 -25.57  16
       652    804.5822   1018.4465 307.5694979  +6.2844396     891.3384     1403.982     1517.007     77.42681      155.411     299.6163      1.829     6.45      849.785     54.79287     97.40149        13     1.537     0.760 -22.46  16
       653     64.5418     12.6896 307.9104984  +6.6751129     543.8707     739.2667     601.0057     77.79816      155.411     310.9765      1.278     3.37     829.7733     54.79287     112.1105         5     0.768     0.429  66.50   0
       654    904.6116   1012.7971 307.5281755  +6.2900649      6386.49     13247.81     14241.61     77.55079     155.1635     310.7292      2.113     5.21     848.3603     54.79287     720.0607        45     1.848     1.305 -32.56  16
       655    260.5021   1016.3172 307.7953484  +6.2673487     816.6652     1528.209     1696.229     77.92155     155.8431     310.9147      1.853     5.63     852.2391     54.79287     104.9344         9     1.335     0.669 -25.40  16
       656    535.9452   1012.2814 307.6811839  +6.2781240     6794.705     12523.23     13827.06     77.92155     155.4728     310.8838      1.977     5.24     854.0181     54.79287     775.7776        42     1.801     1.132 -33.20  16
       657    878.2258   1008.9166 307.5392551  +6.2907984     9125.992     18967.67     20784.24     77.92155     155.2254      310.791      2.185     5.30     848.2847     54.79287     985.4922        57     1.981     1.351 -30.10   0
       658    999.9022   1008.3323 307.4887794  +6.2950421     3371.895     7243.208     7668.298     77.92155     155.5963     310.8838      2.217     5.74     847.1265     54.79287     367.5687        40     1.821     1.361 -25.44   0
       659    591.0468   1009.3692 307.6584156  +6.2811455     1168.306     1951.769     1860.474      77.4268     155.4728     310.7601      1.757     6.42     853.8234     54.79287     135.1418        15     1.406     0.822 -42.04   0
       660    522.4219   1008.1141 307.6869355  +6.2793975     3392.815     6536.501      7165.25     77.92155     155.2254     310.7292      2.057     5.43     853.8674     54.79287     365.5058        34     1.738     1.142 -25.37   0
       661    632.0890   1007.5319 307.6414453  +6.2832584     1013.691     1705.488     1686.467     78.04475     155.6581      310.822      1.837     6.94     852.9272     54.79287     125.5762        15     1.526     0.884 -22.91   0
       662     56.7461   1006.8168 307.8802173  +6.2645157     707.5704     1238.082     1371.498     77.42681     155.5346     310.5746      2.298     5.40     848.2906     54.79287     113.1022         9     1.334     0.616 -10.48   0
       663    475.5887   1004.5433 307.7064900  +6.2793241     1929.906     3337.151     2906.304     77.30263      155.411     310.5436      1.769     5.21     853.6248     54.79287     255.5148        22     1.693     0.879 -32.10   0
