#   1 NUMBER                 Running object number                                     
#   2 X_IMAGE                Object position along x                                    [pixel]
#   3 Y_IMAGE                Object position along y                                    [pixel]
#   4 ALPHA_J2000            Right ascension of barycenter (J2000)                      [deg]
#   5 DELTA_J2000            Declination of barycenter (J2000)                          [deg]
#   6 FLUX_APER              Flux vector within fixed circular aperture(s)              [count]
#   9 FLUXERR_APER           RMS error vector for aperture flux(es)                     [count]
#  12 FLUX_RADIUS            Fraction-of-light radii                                    [pixel]
#  13 FWHM_IMAGE             FWHM assuming a gaussian core                              [pixel]
#  14 BACKGROUND             Background at centroid position                            [count]
#  15 THRESHOLD              Detection threshold above background                       [count]
#  16 FLUX_MAX               Peak flux above background                                 [count]
#  17 ISOAREA_IMAGE          Isophotal area above Analysis threshold                    [pixel**2]
#  18 A_IMAGE                Profile RMS along major axis                               [pixel]
#  19 B_IMAGE                Profile RMS along minor axis                               [pixel]
#  20 THETA_IMAGE            Position angle (CCW/x)                                     [deg]
#  21 FLAGS                  Extraction flags                                          
         1    250.1544     37.9807 307.8352717  +6.6646597     3014.024     4971.609     5731.588     78.64976     157.5506     315.0698      1.847     4.24      860.439     55.56934     399.6111        29     1.360     1.265 -41.44   0
         2    179.5799     23.4757 307.8650825  +6.6682716     10382.05      16591.6     17609.29     78.64976     157.4251     315.1952      1.755     3.62     860.3637     55.56934     1233.643        43     1.431     1.315 -82.48   0
         3    523.7645     21.8383 307.7221414  +6.6805239     2858.869     4475.042     4534.796     78.77529     157.5506     315.0698      1.629     3.26     847.7662     55.56934     389.3552        25     1.324     1.054 -61.21   0
         4    925.1835     21.2766 307.5553762  +6.6942050      4103.02     5971.776     5854.006     78.52402     157.4251     315.1325      1.531     3.04     843.0156     55.56934     554.3013        24     1.194     1.054 -82.63   0
         5    461.9133     20.2582 307.7478923  +6.6790991     1763.474     2541.381     2523.821     79.02577      157.676     315.3833      1.527     3.86     850.2224     55.56934     232.4057        18     1.180     1.033 -59.47   0
         6    989.9014     17.6492 307.5286078  +6.6978658      2153.15      3454.35     3762.302     79.02577     157.6133     315.4459      1.725     4.34     837.3102     55.56934     258.6647        26     1.376     1.271  80.04   0
         7    709.3046     14.0612 307.6453148  +6.6899584     7243.338     10657.29     11078.34     78.77529     157.7386     315.3206      1.549     3.04     845.8552     55.56934     949.5247        34     1.278     1.193 -81.87   0
         8    629.5248     13.2378 307.6784899  +6.6876239     3684.875     5529.574     5937.479     78.90063     157.7386     315.2893      1.639     3.17     847.1967     55.56934     473.1351        24     1.199     1.117  79.29   0
         9    429.7792      9.5009 307.7616061  +6.6824610     6193.512     9533.188     10096.67     79.02577     157.4879     315.0384      1.709     3.40     853.0968     55.56934     808.6557        37     1.426     1.266 -88.34  16
        10    385.1657     11.4777 307.7800750  +6.6801451     595.5374      813.531     465.5772     78.90063     157.7386     315.2266      1.395     4.36     855.8396     55.56934     91.29755         5     0.935     0.578 -45.22   0
        11     30.6925      9.0701 307.9274252  +6.6691991     8202.952     13058.05     14122.53     79.02577     157.8013     315.2579      1.741     3.32     859.0898     55.56934     1039.122        43     1.398     1.337 -66.13  16
        12    676.5373      8.7184 307.6591090  +6.6910663     918.1483     1186.862     1027.561     79.15071      157.676     315.2579      1.481     4.18     847.0222     55.56934     119.2269        11     1.036     0.785 -49.71   0
        13    326.3020      4.4466 307.8047685  +6.6810684     12445.72     19781.94     21096.65     79.02577     157.4879     282.3535      1.744     3.52     858.6896     55.56934     1491.064        50     1.530     1.330 -70.33  24
        14    505.3147      6.7638 307.7303151  +6.6861286      850.001     1395.247     1404.966     79.02577     157.6133     305.7748      1.669     3.69     847.9039     55.56934      128.285         9     1.018     0.654 -41.87  16
        15    421.2013      5.5330 307.7653038  +6.6838110     686.8453     1097.297     1002.719     78.39807     157.2367     294.2469      1.767     5.26     854.0011     55.56934     89.14789         7     1.168     0.670 -58.70  16
        16     99.8350      4.7827 307.8988453  +6.6733017      2436.79     4004.939     3999.132     78.64975     157.4879     285.9354      1.729     3.72     859.9711     55.56934     311.2709        24     1.269     1.145 -46.83  16
        17     91.2097      3.3663 307.9024766  +6.6735956     1460.014     2419.787     2477.249     78.52402     150.4277     267.9525      1.711     4.53     859.7955     55.56934     196.7897        19     1.331     0.969  80.55  24
        18    794.9645      2.9640 307.6100970  +6.6974096       866.55     1315.402     1165.347     78.77529     146.4334     262.2496      1.582     5.56      842.791     55.56934     113.3339        12     1.189     0.853 -63.16  24
        19    392.4754      2.6930 307.7773346  +6.6840180     2355.054      3226.58     3205.778     78.90063       143.64     258.4924      1.537     3.64     855.6102     55.56934     316.8545        19     1.200     0.962 -71.83  24
        20    598.1204    995.5341 307.6584732  +6.2809711     1253.632     1994.884     1907.992     79.15071     157.8013     315.2266      1.677     4.15     880.6802     55.56934     161.2692        14     1.212     0.791 -32.43   0
        21    529.8134    993.5479 307.6868980  +6.2795007       4041.7     6451.127     6921.909     78.39807     157.6133     315.0071      1.737     3.61      880.715     55.56934     506.7206        32     1.377     1.311  66.99   0
        22    639.2612    992.8928 307.6414821  +6.2834406      1344.43     2141.323     1950.452     78.90063      157.676     315.3206      1.633     5.17     878.8217     55.56934     174.9214        14     1.214     0.934 -78.66   0
        23     64.5361    991.8801 307.8801089  +6.2645464     882.9581     1368.065     1549.369     79.27546     157.7386     315.2266      1.632     5.54     879.2336     55.56934     144.0352        10     1.348     0.833 -83.02   0
        24    794.9896    991.9539 307.5768610  +6.2890426     598.1412      747.952     789.1562     78.52402     157.5506     314.9443      1.244     3.81     874.5322     55.56934     126.0179         5     0.805     0.517 -25.23   0
        25    482.9062    990.0394 307.7064898  +6.2793755     2072.752     3154.286     2638.118     79.15071     157.6133     315.3519      1.570     3.97     881.1165     55.56934     310.7924        22     1.218     1.196  51.74   0
        26    917.3214    982.1747 307.5264004  +6.2971711     39980.95     67447.96     73092.94     78.77529     157.6133     315.2266      1.836     3.51     873.2108     55.56934     4645.531        82     1.660     1.470  89.01   0
        27    322.0246    983.8906 307.7734866  +6.2765109     578.2728      1171.94     1182.605     79.15071     157.4879     315.1012      2.140     5.55     880.8943     55.56934     96.05365         8     1.501     0.578 -57.53   0
        28    224.6030    980.3533 307.8140497  +6.2746953     1669.895     2425.934     1952.513     78.39807     157.4251     314.9129      1.607     3.72     880.4751     55.56934     197.5023        16     1.152     0.954 -66.66   0
        29    113.2556    979.4848 307.8603032  +6.2713056     634.7134      917.608      1128.44     79.02577      157.676     315.3833      1.377     4.19      879.227     55.56934     123.3891         6     1.070     0.468 -55.24   0
        30    623.6448    978.5217 307.6484486  +6.2888513     952.2747     1392.405     903.6575     78.90063      157.676     315.2579      1.620     4.25     878.9487     55.56934     164.3879        12     1.094     0.961  29.36   0
        31    763.4194    973.9490 307.5905725  +6.2954207     6336.054     9972.298      11004.6     78.52402     157.7386     315.0698      1.771     3.39     875.1806     55.56934     796.4838        40     1.551     1.201 -76.30   0
        32    815.3187    975.9872 307.5689569  +6.2963156     2042.829     3514.501     3701.702     78.64975     157.4251     315.1012      1.827     3.82     873.7961     55.56934     295.5088        24     1.316     1.146  58.69   0
        33    232.7387    972.6349 307.8109328  +6.2781560     1359.303     2051.669     1534.722     79.02577      157.676     315.2266      1.596     5.32     880.4041     55.56934     172.7906        15     1.387     0.843 -84.09   0
        34    550.0798    972.8971 307.6791792  +6.2887074     883.4854     1170.625     753.1665     78.77529     157.9265     315.3206      1.509     5.05     879.9135     55.56934     124.6953         9     0.996     0.754 -53.36   0
        35     57.9148    970.7616 307.8835717  +6.2730430     2550.968     4267.583     4501.304     79.02577      157.676     315.2579      1.773     3.79     879.0875     55.56934     338.4603        26     1.361     1.109 -79.11   0
        36    951.6686    969.0093 307.5125816  +6.3037550     6064.277     10343.58     10648.34     78.52402     157.4879     315.1325      1.816     3.57     871.7781     55.56934     730.2401        40     1.508     1.324 -82.79   0
        37    197.5452    972.3713 307.8255519  +6.2770806     912.1755     1183.534     852.4909     78.77529     157.7386     315.1639      1.405     3.58     879.9905     55.56934     132.3556         9     1.074     0.576 -13.34   0
        38    207.3964    965.6440 307.8216894  +6.2801898     580.7664     988.0922     991.5388     78.39807     157.2995     314.9129      1.740     3.50     880.0314     55.56934     106.8902         5     0.778     0.456 -73.60   0
        39    925.3918    960.7564 307.5237679  +6.3062849     1887.015     3051.971     2964.327     78.52402     157.4879     315.0071      1.700     3.95     872.2729     55.56934     254.0812        22     1.304     1.120  70.02   0
        40    784.9411    957.3751 307.5821937  +6.3029845     1179.751     1918.972     1983.555     78.64975      157.676     315.1012      1.650     4.94     874.0723     55.56934     161.4916        13     1.215     0.917 -78.28   0
        41    646.2151    956.5492 307.6398170  +6.2986804      4492.65     7029.625     7990.655     78.39807      157.676     315.0071      1.705     3.44     877.1441     55.56934     595.7122        32     1.415     1.130 -82.67   0
        42    258.2737    956.6844 307.8008704  +6.2856009      4344.75     6889.969     7269.925     79.15071      157.989     315.2893      1.732     3.41     880.3572     55.56934     545.3475        33     1.387     1.247 -70.28   0
        43    995.1494    956.0964 307.4949618  +6.3105392     694.8856     1003.007     1149.514     78.90063     157.6133     315.4459      1.632     4.77     869.9645     55.56934     108.8809         8     1.231     0.524 -78.63   0
        44    468.3437    954.7159 307.7137250  +6.2934721     1050.939     1668.716     826.5002     79.02577      157.676     315.3519      1.667     4.54     879.7735     55.56934     168.6424        14     1.165     0.988 -76.38   0
        45     27.1260    953.9278 307.8969224  +6.2789559     2131.436     3250.865     3439.136     79.27546     157.8013     315.2892      1.611     3.58     879.0383     55.56934     318.0148        21     1.225     1.075  82.73   0
        46    878.2378    953.0704 307.5436032  +6.3078825      918.296     1548.202      1740.57     78.90063      157.676     315.3206      1.875     4.59     872.1343     55.56934     126.4784        11     1.071     0.804 -64.68   0
        47    294.5379    950.4941 307.7860242  +6.2893764     969.6751     1442.207     1346.498     79.02577     157.7386     315.3206      1.673     5.84      880.549     55.56934     138.8043        11     1.186     0.808 -54.78   0
        48    969.7636    951.0757 307.5056699  +6.3117646      621.515     1038.551     881.7261     78.90063     157.7386     315.2893      1.717     4.59     870.6038     55.56934     101.8505         6     0.834     0.717 -82.54   0
        49    570.7667    949.1325 307.6713904  +6.2992138     1584.836     2551.211      2562.25     78.90063     157.7386     315.2892      1.633     4.08     878.6933     55.56934      207.024        16     1.106     1.042  82.39   0
        50   1002.1358    949.2490 307.4922905  +6.3136000     725.5203     1360.627     1517.847     78.90063     157.5506     315.3206      2.089     5.25     869.6183     55.56934     102.3205         9     1.234     0.834 -56.64   0
        51    610.1676    945.3069 307.6551609  +6.3021144     1236.216     1940.899     1794.167     79.15071     157.5506     315.3206      1.708     4.76     877.5151     55.56934     186.4811        16     1.283     1.075 -84.99   0
        52     59.8588    946.0926 307.8835988  +6.2832942     718.3602     1215.422     1534.622     78.90063     157.6133     315.3833      1.567     3.88     878.9076     55.56934     109.5783         6     0.746     0.580 -56.99   0
        53    289.9124    943.3689 307.7881849  +6.2921629     1366.659     1909.879     2665.579     79.15071     157.4879     315.1952      1.737     4.50     880.5122     55.56934     180.8721        16     1.326     0.928 -47.27   0
        54    756.8597    939.4974 307.5944529  +6.3094267     867.6735      1553.25     1633.682     78.77529      157.676     315.3833      1.893     6.29     874.4878     55.56934     104.6695        11     1.153     0.965 -43.20   0
        55    894.4100    935.8186 307.5374674  +6.3155467      6742.46     10716.62     11284.46     78.64976     157.3623     315.1325      1.707     3.32     871.3478     55.56934     831.5869        40     1.419     1.282 -82.02   0
        56    133.0048    937.5430 307.8535219  +6.2892885     659.8116     717.7849     551.4153     78.39807     157.5506     314.9757      1.230     4.22     878.9063     55.56934     98.60297         6     1.133     0.449 -74.83   0
        57    430.3637    933.0981 307.7302212  +6.3011232     1987.832     2816.466     2916.868     79.02577     157.5506     315.4146      1.544     3.72     879.2282     55.56934     242.4941        19     1.246     0.964  82.15   0
        58    331.9390    931.2509 307.7711460  +6.2985794     9395.894     14550.57     15645.76     79.02577     157.6133     315.2579      1.657     3.37     880.4838     55.56934     1228.266        40     1.403     1.244 -72.13   0
        59    251.9206    930.1236 307.8044044  +6.2963543       6961.1     10782.52     11339.65     79.27546     157.9265     315.3833      1.632     3.37     880.0648     55.56934      881.874        36     1.449     1.188  79.79   0
        60    764.4572    924.6735 307.5917963  +6.3158021      680.175     1255.917     1155.982     79.02577      157.676     315.2266      2.037     4.81     873.9182     55.56934      130.864         8     1.031     0.840 -44.49   0
        61    580.0652    924.8123 307.6683482  +6.3095677     1170.132     1725.797     1607.681     78.52402     157.4879     315.1639      1.447     4.49     877.4206     55.56934     176.8657        12     1.169     0.792 -58.88   0
        62    910.3960    921.2068 307.5313201  +6.3221146     1042.489      1632.14     2243.309     78.39807     157.3623     315.1325      1.817     3.42     870.8326     55.56934     171.4177        11     1.027     0.737 -40.47   0
        63    866.3253    920.4550 307.5496432  +6.3209518     679.1627     1271.422     1471.699     78.90063     157.6133     315.2266      2.401     4.14     871.1715     55.56934     96.15479         5     1.007     0.486   7.16   0
        64    214.2703    920.4878 307.8203605  +6.2990662     661.3579     907.0349     870.7515     79.15071     157.9265     315.2579      1.397     3.42     879.5187     55.56934     132.8718         5     0.997     0.339 -23.04   0
        65    408.8171    919.3364 307.7396304  +6.3060820     648.2778      785.348     478.2683     78.52402     157.6133     315.1012      1.182     3.92      879.238     55.56934     111.4886         6     0.801     0.550 -41.78   0
        66    746.4498    913.8881 307.5996351  +6.3196528     1576.357     2374.468     2493.946     79.02577     157.4879     315.3833      1.570     4.15      874.119     55.56934     222.1516        18     1.246     1.048  56.23   0
        67    598.5528    913.9874 307.6610366  +6.3146573     521.9669     691.7233     765.7783     78.39807     157.5506     315.0071      1.183     4.44     876.4737     55.56934     116.2504         5     1.130     0.497  89.52   0
        68    977.7864    909.6718 307.5037264  +6.3291291     1116.668     2022.816     2498.378     78.52402     157.5506     315.1325      2.265     5.76     868.7361     55.56934     140.5835        12     1.254     0.829  85.40   0
        69    610.7006    910.5265 307.6561095  +6.3164935     884.9638     1417.564      1017.07     78.64976     157.8013     315.2266      1.628     2.99     876.0757     55.56934     153.7714         8     0.799     0.746  68.08   0
        70    531.6761    909.7163 307.6889463  +6.3141781     1060.879      1920.67     1635.948     79.15071      157.989     315.3519      2.006     3.29     878.0604     55.56934     168.2067        11     1.113     0.761 -48.81   0
        71    664.9956    907.1929 307.6336790  +6.3196895     2412.725     4088.848     4354.413     78.39807     157.3623     315.1325      1.756     3.99     875.5568     55.56934     286.2537        28     1.349     1.280  12.09   0
        72    954.6652    905.3336 307.5134718  +6.3301481     650.7249     964.8745     1106.127     79.02577      157.676     315.2893      1.688     4.98     869.3394     55.56934      95.4278         5     1.113     0.629 -37.26   0
        73     61.4874    903.3364 307.8843686  +6.3010030     2837.112     4609.981     4962.104     79.02577     157.8639     315.2892      1.746     3.86     878.6234     55.56934     340.4287        25     1.347     1.131  89.43   0
        74    825.8615    903.7327 307.5670048  +6.3265035     872.3483     1257.434     1509.558     79.02577     157.6133     315.2579      1.515     4.64     871.8098     55.56934     119.3924         7     0.978     0.626  85.89   0
        75    205.2451    902.3707 307.8247191  +6.3062431     2041.193     3314.077     3372.646     78.64976     157.7386     315.1325      1.787     4.09      879.215     55.56934      263.024        19     1.254     0.985 -53.07   0
        76     79.1669    902.7757 307.8770479  +6.3018302     2009.995     3076.205     2782.468     78.52402     157.4879     315.0698      1.628     3.54     878.4545     55.56934     260.2231        21     1.213     1.062 -67.65   0
        77    943.8693    902.3944 307.5180528  +6.3310011     690.6953      930.195     1083.385     78.52402     157.2995     315.1012      1.512     4.28     869.6635     55.56934     95.94928         7     0.865     0.775 -86.11   0
        78    659.5988    896.4492 307.6362808  +6.3239450      6722.47     10389.73     11179.29     78.39808     157.2995     314.8188      1.709     3.38      875.396     55.56934     878.0635        36     1.417     1.190 -76.25   0
        79    239.1277    899.1846 307.8107598  +6.3086987     810.8925     1041.113     837.8673     78.52402     157.5506     315.1639      1.475     3.94     879.6713     55.56934     113.2778         8     0.914     0.713 -76.87   0
        80    344.0564    898.6376 307.7672151  +6.3124528     877.3668     1465.116     1536.783     79.02577     157.7386     315.2893      1.926     4.37     879.9691     55.56934     124.9302         9     1.008     0.867  18.50   0
        81    797.6755    897.3905 307.5789204  +6.3281793     697.4312     1018.984     845.5446     78.64976     157.1738     315.0698      1.686     5.61     872.1371     55.56934     87.02875         9     1.032     0.859 -57.44   0
        82    897.4302    892.8459 307.5376546  +6.3333920     2702.264     4180.405     4330.068     78.52402     157.7386     315.1325      1.679     3.96      870.574     55.56934     340.6042        26     1.412     1.067 -73.60   0
        83     19.7776    894.7326 307.9019755  +6.3031495     1200.736     1643.532     1569.248     78.64976     157.6133     315.2266      1.451     3.51     879.0311     55.56934     192.8821        11     0.987     0.791  41.68   0
        84    449.4474    893.7926 307.7236224  +6.3179936     520.2411     631.0418     381.1049     78.52402     157.4879     314.8816      1.411     4.75     878.4526     55.56934     99.95746         6     1.331     0.480 -52.43   0
        85     32.7342    893.1727 307.8966493  +6.3042303      1201.13     1731.563     1349.792     78.64975      157.676     315.1639      1.429     4.32     878.8862     55.56934     165.4269        11     1.056     0.841  61.37   0
        86    342.6620    889.5177 307.7681016  +6.3161716     16376.64     24666.51     26653.02     79.15071      157.676     315.2266      1.663     3.30     879.8322     55.56934     2161.453        49     1.433     1.265 -74.93   0
        87     77.2875    890.6686 307.8782375  +6.3067658     1299.907     1860.032     1962.362     79.15071     157.9265     315.2893      1.427     3.03     878.3573     55.56934      193.233        13     1.062     0.810 -84.91   0
        88    213.6456    889.1792 307.8216770  +6.3119725     1272.995     1820.431      1923.87     78.64976     157.6133     315.1012      1.605     4.30     879.2004     55.56934     198.8561        14     1.204     0.877 -71.65   0
        89    393.3125    888.9785 307.7470907  +6.3180962     669.2721     882.0973     859.3265     79.02577     157.4879     315.1325      1.075     4.06     879.0465     55.56934     122.2759         6     1.129     0.417 -55.14   0
        90    106.0878    880.3647 307.8666290  +6.3119906     1710.388     2550.698     2974.946     79.02577     157.5506     315.2579      1.690     3.66     878.0235     55.56934     250.3134        14     1.151     0.865 -61.56   0
        91    420.4861    880.4938 307.7360947  +6.3225122     1040.909     1364.955     1673.595     79.02577      158.114     315.3519      1.553     5.01     878.4979     55.56934     139.5549        13     1.225     0.782 -68.29   0
        92    501.1947    877.4545 307.7026879  +6.3264767     638.7189     1008.038     1336.153     78.39807     157.4251     314.9443      1.733     4.57      877.437     55.56934     88.26508         8     1.027     0.578 -70.80   0
        93    674.0822    876.8455 307.6309264  +6.3325248     834.2135     1247.968     1637.971     79.02577      157.676     315.2579      1.721     4.89     874.9777     55.56934     128.0623         9     1.004     0.886 -82.92   0
        94    887.9186    874.5736 307.5422168  +6.3406190     1888.253       2787.7      2537.13     78.90063     157.4879     315.2579      1.611     3.70     870.5305     55.56934     258.9023        20     1.222     1.030 -63.15   0
        95    858.4073    873.9220 307.5544920  +6.3399014     2008.275     3099.025      3459.15     78.64975     157.1738     315.0384      1.637     3.51     871.0486     55.56934     252.1301        20     1.208     1.011  72.08   0
        96    821.8301    873.3600 307.5696980  +6.3389101     2924.999     4442.238     4683.926     78.52402     157.4251     315.1012      1.667     3.77     871.2433     55.56934     376.2679        25     1.251     1.166  76.80   0
        97     89.4646    873.7953 307.8737525  +6.3141431     2432.135     3771.897      4287.39     78.39807     157.3623     315.0384      1.746     3.86      878.004     55.56934     316.5654        22     1.360     0.992 -60.54   0
        98    557.7272    864.7413 307.6796439  +6.3336227     331401.9     506456.3     539099.6     79.15071      157.676     315.2266      1.675     3.22     875.7953     55.56934     45675.95       203     1.668     1.552 -86.25   0
        99    452.4087    871.7020 307.7231371  +6.3272144     721.6498      1137.68     1303.148     78.77529     157.2995     315.0384      1.726     3.76     878.0509     55.56934     120.9357         8     1.024     0.651 -57.39   0
       100    337.5085    871.9600 307.7708333  +6.3232481      784.117     1174.039     1726.239     79.02577     157.6133     315.3206      1.570     3.15     879.6259     55.56934     149.9874         7     0.854     0.685 -25.75   0
       101    645.4430    868.0023 307.6431147  +6.3352168     1295.086     1826.601     1522.299     78.39807     157.2995     314.9443      1.524     4.20     874.9236     55.56934       179.35        14     1.166     0.891  86.30   0
       102    402.0145    867.2742 307.7442094  +6.3273503      7532.12     11567.44     12263.89     78.52402     157.4251     315.1012      1.634     3.28     878.5581     55.56934     982.7487        36     1.346     1.205  85.87   0
       103    345.1277    865.7121 307.7678807  +6.3260840     12421.34     19109.72     20330.12     79.15071     157.9265     315.2579      1.646     3.28     879.4053     55.56934     1657.859        46     1.425     1.293 -89.91   0
       104    895.9051    860.9476 307.5393578  +6.3465124     5010.359     8465.701     9631.377     78.90063     157.6133     315.5086      1.836     3.44     870.1076     55.56934     662.7428        42     1.566     1.370  13.76   0
       105    663.6242    862.1312 307.6357633  +6.3382502     3506.389     5342.965     5640.547     78.64975     157.5506     315.1952      1.631     3.16     874.7061     55.56934     456.1592        23     1.184     1.086 -80.19   0
       106    735.2127    858.8295 307.6061502  +6.3420112     735.7029     1005.474     686.1755     78.52402     157.4251     315.1639      1.348     3.86     872.8594     55.56934     115.7166         6     0.797     0.536 -60.70   0
       107    826.8881    855.5099 307.5681971  +6.3464499     1694.262     2602.275     2965.452     78.77529     158.1765     315.3519      1.734     4.10     870.9636     55.56934      205.359        18     1.265     0.962 -83.11   0
       108    638.3654    855.9843 307.6464575  +6.3399420     3338.631     5382.632     5448.719     78.64975     157.4251     315.1012      1.700     3.37     874.5626     55.56934     438.0072        26     1.295     1.177  38.54   0
       109    954.3636    854.4870 307.5153014  +6.3511337     657.4243     913.1154     864.1942     79.02577     157.5506     315.2579      1.686     3.80     867.5239     55.56934     115.7151         5     0.966     0.435  76.27   0
       110    629.3666    854.9824 307.6502275  +6.3400541     1056.212     1551.724     2249.375     78.64975     157.4879     315.1012      1.544     4.19     874.5625     55.56934     148.4752        10     0.961     0.796 -66.55   3
       111    631.3109    850.7728 307.6495618  +6.3418575     2169.234     3248.472     3980.473     79.15071     157.4251     315.1325      1.624     3.75     874.4204     55.56934      298.347        20     1.326     1.050  64.31   3
       112    552.1891    855.2124 307.6822641  +6.3373715     695.2664     1363.191      2869.49     78.77529     157.4251     315.2266      1.919     3.45     875.6229     55.56934     95.33203         5     0.992     0.346 -43.83   0
       113    914.9043    849.2686 307.5318607  +6.3519700     3650.894     5517.952     5674.621     78.90063     157.8013     315.2893      1.690     6.96      869.188     55.56934     1006.854        23     1.331     1.020 -89.95   0
       114    325.1365    849.3641 307.7767321  +6.3321621     1099.523     1713.633     1619.747     78.90063      157.676     315.2893      1.601     4.79     879.3353     55.56934      170.193        15     1.235     0.964  50.17   0
       115    373.1137    844.7280 307.7569688  +6.3356889     2635.083     4178.826     4487.258     79.15071     157.9265     315.2579      1.728     3.41     878.3411     55.56934     358.8304        23     1.193     1.110 -62.64   0
       116    509.3370    834.4511 307.7007553  +6.3445064     3187.432     4579.462     5228.171     79.02577     157.6133     315.2266      1.605     3.09     875.9086     55.56934     469.7585        23     1.158     1.077 -79.73   0
       117    854.2081    833.7693 307.5575830  +6.3563408     990.8126     1655.398     1812.029     78.52402     157.4879     315.0384      1.721     3.69     870.3563     55.56934     155.8149        13     1.079     0.884  84.68   0
       118    574.6142    832.2731 307.6737251  +6.3475955     782.8839      1203.18     1391.619     78.52402     157.4251     315.1325      1.690     4.47     874.5775     55.56934     116.9758         9     1.176     0.777 -47.08   0
       119    556.0495    830.5871 307.6814900  +6.3476691     6029.658     9345.136     10235.51     78.39807     157.6133     315.0071      1.673     3.38     874.8933     55.56934     805.0486        35     1.405     1.206  84.20   0
       120    562.8226    830.1037 307.6786940  +6.3480958       1246.9     1980.256     2706.351     79.02577     157.4251     315.0698      1.669     4.08     874.7388     55.56934     156.9464        13     1.053     0.900  83.67   0
       121    268.1146    831.0530 307.8010249  +6.3378055     770.4794     1057.564     787.9769     79.02577     157.6133     315.4146      1.323     3.41     879.3414     55.56934     136.4396         5     0.789     0.511 -31.02   0
       122    474.2065    829.2624 307.7155164  +6.3454699     1494.643     2318.338     2437.333     78.39807     157.4879     315.0384      1.635     4.07     876.3926     55.56934     211.3153        14     1.152     0.880 -55.60   0
       123    115.3770    828.8524 307.8645137  +6.3335729      1277.33     1979.504     2078.624     78.52402      157.676     315.0698      1.591     4.55      877.692     55.56934     176.4426        14     1.193     0.811 -51.23   0
       124    891.9968    828.7222 307.5420615  +6.3596883      1251.78     2017.427     2062.742     78.52402     157.1738     315.0698      1.631     3.65     869.1978     55.56934     171.6685        11     1.018     0.716  78.68   0
       125    691.5662    827.6619 307.6253202  +6.3534192     844.8677     1245.116      1194.41     78.90063     157.7386     315.1952      1.655     3.97     872.8768     55.56934     145.4483        10     1.094     0.708 -72.63   0
       126    526.8491    824.4251 307.6938217  +6.3492339     19492.15     29593.88     31206.87     78.64975      157.676     315.1639      1.631     3.18     875.2431     55.56934     2633.324        50     1.409     1.268 -79.87   0
       127    368.1262    826.5256 307.7596533  +6.3430372      782.975     865.4328     410.9365     79.27546     157.9265     315.3519      1.230     4.70     877.8749     55.56934     146.2479         8     1.058     0.592 -41.16   0
       128    940.4562    822.7783 307.5221392  +6.3637622     3724.478     6095.584     6127.622     78.64976      157.676     315.0698      1.731     3.59     867.2709     55.56934     456.7599        30     1.346     1.203 -76.86   0
       129     37.2607    815.0663 307.8974122  +6.3366326     1364.103     2276.721     2233.666     79.02577     157.6133     315.2579      1.743     4.64     877.2871     55.56934     179.5361        18     1.274     1.009 -85.26   0
       130    319.4712    813.1353 307.7803065  +6.3469308     3413.726     5166.459     5500.434     79.02577     157.7386     315.3206      1.632     3.54     878.4926     55.56934     453.6399        24     1.274     1.034 -54.27   0
       131     19.3195    811.1685 307.9049929  +6.3376372      2178.77     3396.831     3741.942     78.90063      157.676     315.2266      1.715     3.47     877.0635     55.56934     289.6688        23     1.271     1.095 -86.16   0
       132    785.0027    808.9761 307.5871510  +6.3642632     53998.62     83320.14     88302.84     78.64976     157.3623     315.0698      1.641     3.25     871.0983     55.56934     7095.265        79     1.530     1.346  89.42   0
       133    428.6321    808.1633 307.7351501  +6.3526517     1026.317      1466.77     1413.359     78.64975     157.4251     315.0071      1.529     3.42     876.3253     55.56934     147.4136        12     0.995     0.833 -32.20   0
       134    241.7579    785.2493 307.8135144  +6.3558313     777911.3      1856557      2093260     79.02577     157.6133     315.2266      2.351     4.09     877.9523     55.56934     62843.75       701     2.830     2.266  88.22   4
       135    713.2632    803.6490 307.6171182  +6.3640612     21414.56     33204.95     36597.82     78.90063     157.6133     315.3206      1.692     3.27     871.6506     55.56934      2820.64        54     1.448     1.324 -74.43   3
       136    706.9526    800.1219 307.6198570  +6.3653062     87140.73     133457.1       143142     79.02577     157.7386     315.1952      1.629     3.20     871.6335     55.56934     11602.19        96     1.549     1.416 -80.53   3
       137    910.3191    804.2611 307.5352741  +6.3704012     8272.595     13192.19     14155.75     79.15071      157.676     315.2266      1.743     3.31        867.7     55.56934     1020.375        41     1.472     1.248 -85.74   2
       138    907.1703    795.7652 307.5368665  +6.3738041     6497.912     10484.96     11250.52     78.64975     157.4251     315.0698      1.737     3.30     867.6515     55.56934     899.5165        38     1.402     1.248 -78.69   2
       139    351.8190    800.9310 307.7672873  +6.3530574     20164.12     31453.68     34014.46     78.64975     157.5506     315.1952      1.657     3.23     877.3633     55.56934      2795.45        61     1.469     1.377 -75.66   0
       140    413.7037    798.7646 307.7416652  +6.3560311     22248.76     33799.86     36279.92     79.15071     157.5506     315.4146      1.676     3.26     876.2913     55.56934     3094.895        60     1.506     1.320 -75.72   0
       141    401.1085    801.2824 307.7468100  +6.3545684      1351.19     1938.986     2049.056     78.77529     157.9265     315.3206      1.501     3.15      876.551     55.56934     204.3615        11     0.899     0.817  31.18   0
       142    640.6646    800.7548 307.6473602  +6.3628241     731.0846     1045.499     1317.165     79.02577     157.6133     315.2579      1.531     4.56     872.6003     55.56934     98.72668         8     0.945     0.626 -77.37   0
       143    951.0578    797.8757 307.5185720  +6.3743992     1885.353     2988.069     3073.079     79.15071      157.676     315.2266      1.737     3.68     866.1634     55.56934     271.1473        21     1.279     1.014 -59.55   0
       144    880.4892    796.6570 307.5479156  +6.3725439     586.4219     1052.942     1161.222     78.90063     157.6133     315.3833      1.703     3.35     868.7018     55.56934     127.8964         5     0.787     0.414  65.25   0
       145    647.7497    794.8148 307.6446180  +6.3655142     6519.032     9755.517     10748.28     78.39807      157.676     315.0071      1.596     3.16     872.3913     55.56934     882.5107        32     1.265     1.202 -60.84   0
       146    436.7969    792.8948 307.7322745  +6.3592304     1632.079     2540.359     2323.913     78.77529     157.3623     315.0071      1.602     4.05     875.7556     55.56934     233.0533        18     1.164     1.116  18.32   0
       147    161.8539    792.4490 307.8464474  +6.3501691      978.699     1364.871     1465.299     79.02577      157.676     315.3206      1.458     5.53     877.5346     55.56934     136.2078        12     1.224     0.705 -83.81   0
       148    875.8250    786.9568 307.5501778  +6.3763934     674.1267     1118.462     1185.397     78.64976      157.676     315.1325      1.713     4.64     868.5984     55.56934     126.7411         7     1.151     0.588 -85.14   0
       149    601.0081    786.7250 307.6642985  +6.3672879     1072.694     1442.301     1905.707     78.64975     157.2367     315.1012      1.535     4.15      872.845     55.56934     143.6996        11     1.008     0.762 -69.40   0
       150    152.0010    785.7151 307.8507658  +6.3526177     867.7427     1401.374     1292.292     78.27193     157.2367     314.9757      1.616     4.40     877.3616     55.56934     146.8524        10     1.164     0.778 -72.34   0
       151    683.0041    784.9084 307.6303125  +6.3707860      2437.27     3549.602     3741.659     78.64976     157.3623     315.0384      1.559     3.51     871.7941     55.56934     332.6512        22     1.200     1.063 -65.04   0
       152    126.9481    785.5621 307.8611729  +6.3518371      1202.62     1728.215     1442.443     78.77529     157.7386     315.2579      1.656     3.09     877.3242     55.56934     167.7927        13     0.979     0.857 -73.68   0
       153    416.6338    781.4296 307.7410329  +6.3632873     53960.49     82308.41      87523.5     78.52402     157.4251     315.0071      1.683     3.20     875.8337     55.56934     7252.988        86     1.534     1.413 -70.68   0
       154    959.7339    783.1541 307.5154629  +6.3807680     751.5767      1279.56     1228.014     79.02577     157.6133     315.2893      1.595     3.19     865.8012     55.56934      136.357         6     0.890     0.548 -23.56   0
       155    534.4509    780.4797 307.6921449  +6.3676345     7178.347     10747.67     11281.81     79.02577     157.7386     315.2579      1.652     3.37     873.6459     55.56934     903.1632        35     1.317     1.222 -61.49   0
       156    451.1839    779.1207 307.7267649  +6.3654009     4410.875     6801.802     7488.083     78.64975     157.4251     315.1012      1.642     3.18     875.0948     55.56934     586.6653        32     1.300     1.176 -78.56   0
       157    779.6509    777.1078 307.5904436  +6.3772431     11046.14     17165.28     18351.86     78.90063     157.5506     315.4459      1.657     3.25     870.5604     55.56934      1478.12        43     1.388     1.296  88.62   0
       158    447.8264    772.4905 307.7283824  +6.3680259     2300.134     3583.674     4348.659     79.15071     157.4251     315.1012      1.775     3.54     874.9526     55.56934     323.3025        21     1.219     1.052 -69.58   0
       159      8.8955    773.1678 307.9106067  +6.3529759     1100.801     1791.192     2136.551     79.15071     157.5506     315.3519      1.773     3.68     876.7047     55.56934      143.006        12     1.072     0.767  85.06   0
       160    801.2681    771.5926 307.5816525  +6.3802438     1249.494     1840.263     1466.781     78.52402     157.4251     315.1325      1.664     5.01     870.1253     55.56934     152.5027        16     1.259     0.921 -77.22   0
       161    145.3720    769.3124 307.8540725  +6.3591671     2745.567     4451.753     4552.501     79.15071     157.4251     315.1325      1.753     3.35     876.9809     55.56934     374.2163        26     1.329     1.093 -59.02   2
       162    137.3926    769.0568 307.8573942  +6.3590039     11178.53     17491.91     19534.37     78.39807     157.5506     315.0384      1.681     3.22     876.9971     55.56934     1454.282        46     1.405     1.329  71.07   3
       163    129.6408    766.4238 307.8607018  +6.3598300     2918.065     4965.215     6382.124     78.64976     157.4879     315.0384      2.036     3.79     876.9553     55.56934     393.2325        26     1.336     1.182 -74.92   3
       164    129.7742    760.2396 307.8608554  +6.3623879     1835.455     2928.242      3880.18     78.64976     157.4879     315.1012      1.978     4.10     876.8433     55.56934     234.5992        19     1.271     1.055 -71.62   3
       165    974.4070    765.5290 307.5099608  +6.3885359     1418.053     2263.714     2515.639     78.52402     157.2367     315.1952      1.780     4.88     865.2231     55.56934     175.3792        18     1.370     0.998 -81.76   0
       166    925.1526    765.6681 307.5304090  +6.3868328     6281.793     9959.704     10926.51     79.02577     157.6133     315.2579      1.745     3.49     866.8401     55.56934     829.5659        36     1.439     1.222  67.00   0
       167    680.7158    763.6426 307.6319776  +6.3794903     1690.973     2519.274     2374.712     79.02577     157.6133     315.1952      1.612     3.72     871.5383     55.56934     212.4237        19     1.258     0.925 -64.44   0
       168    567.5103    762.7006 307.6790161  +6.3760846      2176.07     2978.778     3214.036     79.02577      158.114     315.2266      1.480     3.10     872.5688     55.56934     286.8063        16     1.020     0.929 -87.26   0
       169    415.2822    762.3007 307.7422389  +6.3711404     1193.333     1944.104     2068.457     79.02577     158.1765     315.3519      1.810     4.62     875.4228     55.56934     156.3451        14     1.221     1.012 -54.40   0
       170    948.8697    757.1675 307.5208455  +6.3911354     3023.246     4849.903     4857.823     78.90063      157.676     315.2892      1.705     3.34     866.0221     55.56934     390.1959        23     1.208     1.096  84.20   0
       171    919.3994    757.6932 307.5330654  +6.3899335     2910.054     4613.301     4946.521     78.52402     157.2367     314.9443      1.708     3.62     866.9344     55.56934      405.162        26     1.306     1.107 -56.81   0
       172    979.5170    757.1234 307.5081206  +6.3921775     1975.442     3016.105     3266.865     79.15071      157.989     315.3833      1.606     3.90     864.9428     55.56934     239.0461        19     1.228     0.963  81.35   0
       173    671.7130    756.8102 307.6359456  +6.3820099     1378.506     2124.682     2193.989     78.64976     157.3623     315.1012      1.641     4.04        871.5     55.56934     187.2949        13     0.987     0.916 -79.48   0
       174    819.2036    755.2061 307.5747550  +6.3876102     927.1846      1224.36     916.0314     78.39807     157.3623     315.1325      1.380     3.83     869.1693     55.56934     138.0502        11     1.001     0.790 -67.26   0
       175    894.2755    752.6489 307.5436674  +6.3911767      817.085     1355.045     1786.336     78.90063     157.7386     315.2893      2.061     4.13      867.379     55.56934     111.8076        10     1.002     0.864  50.11   0
       176    244.3481    751.8346 307.8135671  +6.3697155     1723.018     2875.833      3885.42     78.90063      157.676     315.1639      2.116     4.64     876.7273     55.56934     223.5594        19     1.388     1.003  21.80   0
       177    681.8638    748.9094 307.6319962  +6.3856123     663.0367     1017.214     1051.462     79.02577     157.8639     315.3519      1.523     4.58     871.3348     55.56934      119.207         7     1.111     0.630  80.69   0
       178    936.9384    747.9185 307.5261102  +6.3945559      1028.01     1467.778     1530.594     79.15071      157.676     315.2266      1.575     5.37     866.4088     55.56934      161.061        11     1.177     0.692 -62.99   0
       179    264.4946    747.5423 307.8053469  +6.3721656     604.2264     874.3284     764.8385     78.90063      157.676     315.4146      1.618     5.88     876.6035     55.56934     110.7032         7     1.321     0.862 -80.95   0
       180    910.9811    746.8215 307.5369258  +6.3941413     959.9565     1748.018     2078.455     78.77529     157.6133     315.1952      2.019     4.31      866.991     55.56934     143.1001        11     1.096     0.922 -68.59   0
       181    963.9232    745.1106 307.5149988  +6.3966169     2437.473     4010.939     4743.078     79.02577     157.9265     315.3206      1.762     4.36     865.4192     55.56934     303.5269        25     1.330     1.277 -63.65   0
       182    160.2561    747.1948 307.8486400  +6.3688007     739.4102     1192.339     1024.044     78.52402     157.5506     314.9757      1.630     3.70      876.403     55.56934     123.9523         6     0.760     0.617   7.40   0
       183    683.5932    744.0581 307.6314412  +6.3876734     801.7674     1123.147      1606.95     78.39807     157.5506     314.9757      1.714     3.97     871.2631     55.56934     133.9318        10     1.034     0.893 -48.45   0
       184   1005.4771    738.4033 307.4979680  +6.4007744     1731.836     2739.223     2779.097     78.52402     157.1738     315.1012      1.698     4.41     863.8505     55.56934     209.1665        20     1.397     0.977 -82.83   0
       185    403.7723    739.8654 307.7477744  +6.3800174     582.5388     794.2552     692.2078     78.64975      157.676     315.1639      1.492     4.44     874.9959     55.56934     83.37714         5     0.814     0.689 -51.70   0
       186    806.7462    736.9689 307.5805403  +6.3947238     1132.637     1702.638     1455.374     78.90063     157.7386     315.1639      1.514     3.95     868.9471     55.56934     169.1689        11     1.020     0.845  57.36   0
       187    632.0059    737.5027 307.6530829  +6.3886516     642.8082     1090.824     1737.189     78.77529     157.3623     315.0384      1.867     3.79     871.4273     55.56934     85.46576         6     0.827     0.499   2.77   0
       188    892.9799    733.9987 307.5448311  +6.3988344     1513.762     2437.761     2759.663     78.64976     157.2995     314.9757      1.735     4.12     867.0407     55.56934     210.6281        18     1.208     1.012  50.47   0
       189    867.6380    729.0212 307.5555215  +6.4000424     782.7446     1334.615     1420.425     78.64975     157.4251     315.0384      1.804     4.63     867.3218     55.56934     125.4034        10     1.072     0.941 -35.45   0
       190    850.1437    725.8422 307.5628928  +6.4007700     1495.799     2258.963     2437.907     78.90063     157.6133     315.2579      1.590     3.92      867.687     55.56934     181.3058        17     1.125     1.068  72.58   0
       191    113.0098    722.7585 307.8690833  +6.3772991     875.0172      1895.54     2037.737     78.39807     157.4879     315.0071      2.097     7.05     876.3525     55.56934     126.1446        13     1.623     0.858  79.30   0
       192     49.2428    724.3133 307.8955075  +6.3745081     2422.704     3778.678     4259.409     79.02577     157.5506     315.2893      1.645     3.56     876.7209     55.56934     325.5466        21     1.223     1.013 -44.19   0
       193    661.7417    713.1274 307.6415550  +6.3997130     6302.284      9675.73     9817.349     79.15071      157.676     315.2266      1.623     3.15     870.6457     55.56934     831.2247        36     1.362     1.217 -81.08   0
       194    519.2751    713.1505 307.7007134  +6.3949262     832.8136     1261.223      1007.36     79.02577     157.7386     315.2893      1.576     5.71     871.8889     55.56934      121.926        11     1.196     0.769 -33.78   0
       195    608.6072    712.4939 307.6636405  +6.3981937     1491.014     2211.091     2612.752     78.64976     157.3623     315.0384      1.755     3.05     871.2925     55.56934     229.7975        13     1.013     0.857 -75.32   0
       196    998.7546    708.4943 307.5017619  +6.4129000     2520.407     3894.378     4104.625     78.90063     157.6133     315.3833      1.654     3.46      863.457     55.56934     360.4434        21     1.303     1.005 -71.80   0
       197    635.6909    708.7084 307.6525213  +6.4006647     2017.785     3057.756     3571.242     79.02577     158.1765     315.3519      1.668     3.61     870.8979     55.56934     279.8547        18     1.179     0.974 -68.78   0
       198    124.7369    708.8197 307.8646852  +6.3834494     3664.437      5516.97     5748.936     78.64975      157.676     315.1012      1.601     3.37     876.0524     55.56934     523.9438        23     1.252     1.065 -86.80   0
       199    310.8318    708.9908 307.7874076  +6.3896420     660.9804      1050.25     739.3937     78.52402     157.4879     315.1012      1.557     3.86     875.2585     55.56934     100.0181         6     0.909     0.470 -56.86   0
       200    778.6664    705.1324 307.5932698  +6.4069300     19871.45     29978.09     31788.08     79.02577      157.676     315.2893      1.606     3.13     868.6931     55.56934     2715.301        50     1.418     1.252 -83.44   0
       201    908.6597    704.9858 307.5392932  +6.4113385      3787.71     6009.354     6328.058     78.39807     157.6133     315.0071      1.706     3.23     865.9958     55.56934     538.6721        27     1.299     1.133  48.67   0
       202    477.6692    705.4770 307.7182486  +6.3966983       1304.9     2077.713     2365.607     79.15071     157.8013     315.2266      1.756     3.66     872.2913     55.56934     220.6373        13     1.208     0.767  71.01   0
       203    506.1844    705.4134 307.7064098  +6.3976817     927.2858     1365.754      1409.03     78.77529     157.3623     315.1952      1.546     2.92     871.9148     55.56934     159.7137         8     0.938     0.567 -69.22   0
       204    279.9734    704.8612 307.8003605  +6.3903094     523.8491      649.991     374.9787     78.64976      157.676     315.1639      1.365     3.88     875.4538     55.56934     81.90704         6     0.950     0.455 -37.22   0
       205    252.2393    698.7860 307.8120817  +6.3918849     5889.408     9162.918     9538.081     78.52402     157.4879     315.0071      1.628     3.33     875.1524     55.56934      809.332        34     1.388     1.187 -67.81   0
       206     87.7550    700.8112 307.8803116  +6.3855101     473.1631     570.1194     401.7047     78.52402     157.5506     314.9757      1.123     3.46     876.2276     55.56934     93.04053         5     0.996     0.348 -42.51   0
       207    659.1875    697.8787 307.6431284  +6.4059239      6700.57     10363.19     11192.24     78.64975     157.3623     315.1012      1.654     3.40     870.3184     55.56934     874.9426        35     1.355     1.197  88.00   0
       208    641.8243    699.5214 307.6502834  +6.4046637     761.8161     1217.556     1921.182     78.64976     157.4879     315.2579      1.442     3.38     870.6434     55.56934     147.6165         5     0.765     0.434 -23.07   0
       209    918.9723    690.6799 307.5354905  +6.4175904     1130.823     1745.927     1870.321     78.90063     157.6133     315.2579      1.566     3.70     865.2755     55.56934     153.4995        11     1.088     0.677 -49.59   0
       210    730.9268    686.5706 307.6137180  +6.4129963     3658.069     5888.601     6198.987     78.90063      157.676     315.2266      1.732     3.46     868.6749     55.56934     522.5752        29     1.319     1.185 -89.19   0
       211    686.1954    686.8502 307.6322839  +6.4113826     1122.399     1667.451     1911.474     78.39807     157.4879     314.8816      1.810     3.89     869.5237     55.56934     154.8084        13     1.077     0.834 -73.54   0
       212    997.2057    682.9811 307.5032603  +6.4233832     8748.357      13435.2        14839     78.64976     157.2995     315.0698      1.651     3.29     862.9844     55.56934     1112.365        38     1.370     1.191 -88.28   0
       213    935.6785    683.4346 307.5287959  +6.4211405     2401.413     3480.225     3794.831     78.90063     157.7386     315.2893      1.574     3.48     864.4857     55.56934     322.2016        18     1.234     0.934 -64.47   0
       214     16.5005    682.8217 307.9105066  +6.3905357     1823.828     3044.658     3927.236     79.02577     157.4251     315.0384      1.993     3.64     876.9323     55.56934     237.7571        18     1.157     1.024  86.96   0
       215    433.7186    680.8887 307.7373275  +6.4053753     622.2427     909.9286     912.2924     78.77529     157.8639     315.3519      1.513     4.25     872.7202     55.56934     93.43304         6     0.795     0.648 -19.29   0
       216     74.5474    677.6967 307.8865775  +6.3946088     25187.05     38874.37     40945.65     78.90063      157.676     315.5086      1.698     3.32     876.1029     55.56934     3319.923        59     1.473     1.355 -85.09   0
       217    535.8439    678.6813 307.6949939  +6.4097149      2005.88     2931.796     3359.861     79.02577      157.676     315.2266      1.546     3.29     871.2219     55.56934     311.5306        17     1.153     0.912 -74.04   0
       218    504.5315    675.9021 307.7080902  +6.4098117     1321.669      2076.11     2512.161     79.02577     157.8013     315.2266      1.774     4.04     871.3732     55.56934     167.2357        15     1.149     0.913 -86.31   0
       219    925.4272    675.0637 307.5333338  +6.4242544     999.4398     1402.738      1605.01     78.64975      157.676     315.1639      1.535     4.09     864.5156     55.56934     143.1777        11     1.022     0.750 -21.84   0
       220    544.9850    672.3352 307.6914116  +6.4126420     1007.317     1521.488      1418.27     78.52402     157.5506     315.1639      1.651     4.17     871.0662     55.56934      129.364        10     0.945     0.746  84.63   0
       221    720.5651    670.1087 307.6185741  +6.4194467     3505.719     5445.107     5787.224     79.15071     157.5506     315.2893      1.686     3.32     868.1813     55.56934     482.6203        24     1.283     1.086 -68.44   0
       222    742.6652    668.3660 307.6094552  +6.4209063     4134.353     5994.473     6202.313     78.90063      157.676     315.2579      1.566     3.25     867.7519     55.56934     553.3207        26     1.289     1.071 -87.59   0
       223    574.0323    666.2097 307.6795556  +6.4161456     3322.265     4709.133       4208.8     78.52402     157.4251     315.1012      1.491     3.50      870.754     55.56934     453.7852        24     1.317     1.051  79.01   0
       224    410.2546    666.9733 307.7475401  +6.4103329      1298.78     1899.124     1802.262     78.64975     157.7386     315.1012      1.527     3.36     872.7996     55.56934      205.549        15     1.175     0.810 -53.19   0
       225    234.5110    665.8989 307.8205537  +6.4048675     1673.077     2574.884     2944.065     79.02577      158.114     315.2266      1.655     3.52     874.1681     55.56934     240.2861        20     1.206     1.042 -42.92   0
       226   1015.3921    664.4512 307.4963289  +6.4316419      4996.49     7594.075     7510.692     78.52402     157.5506     314.9443      1.649     3.31     862.0499     55.56934     619.1812        33     1.362     1.174  71.56  16
       227    318.1079    665.3069 307.7858604  +6.4079240     1534.208     2441.316     2603.987     79.02577     158.1765     315.2579      1.681     4.15     874.0278     55.56934     233.4172        15     1.166     0.896 -68.05   0
       228    980.7715    663.3582 307.5107429  +6.4309370     8157.801     12231.56     12886.64     78.64976     157.6133     315.1325      1.619     3.18     862.8408     55.56934     1109.088        36     1.341     1.178  74.82   0
       229    700.8339    662.1635 307.6270350  +6.4220665     980.8982     1440.879     1570.193     78.77529     157.4251     315.0071      1.523     4.90     868.4584     55.56934     136.0345         9     1.145     0.774 -68.55   0
       230    139.2865    656.5945 307.8604093  +6.4055032     23785.54     36823.64     38787.14     78.52402     157.3623     314.9757      1.688     3.35     875.1339     55.56934     3068.788        58     1.466     1.342 -82.78   0
       231     92.0469    660.0852 307.8799069  +6.4024703     891.1389      1159.49     1243.343     79.02577     157.6133     315.2579      1.433     4.00      875.504     55.56934     155.5778         8     0.928     0.752  68.51   0
       232    426.1358    657.6392 307.7412600  +6.4147205     2820.247     4332.001     4814.523     79.02577     157.6133     315.2893      1.702     3.77     872.3027     55.56934     395.0789        21     1.211     1.093 -77.88   0
       233    807.2479    657.1563 307.5830121  +6.4276967     1145.017     1927.427     1966.021     79.02577     157.6133     315.1952      1.863     4.22     867.1635     55.56934     154.6129        15     1.162     1.060 -57.55   0
       234    359.2256    652.1445 307.7692302  +6.4147411     524.6863     742.1598     1128.279     78.64975      157.676     315.0698      1.429     3.09     872.8892     55.56934     109.2841         5     0.921     0.341 -44.54   0
       235    975.7765    646.3470 307.5133876  +6.4377945     6706.013     11073.85      12447.9     78.52402      157.676     315.0698      1.824     3.46     862.4926     55.56934     848.8441        44     1.526     1.348  45.18   0
       236     20.4488    645.6030 307.9101268  +6.4060362     1153.808     1781.682     1196.399     78.39808     157.4251     314.8502      1.545     3.51     876.4913     55.56934     179.3681        11     1.124     0.692 -39.23   0
       237    569.3032    641.5089 307.6823509  +6.4261863     48052.53     72619.38     77019.29     79.02577     158.1765     315.2579      1.686     3.22     869.9037     55.56934     6472.008        78     1.490     1.396 -88.47   0
       238    212.6543    643.1636 307.8303976  +6.4135193     618.3397     1119.211     1493.945     78.90063      157.676     315.2893      2.357     4.13     874.0076     55.56934     86.24683         6     1.239     0.394 -59.26   0
       239    934.1612    643.4554 307.5307669  +6.4375980     592.7878      701.549     558.6614     79.02577     157.7386     315.2579      1.326     3.25     863.6014     55.56934     102.3191         5     0.741     0.453  20.76   0
       240    528.3359    641.7761 307.6993544  +6.4247016     781.2388     1180.491     1168.892     78.64976      157.676     315.1952      1.604     5.04     870.4561     55.56934     114.6675         9     1.081     0.666 -46.79   0
       241    176.7842    638.2110 307.8454599  +6.4143566     2879.876     4578.481     4828.013     78.77529     157.3623     315.1639      1.685     3.43     874.4513     55.56934     396.3694        24     1.239     1.123 -46.81   0
       242     69.6104    632.0498 307.8901716  +6.4132898      1360.54      2111.51     2591.066     78.52402     157.5506     314.9443      1.690     4.79     875.3198     55.56934     169.3721        16     1.243     0.933 -65.79   0
       243    466.5503    625.2449 307.7255691  +6.4294536     61646.05     93633.27      98938.3     79.02577     157.5506     315.2579      1.663     3.20     871.1713     55.56934       7835.8        83     1.501     1.399  88.98   0
       244     10.3190    626.6748 307.9149737  +6.4135099     1591.428     2508.266     2957.785     79.27546     157.9265     315.3206      1.722     4.39     876.3991     55.56934     195.7946        16     1.223     0.959 -41.02   0
       245    652.8167    622.5575 307.6483073  +6.4368115     932.7414     1283.421     1367.069     78.52402     157.4879     315.0384      1.478     6.30     868.0811     55.56934     121.7039        13     1.207     1.040  51.05   0
       246    141.1670    620.4368 307.8608507  +6.4204960     1601.758     2344.989     2423.645     78.64976     157.4251     315.0071      1.650     4.12     874.4113     55.56934      246.579        15     1.201     0.890 -72.53   0
       247    420.3804    618.2233 307.7449788  +6.4308023     843.6937      1127.36     869.1288     78.77529     157.4879     315.1952      1.613     5.05     871.3712     55.56934     124.4187        10     0.989     0.764  -2.50   0
       248    612.5774    617.2066 307.6651980  +6.4376721     944.0591     1304.829     1219.492     78.52402     157.4879     315.1012      1.404     3.66     868.1885     55.56934     138.4525         8     0.878     0.677 -37.98   0
       249    312.0180    614.7761 307.7900945  +6.4285836     1916.554     3140.074     3346.079     78.64975     157.5506     315.1639      1.775     3.55     871.9102     55.56934     258.2802        19     1.176     1.012 -77.31   0
       250     12.5934    615.7485 307.9143991  +6.4180980     539.2613      850.463     1753.836     78.52402     157.4879     314.8816      1.659     4.46     876.1802     55.56934     95.95746         7     1.152     0.491 -88.69   0
       251    464.4901    613.0018 307.7268372  +6.4344397      876.547     1466.229     1784.437     78.27193     157.3623     315.0071      1.780     5.04     871.0385     55.56934     131.0826        12     1.211     0.969  31.45   0
       252    738.5483    608.8543 307.6131648  +6.4453418     5315.741     8038.593     8833.879     79.15071     157.6133     315.2893      1.646     3.13     866.9752     55.56934     760.1394        32     1.286     1.217  83.12   0
       253    792.1473    604.1576 307.5910633  +6.4490754     13924.86      20897.2     22455.76     79.02577     157.7386     315.2892      1.594     3.13     866.5175     55.56934     1931.939        48     1.416     1.257 -81.96   0
       254   1009.7554    604.8782 307.5006663  +6.4560527     918.8548     1216.114     1250.694     78.90063      157.676     315.2579      1.436     4.99     860.1263     55.56934     123.3675        10     0.934     0.803  25.36   0
       255    534.4489    604.1329 307.6980835  +6.4404500     1219.065     2065.689     2290.722     78.90063     157.6133     315.2893      1.785     4.05     869.3587     55.56934     162.2473        15     1.110     0.980 -21.71   0
       256    615.9604    602.2558 307.6642962  +6.4439590      3019.12     4453.468     4926.351     79.02577     157.7386     315.2266      1.583     3.07     867.6121     55.56934      432.814        24     1.222     1.081 -60.44   0
       257     37.1781    603.6935 307.9045984  +6.4239046     719.4973     878.4714     1166.956     79.02577     157.4879     315.0698      1.581     4.40      875.493     55.56934     105.8348         8     0.934     0.729 -78.73   0
       258    933.0197    598.5726 307.5327465  +6.4560929     1219.583       1812.7     1868.076     78.64975     157.4879     315.1639      1.540     3.35     862.6343     55.56934     182.6035        13     0.979     0.917  33.80   0
       259    374.6695    595.9496 307.7647124  +6.4384633     1005.285     1465.671     1058.631     78.90063     157.6133     315.2893      1.577     6.15     870.7986     55.56934     112.4682        13     1.116     0.952  55.90   0
       260    228.7937    596.0112 307.8252883  +6.4335318     1190.129     1977.423     1728.017     78.64976     157.4879     315.1639      1.761     4.02     872.7419     55.56934     180.2747        14     1.166     0.851  60.28   0
       261    191.9820    597.3263 307.8405305  +6.4317496     638.9144     1100.728     1197.488     78.52402     157.6133     315.1639      1.612     4.26     873.3951     55.56934     91.22656         7     0.768     0.673 -23.81   0
       262    868.2602    587.3433 307.5600182  +6.4585647     2853.619     4148.896     4628.736     79.15071      157.676     315.2893      1.614     3.30     863.6713     55.56934     425.3095        21     1.171     1.046 -67.91   0
       263    163.5081    587.5442 307.8526852  +6.4348298     731.2888     1018.153     1021.896     78.90063     157.5506     315.3833      1.685     6.62     873.6285     55.56934     115.2789         9     1.206     1.021  74.89   0
       264    826.9563    584.9169 307.5772533  +6.4581850     2553.229     3901.419     4172.977     79.02577      157.676     315.2266      1.591     3.28     864.8835     55.56934     359.0447        20     1.140     1.035 -76.50   0
       265    807.5569    576.0109 307.5856090  +6.4612134     156500.8     236221.8     251263.9     78.52402     157.4879     314.9757      1.626     3.17     865.1299     55.56934     21813.42       129     1.566     1.452  80.33   0
       266    798.1065    580.7125 307.5893759  +6.4589557     2449.668     4063.098     5247.423     79.02577      158.114     315.3206      2.004     3.62     865.5556     55.56934     354.1229        24     1.335     1.062 -40.34   1
       267    254.9391    579.6757 307.8149827  +6.4411566     7604.295     11740.97     12010.53     79.27546      157.676     315.2579      1.654     3.37     871.5774     55.56934     1049.311        36     1.380     1.224 -88.94   0
       268    189.1809    574.2025 307.8424751  +6.4412031     55718.25     88933.06        95795     78.64975     157.2367     315.0071      1.720     3.41      872.683     55.56934     7302.601        87     1.590     1.446 -69.71   0
       269    737.3316    576.8486 307.6147458  +6.4585167     712.1369     1237.976      1905.81     79.02577     157.6133     315.2579      2.322     3.85     866.0645     55.56934     142.1202         6     1.063     0.399  75.33   0
       270    113.1493    570.4420 307.8741757  +6.4401948     6153.129      9560.24      10161.2     79.15071      157.676     315.2579      1.669     3.48      873.978     55.56934     825.5716        34     1.368     1.208 -84.77   0
       271    978.6072    567.8940 307.5148424  +6.4702839     1233.773     1886.593     1534.952     78.64975     157.3623     315.0698      1.502     4.25     859.9009     55.56934     185.1412        13     1.207     0.762 -36.71   0
       272    999.7719    566.7501 307.5060907  +6.4714632     714.7091     1114.516     587.1215     78.64976     157.8013     315.1639      1.756     6.54     859.1172     55.56934     96.32416        11     1.200     1.000 -55.53   0
       273    227.5847    565.9665 307.8268053  +6.4458966     819.8635     1175.228     1402.609     78.64975     157.4251     315.1325      1.579     5.43     871.3824     55.56934     116.9152        10     1.131     0.822 -80.12   0
       274    844.1792    563.4629 307.5708209  +6.4676199     4458.955     6583.393     6749.903     78.64976      157.676     315.1325      1.570     3.21     863.8486     55.56934     633.9922        24     1.216     1.051 -71.92   0
       275    362.6204    561.3578 307.7708831  +6.4523415     16611.17      25568.9     26759.21     78.52402     157.4879     315.1012      1.668     3.26     869.8916     55.56934     2183.178        49     1.398     1.309 -89.77   0
       276    452.4916    561.6454 307.7335508  +6.4552423     645.1992     797.3317     505.1041     79.02577     157.6133     315.3833      1.454     4.75     869.6326     55.56934     99.97479         7     0.924     0.693 -20.19   0
       277    164.6234    560.5241 307.8531354  +6.4460239     1847.135     3006.104     3926.229     78.64976     157.5506     315.1952      1.922     4.02     872.9635     55.56934     235.8594        21     1.276     1.097  80.13   0
       278    240.0177    558.4465 307.8218961  +6.4494200     909.9363     1554.758     2106.592     78.52402     157.6133     315.0071      1.970     4.72     870.8779     55.56934     122.8472        10     1.013     0.758 -68.21   0
       279    797.9875    556.6365 307.5902341  +6.4688931      5808.75     8768.571     9756.704     78.52402     157.4879     314.9757      1.623     3.37     864.5888     55.56934     807.1211        31     1.334     1.148  84.25   0
       280    528.9865    556.2860 307.7019634  +6.4600231     6286.098     9724.719     10134.41     78.64975     157.4879     315.1639      1.629     3.29     867.9893     55.56934     836.8414        34     1.344     1.198 -66.89   0
       281    101.8793    557.5187 307.8792928  +6.4451510     909.3658     1309.101     1139.984     79.15071     157.9265     315.4146      1.562     4.88     874.0923     55.56934     129.8766        10     1.120     0.664 -78.61   0
       282    387.1985    553.2891 307.7609482  +6.4564992      1281.36      1878.73     1480.574     78.27193     157.2367     315.0384      1.410     3.63     869.6036     55.56934     199.1537        11     1.057     0.815 -67.47   0
       283    176.0717    549.4326 307.8487561  +6.4509892     6534.372     10126.29     11085.05     78.90063      157.676     315.2266      1.680     3.40      872.301     55.56934     931.8277        35     1.416     1.173 -59.08   0
       284    573.7993    549.3775 307.6835853  +6.4643792     2365.912     3818.585     3621.184     78.64976     157.3623     315.0071      1.731     4.30     866.8354     55.56934     338.9121        24     1.338     1.109 -46.11   0
       285    814.9586    549.1768 307.5834363  +6.4725413     1337.826     2194.897     2265.098     78.64976     157.4879     315.0384      1.584     5.02     863.9921     55.56934     218.4556        13     1.269     0.780 -13.56   0
       286    271.1745    545.8600 307.8093823  +6.4556654     83153.82     130989.2     139622.8     78.64975      157.676     315.1325      1.695     3.35     870.0961     55.56934     10835.96       104     1.572     1.466 -87.78   0
       287     47.5677    548.0742 307.9021663  +6.4472198      4873.58     8003.101     7974.862     78.90063      157.676     315.2266      1.777     3.42     874.5584     55.56934     591.2646        36     1.440     1.286  79.90   0
       288    560.7045    543.4967 307.6892216  +6.4663682     862.4004     934.1871     1458.787     79.02577      158.239     315.1012      1.413     3.68     866.8693     55.56934     138.4945         9     0.987     0.787 -57.83   0
       289    255.0072    541.0963 307.8162573  +6.4570884     971.3859     783.4518     952.4944     78.77529     157.2995     315.0384      0.745     3.41     870.0899     55.56934     211.1088        15     1.187     0.804 -59.87   0
       290    794.3119    538.4028 307.5923731  +6.4762992     16044.59     24209.76     25639.92     78.39807     157.2995     315.0071      1.651     3.18     864.0134     55.56934     2247.694        48     1.425     1.259  85.56   0
       291    497.9546    536.7327 307.7155097  +6.4670554     39233.59     64990.28     70731.63     79.02577     157.6133     315.2893      1.806     3.45     868.1013     55.56934     4817.401        87     1.613     1.568  34.89   0
       292    970.5989    539.4714 307.5191215  +6.4817526     1552.655      2350.87      2359.19     78.39808     157.2367     315.1012      1.640     3.97     859.2134     55.56934     209.3087        15     1.245     0.869  74.37   0
       293    648.8030    535.5015 307.6529027  +6.4726236     805.6439     1236.536     929.1577     78.77529     157.4251     314.9443      1.604     3.35     865.8339     55.56934     119.2035         8     0.870     0.659 -58.76   0
       294    668.0214    532.1043 307.6450353  +6.4746704     1409.669     2069.354     2392.292     78.90063     157.4879     315.0698      1.669     4.01     865.6988     55.56934     207.9905        14     1.159     0.868  88.98   0
       295    657.8540    531.8493 307.6492665  +6.4744350     2884.909     4429.509     4749.466     79.02577      157.676     315.2892      1.633     3.56     865.7226     55.56934      335.647        27     1.373     1.095 -75.04   0
       296    210.5177    533.3773 307.8349938  +6.4587781     1815.211     2821.896     3073.326     78.77529     157.3623     315.1639      1.695     3.84     870.7828     55.56934     232.2034        16     1.135     0.967 -44.71   0
       297     46.0120    533.3287 307.9033113  +6.4532556     1142.927     1605.073     1731.137     78.52402     157.2995     315.0698      1.471     4.01     874.4059     55.56934     173.0836        14     1.180     0.958  49.32   0
       298     96.5236    533.0827 307.8823434  +6.4550600     616.7478     944.0935     533.5654     79.15071      157.989     315.3833      1.574     4.31     873.8698     55.56934     100.8118         6     1.085     0.487 -32.86   0
       299    719.9555    530.7220 307.6235128  +6.4769811     1357.794     1963.462     2222.028     78.90063      157.676     315.2579      1.648     4.95     865.0376     55.56934     184.3468        15     1.230     0.859 -88.24   0
       300     77.5252    529.6478 307.8903492  +6.4558379     589.8578     1129.244     1431.805     78.90063     157.7386     315.2579      2.655     4.95     874.0126     55.56934     97.62427         6     0.979     0.817 -39.10   0
       301    395.4749    527.4374 307.7583830  +6.4674516     1625.813     2791.974     3426.546     78.90063     157.7386     315.2893      1.931     3.80     868.5922     55.56934     232.2781        19     1.181     1.084 -76.23   0
       302    327.1136    525.6441 307.7868338  +6.4658941     3804.971     5782.396     5909.355     79.02577     157.5506     315.2579      1.630     3.48     868.8033     55.56934     511.9228        27     1.277     1.119 -80.40   0
       303    142.2671    524.1506 307.8636491  +6.4602894     24288.87     38549.61     41007.01     78.90063     157.5506     315.2893      1.701     3.42     872.4667     55.56934     3087.037        62     1.509     1.365  86.39   0
       304    507.1518    525.3887 307.7120722  +6.4720481     1944.967     2937.194     3356.849     78.39807     157.5506     314.9443      1.585     3.22     867.2875     55.56934     288.7168        17     1.136     0.930 -43.68   0
       305    870.2104    524.4650 307.5613189  +6.4845935     1564.141     2084.696     1765.138     78.52402     157.4879     315.1639      1.460     3.32     862.2043     55.56934     235.4983        15     1.033     0.948  68.17   0
       306    107.4459    522.6151 307.8781617  +6.4597501     2700.872     4127.425     4151.989     78.39808     157.4879     315.0071      1.655     3.57     873.3655     55.56934     339.2897        22     1.232     1.067 -84.84   0
       307    344.2153    520.8199 307.7798943  +6.4684611     879.9368     1254.702     1515.627     78.77529     157.4251     315.1639      1.638     4.33     868.4844     55.56934     138.0366        10     1.138     0.733 -76.46   0
       308    967.7761    518.9488 307.5209821  +6.4901325     5001.932     7480.298     7614.329     78.64975      157.676     315.1639      1.586     3.26     858.7904     55.56934     627.5984        31     1.370     1.155 -72.93   0
       309    540.9169    511.4412 307.6985191  +6.4789403     1411.508     2246.422     1840.909     79.02577      157.676     315.1952      1.600     3.97      866.146     55.56934     190.0613        14     1.134     0.882 -73.74   0
       310      6.5573    508.5073 307.9205361  +6.4621735     24811.29     38058.55     40387.16     79.02577      157.676     304.2197      1.710     3.33     874.7969     55.56934       3136.5        63     1.491     1.372 -85.81  16
       311    439.2840    505.3999 307.7409320  +6.4780228     40303.12     63157.27     67047.03     78.27193     157.1738     314.9129      1.703     3.29     867.2706     55.56934     5593.466        71     1.485     1.384 -77.57   0
       312    765.0880    507.8467 307.6055372  +6.4879380     6288.706     6415.753     6325.942     79.02577     157.5506     315.3206      0.515     0.89     863.8033     55.56934     4232.489         8     0.457     0.383  72.78   0
       313    647.2556    505.0635 307.6545694  +6.4851400     11889.92     18024.08     19267.63     79.15071      157.676     315.2579      1.610     3.22     865.1396     55.56934     1557.586        46     1.427     1.257  86.29   0
       314    287.4151    505.3240 307.8040065  +6.4729492     984.7018      1678.53     1833.953     78.52402     157.4251     315.1325      2.016     5.65     868.0852     55.56934     127.9637        14     1.246     1.019 -82.35   0
       315    204.4295    502.9232 307.8385513  +6.4711477     18179.05     30107.58     31991.54     78.90063     157.7386     315.2893      1.809     3.54     870.5028     55.56934     2188.383        61     1.559     1.417  62.67   0
       316    821.1318    503.1060 307.5824198  +6.4917713     888.9238     1352.756     839.4282     78.90063     157.8639     315.2892      1.569     6.33     862.6412     55.56934      137.546        12     1.439     0.998 -75.55   0
       317    170.0299    504.0367 307.8527996  +6.4695296     1638.723     2647.207     2667.534     78.64976     157.4251     315.1012      1.694     4.13     871.0909     55.56934     241.4922        19     1.176     1.122  86.18   0
       318    981.0379    503.2555 307.5160003  +6.4970556     1082.073     1636.009     1992.751     79.02577     157.7386     315.2893      1.677     4.60     858.0449     55.56934      143.749        13     1.124     0.905 -56.63   0
       319    910.2625    503.1363 307.5453999  +6.4947397     758.2288     1063.644     1220.183     79.02577      157.676     315.2892      1.364     4.13     860.0244     55.56934     115.7812         7     0.864     0.596 -53.86   0
       320    569.0630    501.8817 307.6871514  +6.4838318     2714.168     4048.614     3714.918     79.15071     157.7386     315.2579      1.584     3.39     865.5477     55.56934     372.7717        22     1.202     1.055  77.15   0
       321    943.0193    499.1234 307.5319294  +6.4974916     4674.667     7025.537     7448.633     78.64976     157.3623     315.2266      1.543     3.11     858.8635     55.56934     640.4357        31     1.272     1.188  85.59   0
       322    616.1268    497.4981 307.6677524  +6.4872203     6196.702     9203.922     9713.156     78.64975     157.8013     315.2266      1.567     3.01     864.9957     55.56934     906.3477        31     1.295     1.123 -75.93   0
       323    103.8641    498.1769 307.8804757  +6.4697199     1109.813      1679.33     1727.583     78.64975      157.676     315.1325      1.641     4.13     872.8161     55.56934      136.223        14     1.073     0.934 -59.27   0
       324    215.0171    498.3998 307.8343071  +6.4733718     462.0248     895.7458     1129.495     78.64975     157.2367     314.9443      2.111     3.91     870.2664     55.56934     66.30945         5     0.896     0.489   2.26   0
       325    965.6403    491.2953 307.5227966  +6.5014798     3469.826     5153.148     5476.141     79.02577     157.6133     315.3833      1.617     3.40     858.0981     55.56934     420.3469        22     1.205     1.063  53.96   0
       326    528.3176    488.7182 307.7045171  +6.4879001     7302.775     11178.16     11560.77     78.77529     157.9265     315.3519      1.637     3.35     865.4432     55.56934     935.3057        32     1.324     1.170 -75.42   0
       327    744.0934    489.3172 307.6148796  +6.4948861     632.6757     986.5027     1790.175     78.77529      157.989     315.3833      2.446     6.60      863.698     55.56934     84.82819         7     1.245     0.980 -83.30   0
       328    404.6261    490.4141 307.7558311  +6.4830462     668.5233     720.8791     1212.745     78.77529     157.4879     315.1952      1.266     3.68      867.023     55.56934     107.5654         6     0.849     0.529  47.18   0
       329    374.3444    488.9363 307.7684573  +6.4826388     2668.533     4023.271      3760.24     79.15071      157.676     315.2579      1.596     3.57     866.9958     55.56934      323.324        20     1.148     1.081 -79.52   0
       330    884.8040    484.6455 307.5565943  +6.5015237     3255.803     4883.165     5317.429     78.39807     157.3623     314.9443      1.605     3.24      860.275     55.56934      454.833        22     1.202     1.015 -79.93   0
       331    537.5615    485.2228 307.7007956  +6.4896536     803.8159     1194.286     1338.242     78.64976     157.4251     315.0698      1.713     4.96     865.2662     55.56934      116.998         8     0.871     0.800 -25.90   0
       332    232.7963    484.0952 307.8274067  +6.4798767     700.6443     899.0186      692.312     78.77529     157.3623     315.0071      1.353     5.25     869.6558     55.56934     94.34113         9     1.136     0.686 -12.30   0
       333    931.9301    478.3495 307.5372322  +6.5056989     1326.247     2094.742     2398.337     78.90063     157.6133     315.2893      1.642     3.66     858.4253     55.56934     180.3271        13     1.058     0.891  55.00   0
       334    892.2948    479.1967 307.5536660  +6.5040241     2237.688      3252.57     3526.996     78.77529     157.3623     315.0071      1.542     3.20     859.8114     55.56934     309.5503        20     1.145     1.044 -77.59   0
       335    110.5075    477.8671 307.8784037  +6.4783296     690.9595     1274.502     927.5412     78.90063     157.8639     315.2893      1.900     5.79     872.0442     55.56934     104.8234         8     1.316     0.785  80.20   0
       336    716.1611    474.9616 307.6269634  +6.4998783     2997.771     4613.271     4490.514     78.77529     157.5506     315.1325      1.629     3.32     863.6427     55.56934     402.4525        21     1.202     1.011 -46.80   0
       337     77.9599    474.0266 307.8920505  +6.4788182     1774.954     2839.375         2361     78.64976     157.4879     315.0698      1.645     3.77     872.8229     55.56934     256.1901        18     1.271     0.929  86.38   0
       338    387.0165    473.1233 307.7637278  +6.4895939     3526.601     5625.416      6070.37     78.52402     157.4251     315.1325      1.718     3.31     866.1868     55.56934     489.2883        27     1.307     1.143 -88.73   0
       339    426.9896    473.4785 307.7471143  +6.4907904     1038.668     1440.617     1616.374     78.64975     157.3623     315.1012      1.541     4.89      865.915     55.56934     172.1296        12     1.162     0.867  68.52   0
       340    614.7854    469.6081 307.6692482  +6.4986914     9941.565     14846.68     15724.41     78.64976     157.4251     315.1012      1.638     3.26     864.0828     55.56934     1416.038        40     1.412     1.229  77.69   0
       341    777.7086    465.9664 307.6017027  +6.5056535     15437.42      24026.8     26872.87     79.15071     157.5506     315.2893      1.732     3.95      862.352     55.56934     2177.747        58     1.951     1.286 -51.10   0
       342    297.2760    466.5435 307.8012205  +6.4892934     2535.023     4026.098     4226.761     79.02577     157.6133     315.1952      1.707     3.55     866.1888     55.56934     378.1658        21     1.205     1.065  87.64   0
       343    806.7653    463.5833 307.5897143  +6.5076101     1220.723     1719.413     1121.863     78.64976     157.4879     315.1012      1.395     3.40     861.7721     55.56934     174.2413        13     1.173     0.695 -39.67   0
       344    380.0881    463.2147 307.7669396  +6.4934524     1520.382     2214.649     2198.823     78.77529     157.4879     315.1325      1.559     3.47     865.6438     55.56934     221.9392        16     1.073     1.009 -65.58   0
       345    962.6353    461.0435 307.5250594  +6.5138710     1896.031     2944.781     3172.196     78.77529      157.676     315.1012      1.666     3.96     857.2255     55.56934     267.6322        19     1.283     1.038  86.96   0
       346    368.8331    459.1624 307.7717507  +6.4947473     779.1001      988.534     982.3756     78.77529     157.4251     315.0384      1.427     4.62     865.4847     55.56934     106.6912         8     0.859     0.704  43.32   0
       347    114.9124    458.0647 307.8772442  +6.4866543     4431.877     6914.176     7605.746     79.02577     157.8639     315.2892      1.677     3.27     871.2769     55.56934      579.181        27     1.232     1.186 -54.03   0
       348   1016.7279    456.0721 307.5027586  +6.5177306     3956.463     6739.715     6952.204     79.27546     157.8013     314.7874      1.831     3.92     855.4709     55.56934     443.8605        35     1.571     1.224  30.23  16
       349    753.1343    457.2389 307.6122027  +6.5084345     2193.973     3256.234     3070.194     78.90063     157.6133     315.3519      1.558     3.26     862.3176     55.56934     296.9597        18     1.119     0.953 -63.12   0
       350    272.6600    455.1953 307.8118271  +6.4931510     1273.441     2373.158      3039.42     78.39807     157.5506     315.0384      1.994     4.84     866.4254     55.56934     169.5568        19     1.296     1.173 -74.44   0
       351    350.8629    452.9105 307.7794251  +6.4967246     3141.824     5051.938     4846.318     79.02577     157.8013     315.3206      1.680     3.40     865.2946     55.56934     425.7977        26     1.283     1.187 -84.76   0
       352    706.7296    451.1398 307.6316817  +6.5093987     1611.185     2666.094     2999.906     79.15071      157.676     315.2893      1.775     4.73     862.5615     55.56934     212.2284        17     1.369     0.961 -64.32   0
       353    239.0136    448.8760 307.8260144  +6.4946279      837.386     1257.517     1185.967     78.64976     157.4251     315.0698      1.552     3.45     867.7737     55.56934       144.42         7     0.961     0.628 -30.27   0
       354    548.2919    443.7906 307.6977345  +6.5071213     907.0485     1361.643     1029.246     78.64976     157.3623     315.0071      1.556     2.63     863.0502     55.56934     195.2193         8     0.890     0.587 -71.15   0
       355    470.6297    441.7090 307.7300604  +6.5053739     1286.324      1930.97      1740.19     79.15071     157.4251     315.1952      1.641     4.69     863.5885     55.56934     176.0406        16     1.289     1.058 -26.56   0
       356    833.1036    440.9510 307.5795350  +6.5178366     1401.962     1882.535     1513.246     78.90063     157.6133     315.4146      1.424     3.91     860.0657     55.56934     212.0332        15     1.162     0.974   3.79   0
       357    818.6049    440.0096 307.5855887  +6.5177402     1811.198     2908.104     2737.429     78.52402     157.4251     315.1012      1.682     3.57     860.4622     55.56934     247.8204        19     1.170     1.031 -51.10   0
       358    715.9630    437.9769 307.6282892  +6.5151431     14618.94     22167.54     23622.96     78.64976     157.4251     315.0384      1.586     3.19     861.8359     55.56934     1988.549        45     1.368     1.283  76.98   2
       359    618.5776    439.9531 307.6686713  +6.5110634     883.2862      1136.68     1215.405     78.64975      157.676     315.1325      1.417     4.14      862.599     55.56934     123.4961        10     1.009     0.700  31.10   0
       360    637.2198    434.2065 307.6611218  +6.5140613     2578.022     3974.784     3990.168     78.64975     157.4251     315.0698      1.609     3.41     862.1873     55.56934      340.649        20     1.232     0.972 -75.17   0
       361    631.5973    433.9291 307.6634664  +6.5139873     601.8242     1023.379     1031.022     78.52401     157.2995     315.1012      1.642     4.80     862.2197     55.56934     108.4492         7     1.176     0.556 -65.52   0
       362    612.3367    431.3425 307.6715532  +6.5144096     4622.354     6412.056     7632.596     79.15071     157.6133     315.2893      1.468     3.14     862.2042     55.56934     690.8096        18     1.307     0.768 -42.08   3
       363    608.4544    428.5166 307.6732608  +6.5154462     14785.85     23688.79     25820.96     79.02577      157.676     315.3833      1.773     4.05     862.1304     55.56934     1877.357        50     1.564     1.374  28.84   2
       364    941.1453    427.8885 307.5350976  +6.5268431     3720.215     5678.296     5733.986     79.02577     157.5506     315.3833      1.607     3.37     857.0287     55.56934     452.5706        28     1.271     1.190  68.50   0
       365    380.3740    423.7171 307.7681533  +6.5097707     27703.63     43322.39      46342.5     78.90063     157.4251     315.2266      1.717     3.46     863.4683     55.56934     3420.236        65     1.499     1.380 -89.45   0
       366    126.4805    423.2952 307.8736158  +6.5014003     2271.859     3678.118     3442.069     78.77529     157.9265     315.3519      1.727     3.50     870.1108     55.56934     286.9175        22     1.200     1.102  89.42   0
       367    896.6110    423.3860 307.5537465  +6.5272136     1458.982     2296.387     3565.303     78.77529     157.4251     315.1952      2.363     3.91     857.8425     55.56934     235.5228        16     1.192     0.995  22.10   0
       368    909.9573    418.3745 307.5483712  +6.5297291     4980.558     7428.135     8082.324     78.64975      157.676     315.1012      1.604     3.23     857.5367     55.56934     689.4127        32     1.265     1.225  38.53   0
       369     59.6844    418.5242 307.9015186  +6.5011186     1421.047     2246.377      2323.73     79.15071      157.989     315.3206      1.790     3.89     871.4178     55.56934      189.152        13     1.017     0.875 -54.07   0
       370    965.7039    416.4303 307.5252813  +6.5323951     796.4713     1114.331     1008.553     79.15071     157.4251     315.2893      1.716     3.70     855.6028     55.56934     130.8546         9     1.013     0.628 -87.38   0
       371    237.9169    414.2502 307.8276397  +6.5088880     13116.37     20850.16     22354.77     79.02577      157.676     315.3206      1.702     3.33     866.1693     55.56934     1730.952        47     1.441     1.316 -68.88   0
       372    961.2159    406.8575 307.5274666  +6.5361979     870.8396     1456.216     1650.211     78.39807     157.6133     315.0071      1.673     6.88     855.5551     55.56934     111.6331        14     1.377     0.964 -59.68   0
       373    732.8738    407.7605 307.6222812  +6.5281863     667.6391     1039.393     1204.484     78.90063      157.676     315.3206      1.843     5.60     860.3609     55.56934     93.31885         8     1.162     0.761 -18.88   0
       374    700.8904    407.2811 307.6355819  +6.5273129     738.3212     1071.523     1446.297     78.77529     157.9265     315.3206      1.627     4.78     860.4622     55.56934      116.649         7     0.997     0.651  85.65   0
       375     73.2931    408.3575 307.8962108  +6.5057753     678.4279     1138.821     1701.249     79.02577      157.676     315.3833      1.835     4.95     870.5394     55.56934     100.2808         7     1.005     0.691   3.99   0
       376   1010.1793    407.4958 307.5071072  +6.5375700     509.7693     812.6686     656.3547     78.90063     157.4879     315.0698      1.453     4.16     853.3924     55.56934      92.0105         5     0.876     0.564 -47.77   0
       377    350.8191    404.1123 307.7810900  +6.5168720     1290.978     1972.514     2065.323     78.77529     157.4251     315.1639      1.596     4.09     863.1016     55.56934     181.0458        16     1.324     0.809 -55.99   0
       378    183.9804    404.5500 307.8503687  +6.5110772      861.486     1140.506      863.831     78.52402     157.7386     315.1012      1.578     5.58     868.3902     55.56934     121.1329        10     1.116     0.788 -53.38   0
       379    138.1293    402.9550 307.8694658  +6.5101912     4760.235     7495.213     7744.983     79.02577      157.676     315.2579      1.671     3.40     869.5205     55.56934     612.6312        31     1.363     1.191 -79.37   0
       380    435.4699    402.3302 307.7459913  +6.5204528     642.9987     871.6355     1024.379     79.02577     157.8013     315.2266      1.464     5.06     861.5506     55.56934     88.66064         7     0.990     0.731 -47.04   0
       381    243.1317    401.9477 307.8258894  +6.5141432      1184.71     1857.402     1649.025     78.90063     157.5506     315.1952      1.620     4.08       865.58     55.56934     164.7325        13     1.069     0.863  84.35   0
       382    824.6718    399.7144 307.5844222  +6.5345817     705.8305     1218.285     870.6409     79.15071     157.9265     315.2893      1.766     4.47     858.7412     55.56934     110.3793         6     0.880     0.716  86.91   0
       383    160.3173    398.8663 307.8603888  +6.5126269     2345.262     4042.881     4550.426     79.27546     157.9265     315.3206      1.857     4.31     869.3188     55.56934     294.6786        22     1.362     1.030 -77.39   0
       384    555.4832    397.9383 307.6962920  +6.5262955     816.1512     1328.922     1222.919     79.15071      157.676     315.2266      1.516     6.17     860.4943     55.56934     125.6841        11     1.398     0.764  63.70   0
       385    383.6198    393.6013 307.7678213  +6.5223147     2051.666     3219.286     3075.583     78.64976     157.2367     314.9757      1.684     3.44     861.9688     55.56934     294.2384        20     1.131     1.101  79.66   0
       386    271.6832    394.2677 307.8142905  +6.5182751     868.1107     1313.026     1367.436     79.15071     157.9265     315.2893      1.604     4.94     864.3325     55.56934     114.9932        10     1.114     0.716 -24.40   0
       387    972.3798    393.1679 307.5232886  +6.5422236     921.1657     1493.831     1812.205     78.52402     157.4879     315.1012      1.722     4.83     854.6609     55.56934     139.7559         9     1.167     0.566 -69.95   0
       388      1.8599    393.6976 307.9263744  +6.5094189     624.8254     836.4753     677.9415     74.38823     132.9954     245.9557      1.551     5.47     871.7074     55.56934     72.09686         8     1.370     0.615 -88.19  24
       389    318.1742    391.6025 307.7950710  +6.5209396      578.569     925.0239     1189.496     78.52402     157.3623     315.0698      1.848     5.90     863.2458     55.56934     83.47473         8     1.045     0.937 -66.93   0
       390    437.4803    387.1196 307.7456691  +6.5268009     7028.818     10890.94     10969.91     79.27546     157.9265     315.4146      1.679     3.39      860.637     55.56934     899.0132        37     1.430     1.214 -70.38   0
       391     33.9775    387.8210 307.9132344  +6.5129288      3040.28     5093.778     5721.281     78.77529     157.4879     315.2266      1.835     4.05     870.5903     55.56934      392.479        29     1.479     1.120 -46.26   0
       392    770.2381    386.2293 307.6074853  +6.5383280     2018.254     2934.771     3719.233     78.52402     157.4251     315.1325      1.587     3.38     859.0896     55.56934     285.8552        17     1.172     0.913 -66.55   2
       393    778.1439    384.5368 307.6042584  +6.5392915     12889.66     19195.45     20233.69     79.15071     157.6133     315.2579      1.612     3.19     858.9633     55.56934     1760.448        42     1.353     1.234 -70.42   2
       394    341.4403    383.1779 307.7856920  +6.5252006     997.4543     1443.997     1799.586     78.64976     157.4879     315.0698      1.580     3.69      862.595     55.56934     163.8464        11     1.021     0.760  23.95   0
       395   1022.0934    379.7662 307.5030881  +6.5494180      3422.69     5008.329     5134.287     79.15071     145.9602      261.646      1.562     3.18     852.2156     55.56934     500.0352        24     1.197     1.133 -86.43  24
       396    952.7404    375.7681 307.5320300  +6.5487521     575.1242     906.0275     1476.086     78.77529     157.7386     315.2266      1.806     5.15     854.9417     55.56934     96.84589         5     1.050     0.713 -15.68   0
       397    187.0944    375.3840 307.8500613  +6.5232246      772.056     1353.729     1436.942     78.77529     157.4879     315.1325      1.981     5.62     867.1943     55.56934     97.53735         9     1.039     0.858 -42.80   0
       398    457.7877    371.4278 307.7377635  +6.5339622     2035.712     3195.815     3486.145     78.52402     157.4879     315.1639      1.712     3.55     859.4601     55.56934     319.9893        21     1.295     1.115  57.51   0
       399    485.7142    370.8302 307.7261842  +6.5351468      2897.46     4292.423     4487.532     79.15071     157.4879     315.1325      1.602     3.15     859.2111     55.56934     402.4192        25     1.214     1.165 -71.03   0
       400    914.7568    370.8826 307.5479715  +6.5494998     882.6317     1214.471     877.1458     79.02577      157.676     315.2266      1.510     3.95     856.0468     55.56934     131.3304        10     1.008     0.873 -78.15   0
       401    843.5161    367.4990 307.5776770  +6.5485145     32849.39     50759.12     54456.02     79.02577     158.1765     315.3519      1.707     3.42     857.3109     55.56934     4103.323        65     1.543     1.317 -84.33   0
       402    335.7975    363.2898 307.7887070  +6.5332226      809.522     1003.497       501.06     78.39807     157.3623     315.0071      1.323     4.11     862.1581     55.56934     116.3156         9     0.957     0.768 -46.06   0
       403     60.7009    364.0107 307.9029414  +6.5236611     680.7958     1060.746     904.2644     78.77529     157.2995     315.0384      1.768     4.70     868.9694     55.56934     78.42438         8     1.005     0.624 -23.97   0
       404    615.3267    359.8232 307.6727188  +6.5440408     2660.651     4097.804     4492.893     78.64976     157.4879     315.1952      1.650     3.32     858.4636     55.56934     352.4529        21     1.199     1.038 -83.50   0
       405     23.0839    360.4432 307.9186856  +6.5238654     1068.802     1672.703     1846.672     79.02577     157.6133     315.2266      1.731     5.98     869.0119     55.56934     134.4191        14     1.450     0.834 -39.50   0
       406    699.9561    353.4215 307.6377815  +6.5495209     78339.12       118551     125689.9     78.52402     157.5506     315.0698      1.630     3.20     858.2219     55.56934     11152.92        96     1.513     1.415 -81.24   0
       407    147.1935    357.8415 307.8672268  +6.5291238     567.6917     875.3449     1097.207     78.39807     157.3623     314.9757      1.585     4.37     868.1301     55.56934     79.73566         5     0.859     0.632 -47.34   0
       408    858.1599    355.1254 307.5720098  +6.5541136     1273.846     1819.685     1825.347     78.90063      157.676     315.2892      1.489     3.47     856.8419     55.56934     166.0811        14     1.092     0.846 -57.04   0
       409     79.1790    353.0070 307.8956393  +6.5288275     1408.221     2133.268     2978.676     78.64976     157.4879     315.0698      1.685     3.37      868.446     55.56934     189.8396        12     1.045     0.773 -61.27   0
       410    941.4966    350.9525 307.5375331  +6.5586231     924.0187      1404.85      891.692     79.02577     157.5506     315.4146      1.608     4.93     854.6129     55.56934     126.3022        11     1.169     0.771 -55.68   0
       411     99.7440    348.8304 307.8872392  +6.5312453     6115.195     9813.208     10779.78     78.90063     157.7386     315.1952      1.722     3.41     868.3563     55.56934     805.8054        39     1.496     1.237 -68.72   0
       412    562.5035    350.1679 307.6949849  +6.5462558      2650.53     4119.723     4070.649     79.15071     157.5506     315.3519      1.696     3.55     857.8271     55.56934      336.914        22     1.247     1.055  51.25   0
       413    760.4366    348.4836 307.6128253  +6.5535855     535.9682      817.394     1000.681     79.02577     157.6133     315.1952      1.635     5.05     857.6254     55.56934     96.09216         6     0.978     0.737   0.44   0
       414    545.7023    346.3374 307.7020927  +6.5472737     6878.297     10713.16     10813.09     78.77529     157.8013     315.3206      1.663     3.14      857.578     55.56934     878.4274        37     1.340     1.293  89.19   0
       415    408.6215    341.4226 307.7591970  +6.5446997     25091.64     39213.03     41658.13     78.77529     157.4879     315.2266      1.720     3.40       858.77     55.56934     3122.233        62     1.514     1.364  89.52   0
       416    274.6170    343.9759 307.8147706  +6.5391393     2507.959     3958.977      3669.72     78.77529     157.5506     315.1952      1.656     3.75     863.4475     55.56934     303.6456        24     1.258     1.176 -58.45   0
       417    516.2083    340.3896 307.7145440  +6.5487396     1276.606     1889.853     1409.884     78.52402     157.4879     315.1639      1.643     4.49     857.3742     55.56934      161.968        16     1.226     0.917 -74.37   0
       418    587.2325    340.8044 307.6850285  +6.5509517     694.9144     973.0031     906.5188     78.27193     157.5506     315.0384      1.488     4.06     857.3456     55.56934     116.6389         7     1.072     0.440 -63.46   0
       419    388.7420    339.3200 307.7675251  +6.5448998     1155.868     1812.805     3175.261     79.02577      157.676     315.2266      2.230     4.30     859.4383     55.56934      178.011        15     1.194     0.943  81.17   0
       420    803.5934    333.9707 307.5953864  +6.5610229      763.315     1253.153     1164.069     78.52402     157.4251     315.0698      1.483     5.63      856.644     55.56934     122.9264         9     1.353     0.660  89.25   0
       421    488.0901    336.8656 307.7263421  +6.5492508     1190.477     1483.459     1653.049     78.90063     157.8639     315.2579      1.428     5.33     857.3973     55.56934     151.7743        11     0.992     0.809 -40.43   0
       422    497.6825    331.8537 307.7225267  +6.5516423     8262.393     12808.95     13258.52     79.02577      157.676     315.3206      1.659     3.37     857.1428     55.56934     1096.636        39     1.361     1.255 -81.77   0
       423    766.8147    330.7176 307.6107731  +6.5611349      3039.11     4623.269     5294.333     78.64976     157.4251     315.1012      1.679     3.12     856.9754     55.56934     453.3325        26     1.329     1.078  66.98   0
       424    922.3840    330.7093 307.5461516  +6.5663430     827.3762     1260.425     1162.923     78.77529     157.4879     315.1325      1.706     4.20     854.5042     55.56934      130.199         7     1.047     0.482  85.78   0
       425    714.7852    330.1534 307.6324044  +6.5596253     727.2194     1146.003     1332.599     78.39807     157.4879     315.0071      1.628     6.15     857.3658     55.56934     90.69873        11     1.463     0.726  87.79   0
       426    324.1482    329.1074 307.7946996  +6.5469448     942.8091     1322.359     575.7872     78.90063     157.5506     315.4773      1.431     4.25     861.4277     55.56934     173.2142        11     1.008     0.920 -79.50   0
       427    436.2569    322.3938 307.7483600  +6.5534853     671.8698     934.1695     835.8999     78.52402     157.5506     314.9757      1.629     6.15      857.592     55.56934     91.48389         8     1.121     0.948 -69.69   0
       428    159.7719    322.3266 307.8632034  +6.5442114     1148.401     1812.836     1831.212     78.90063     157.6133     315.1952      1.678     4.54     867.1337     55.56934      134.942        15     1.192     0.933 -55.31   0
       429    387.5556    316.0909 307.7688017  +6.5544513     7073.113     11238.66     11857.19     79.02577     157.6133     315.3833      1.708     3.37     858.6771     55.56934     880.0151        38     1.365     1.300  84.97   0
       430    741.1120    315.9818 307.6219451  +6.5663588     1040.689      1716.47      1818.14     78.77529     157.4251     315.1639      1.758     4.06     856.7949     55.56934     130.9991        13     1.116     0.850 -73.14   0
       431    243.4790    316.5393 307.8286308  +6.5494198     2111.749     3337.918     3625.916     79.15071      157.676     315.2266      1.702     3.58     863.5601     55.56934     260.6431        19     1.125     1.058 -39.19   0
       432    755.4532    311.9790 307.6161225  +6.5684918     53009.13     79913.05     84605.71     78.52402      157.676     315.0698      1.615     3.13     856.4902     55.56934     7277.235        79     1.474     1.371  82.70   0
       433    427.1462    311.3994 307.7525151  +6.5577188     2215.866     3275.371     3238.778     78.27193     157.3623     314.8188      1.588     3.35     857.3692     55.56934     297.4614        19     1.126     1.029 -47.83   0
       434    990.2936    309.3825 307.5186577  +6.5774185     1635.548     2297.429     2030.523     78.90063     157.4879     315.1325      1.573     3.97     851.4701     55.56934     207.3995        16     1.317     0.790 -44.03   0
       435    931.2341    308.2525 307.5432290  +6.5759116     2366.812     3502.737     3482.258     78.90063      157.676     315.1952      1.574     3.63     853.3514     55.56934     299.2186        18     1.125     1.023  73.72   0
       436    573.3513    308.8806 307.6918696  +6.5636676     1191.399     1713.671     1898.232     79.02577     157.7386     315.2893      1.533     3.24      855.507     55.56934     173.2606        12     0.971     0.838 -29.45   0
       437    464.4204    307.7055 307.7371569  +6.5604962     1038.198     1703.198     1931.478     78.90063     157.4879     315.1012      1.758     6.00     856.7234     55.56934     166.4232        11     1.252     0.808 -12.83   0
       438    413.5229    307.0666 307.7583200  +6.5590501     1921.318     2995.135      2749.69     79.15071     157.7386     315.2266      1.645     3.94     857.4902     55.56934     225.6995        19     1.200     1.023  89.98   0
       439    293.4842    307.0802 307.8081801  +6.5550083     679.7578     887.4662     900.7872     78.90063      157.989     315.3519      1.579     5.79     861.7735     55.56934     85.14508         8     1.408     0.671  17.83   0
       440    834.7664    301.6934 307.5835219  +6.5753938     1232.278     1900.954     1604.189     79.15071     157.5506     315.3206      1.651     4.72     855.4803     55.56934     181.7911        13     1.295     0.810 -86.35   0
       441    753.8574    296.6085 307.6173021  +6.5747851      6025.18     9173.412     10192.43     78.39807     157.6133     315.0071      1.660     3.09     856.0048     55.56934     874.9897        35     1.400     1.172 -79.29   0
       442    444.2973    298.7524 307.7458175  +6.5635170     1208.755     1812.566     2086.563     79.02577     157.5506     315.4146      1.673     3.24     856.7277     55.56934     166.2651        12     0.926     0.873 -28.00   0
       443    190.2893    298.2828 307.8513407  +6.5551669     2180.845     3567.336     4105.341     78.77529     157.8639     315.2893      1.768     4.06      865.356     55.56934      304.496        20     1.237     1.068  58.97   0
       444    770.4727    294.8023 307.6104609  +6.5760872     2556.167     3869.699     4001.416     78.52402     157.2367     315.1012      1.652     3.55     855.7383     55.56934     357.6578        20     1.218     0.976  82.91   0
       445    344.6811    296.6632 307.7872661  +6.5610315     608.0357     635.5057     338.4063     79.15071     157.7386     315.2266      1.228     4.85     859.4635     55.56934     98.37396         6     0.966     0.690 -74.58   0
       446     86.5267    295.4882 307.8945340  +6.5528243     1068.093     1806.081     1527.262     79.02577     157.9265     315.2893      1.905     5.16     868.1386     55.56934     133.4551         9     0.968     0.778 -77.49   0
       447     73.7828    289.5839 307.9000270  +6.5548324     1115.316     1718.945     1808.542     78.77529     157.3623     315.1952      1.769     4.87     868.2162     55.56934     148.8082        12     1.244     0.742 -89.90   0
       448    359.8136    289.2112 307.7812320  +6.5646173     1719.778     3401.647     3769.942     78.77529     157.4251     315.1952      2.102     5.16     858.6347     55.56934     196.1085        22     1.458     1.086   0.45   0
       449   1008.5247    285.5953 307.5118821  +6.5878496     6010.411     8799.075     9642.529     78.64976     157.1738     315.1639      1.624     3.06     850.2028     55.56934     777.4238        29     1.270     1.132 -82.24   0
       450    486.6342    285.3268 307.7286841  +6.5704825     2132.128     3225.292     3026.069     78.90063     157.6133     315.2579      1.628     3.80     855.4807     55.56934     283.5305        21     1.206     1.121 -66.65   0
       451    249.2292    280.7842 307.8274505  +6.5643766     5568.809     9002.856     9906.242     78.64975     157.4251     315.1952      1.724     3.47      862.826     55.56934     712.5332        34     1.390     1.228 -79.37   0
       452    916.8314    279.8309 307.5501658  +6.5871658     554.6569     962.3108     1547.832     78.52402     157.4251     315.0071      2.025     3.90      852.804     55.56934     84.36206         6     0.779     0.559  50.22   0
       453    897.6968    278.5873 307.5581563  +6.5870395     522.7624     557.5146     91.45379     78.90063     157.4251     315.0071      1.291     3.48     853.3755     55.56934     83.70532         5     1.047     0.333 -21.41   0
       454    768.7280    274.4735 307.6118690  +6.5844228     829.7021     999.5367     926.8745     79.27546     157.8013     315.2893      1.379     4.84     854.9587     55.56934     120.4382         9     1.156     0.700  70.25   0
       455    383.3686    271.5839 307.7720426  +6.5726875      1682.37     2755.246     2839.533     78.64976     157.4251     315.1639      1.787     4.32     857.6107     55.56934     203.4946        17     1.196     1.010 -87.30   0
       456    970.4106    270.5848 307.5282187  +6.5927744     1046.805     1353.435     1502.577     78.77529     157.4251     315.1639      1.441     3.34     850.9033     55.56934     162.8893        10     0.908     0.819  -0.17   0
       457    305.3589    267.6369 307.8045797  +6.5716939     1077.875     1661.468     1289.964     78.77529      157.676     315.1325      1.588     4.91     860.3941     55.56934     153.9279        13     1.267     0.821  78.86   0
       458    153.0083    267.3618 307.8678716  +6.5666782     1698.175     2661.964     2277.495     78.27193     157.4251     315.0071      1.676     3.75     865.8968     55.56934     221.0485        20     1.216     1.050 -33.72   0
       459    562.7697    263.2340 307.6978026  +6.5821603     2123.036     3072.448     2898.601     78.52402     157.4251     315.0071      1.542     3.32     853.5234     55.56934     276.6406        22     1.202     1.049 -80.23   0
       460    906.1771    262.3435 307.5551788  +6.5940304     1768.128     2879.741      3038.59     78.64976      157.676     315.0698      1.753     4.94     852.4185     55.56934     235.0212        19     1.349     1.038  33.54   0
       461    667.2714    260.8254 307.6544736  +6.5866594     2060.557     3368.006     3491.161     78.64975     157.5506     315.1952      1.755     3.70     854.3932     55.56934     288.1721        21     1.299     1.010 -78.40   0
       462    726.2742    260.6762 307.6299685  +6.5886981     4897.811     7485.671     8045.845     79.27546     157.9265     315.3206      1.677     3.22     854.6405     55.56934     641.9302        30     1.325     1.191  69.19   0
       463    382.3120    255.3504 307.7730293  +6.5793548     707.4554     1090.306     806.2858     79.02577     157.4879     315.3833      1.619     4.69     857.3514     55.56934     108.3094         8     0.964     0.647 -85.95   0
       464    922.4201    252.7347 307.5487537  +6.5985411     1139.578     1655.258     1272.724     78.64976      157.676     315.1325      1.567     3.88     851.7385     55.56934      152.978        11     0.938     0.834  47.58   0
       465    961.4188    251.7578 307.5325857  +6.6002479     1802.703      1681.65     1748.846     78.52402     157.4879     315.0384      0.853     2.69     850.5901     55.56934     546.8342         6     0.803     0.389 -50.40   0
       466    225.8291    245.9128 307.8383488  +6.5779871     2238.444      3437.08      3367.99     79.15071     157.4251     315.1325      1.627     3.66     863.5268     55.56934     277.1151        21     1.222     1.063 -77.34   0
       467    868.5378    245.1932 307.5713907  +6.5998532     1653.372     2358.759     2580.754     78.39807     157.4879     315.0384      1.549     3.33      852.287     55.56934     230.6951        16     1.156     0.861 -71.28   0
       468    758.9897    244.4736 307.6169229  +6.5964840     1625.064     2173.409     1785.156     78.52402     157.2995     315.1325      1.361     3.03     853.8119     55.56934     259.6259        13     1.056     0.750 -83.80   0
       469    320.8441    238.0183 307.7991475  +6.5844443     652.3325     894.2625     921.9917     78.52402     157.5506     315.0071      1.550     5.00     859.2911     55.56934     93.38916         8     1.179     0.600 -72.26   0
       470    247.5144    239.3348 307.8295634  +6.5814332     573.7549     932.9613     813.5722     79.15071     157.8639     315.3206      1.699     4.37     862.5032     55.56934     81.68115         5     0.993     0.546  47.80   0
       471    785.7426    235.0236 307.6061271  +6.6012818     13039.03     20112.34     21756.65     78.64975      157.676     315.0698      1.646     3.16      853.386     55.56934     1861.396        52     1.449     1.370  -8.16   0
       472    459.7544    235.8134 307.7415192  +6.5900240     21954.66     34715.37     36580.61     78.39807     157.4879     315.0384      1.687     3.28     853.8586     55.56934     2966.244        53     1.431     1.352 -76.35   2
       473    465.3831    230.8775 307.7393475  +6.5922511     1393.682     2392.059     1767.287     78.52402     157.4251     315.1325      1.769     5.07     853.3756     55.56934     193.2355        16     1.306     0.952  79.79   3
       474    724.1537    231.6962 307.6318240  +6.6005932      601.798     779.5557     520.7185     79.02577     157.6133     315.4146      1.536     3.78     853.2696     55.56934     120.1147         5     0.860     0.476 -53.97   0
       475    147.9177    229.2583 307.8712748  +6.5822393      2324.01     3584.511     4133.612     79.15071      157.676     315.3206      1.642     3.48     864.9963     55.56934     295.0768        23     1.208     1.113 -51.90   0
       476    122.3917    227.8971 307.8819239  +6.5819410     1108.321     1826.064      1876.72     78.77529     157.2995     315.0698      1.805     6.33     866.0629     55.56934     161.0931        13     1.522     0.763  83.02   0
       477    779.4511    227.2037 307.6090035  +6.6043001     642.1221     1455.192      1906.62     78.39807     157.4251     314.8502      2.486     6.90     853.0997     55.56934     78.85876        10     1.450     0.920  11.86   0
       478    174.7055    227.3618 307.8602118  +6.5839249     602.0175     1043.944     813.1664     79.15071     157.5506     315.3833      1.806     3.99     864.1828     55.56934     87.23169         6     0.895     0.510  46.07   0
       479    922.4454    225.5692 307.5496551  +6.6097589     1360.393     2111.051     2233.781     78.64976     157.7386     315.1325      1.794     4.65     850.8353     55.56934     191.7795        15     1.150     0.931 -16.33   0
       480    583.8328    221.6424 307.6904538  +6.6000404     4443.448     6824.459     7118.629     78.77529      157.676     315.1012      1.644     3.61     852.2432     55.56934     591.2756        26     1.271     1.131 -88.52   0
       481    546.5197    221.5849 307.7059560  +6.5988121     2033.589     3017.557      2810.51     78.64976     157.4251     315.0698      1.629     3.52     852.2201     55.56934     267.3751        19     1.191     0.993  88.97   0
       482    304.1822    222.3750 307.8065971  +6.5903428     899.7059      1404.03     907.5029     78.77529     157.5506     315.1952      1.784     5.27     859.8474     55.56934     132.1169        11     1.140     0.897 -73.72   0
       483    388.2871    220.6424 307.7717186  +6.5938866     1451.663     2465.802     2093.324     79.02577     157.5506     315.2893      1.774     4.79     856.5423     55.56934     176.9989        17     1.260     1.017 -75.00   0
       484    944.7922    218.8501 307.5405971  +6.6132803     2504.566     3675.178     3456.741     78.52402     157.4879     314.9443      1.563     3.13      849.963     55.56934     394.4348        23     1.224     1.092  48.64   0
       485    890.8832    218.1903 307.5630147  +6.6117504     10976.25      16502.6     17756.16     78.64975     157.3623     315.1012      1.592     3.15     850.7088     55.56934     1466.096        43     1.386     1.221 -80.25   0
       486    565.7477    218.1746 307.6980834  +6.6008655     819.5318     1241.713     1514.009     78.64976      157.676     315.1639      1.941     5.91      852.156     55.56934     91.12708        10     1.014     0.970  21.87   0
       487    318.5942    218.5887 307.8007382  +6.5923910     883.4221     1475.924     1707.002     78.64976     157.4879     315.1639      1.769     5.40     859.1804     55.56934     122.9554        10     1.311     0.629  60.79   0
       488    209.9965    218.3152 307.8458583  +6.5888488     745.2908     1230.548      699.941     78.52402     157.2995     314.9757      1.721     4.05     863.3885     55.56934     112.8561         8     1.093     0.558  71.04   0
       489     17.0508    214.6281 307.9261294  +6.5838672     24529.98     38828.05     41597.73     78.64975     157.8013     315.1639      1.705     3.45     868.6191     55.56934     3180.574        60     1.504     1.369  81.54   0
       490    977.4929    216.0921 307.5271047  +6.6155119      9904.89     14540.02     14495.79     79.02577     158.1765     315.2579      1.548     3.00     848.7798     55.56934     1390.647        35     1.308     1.151  80.83   0
       491    688.7795    216.0059 307.6470469  +6.6058866      2824.65     4219.525     4982.574     78.64976     157.3623     315.0698      1.596     3.21     852.5383     55.56934     387.4813        23     1.342     1.021  59.92   0
       492    263.2272    215.7387 307.8238337  +6.5917048      1115.39     1716.466     1563.409     78.64976     157.7386     315.1639      1.643     4.88     861.5742     55.56934     133.0064        12     1.011     0.864 -79.56   0
       493    497.3994    210.9987 307.7267179  +6.6015343     1910.225     2943.657     3308.499     78.39807     157.2367     314.9443      1.656     3.34     851.9095     55.56934     255.1609        19     1.145     1.009 -74.38   0
       494    829.3446    207.5731 307.5889362  +6.6140758      1967.84     2969.745     2874.337     78.64976     157.7386     315.1012      1.596     3.58     851.6646     55.56934     294.5303        19     1.215     0.966 -85.69   0
       495    881.6122    206.6401 307.5672540  +6.6162096       2055.4     3123.752       3628.6     78.52402     157.4879     315.0384      1.724     3.88     850.3789     55.56934     264.2346        18     1.185     1.024  67.64   0
       496    741.0288    204.1588 307.6257399  +6.6125289     39365.93     59658.43      62807.7     78.64976     157.5506     315.1012      1.600     3.12     852.4427     55.56934     5255.701        66     1.427     1.342  89.70   0
       497    509.5927    206.7452 307.7217960  +6.6037000     2583.939     3978.619      3807.18     78.52402     157.4879     314.9757      1.655     3.86     851.8395     55.56934     328.3502        23     1.309     1.071 -62.82   0
       498    344.1650    203.3660 307.7906301  +6.5995365     5725.894     11735.84     13185.26     78.77529     157.4251     315.0071      2.211     5.39     858.0687     55.56934      660.212        51     2.064     1.282 -79.79   0
       499    974.7153    203.0172 307.5286973  +6.6208179     2808.976     4350.604     4499.314     78.64975     157.4251     315.1952      1.643     3.46     848.1595     55.56934      366.534        20     1.200     1.042 -63.07   0
       500    908.8621    201.2943 307.5561129  +6.6193282     7388.065     11155.32     11445.52     79.02577     157.7386     315.2893      1.602     3.23     849.8474     55.56934     1004.075        35     1.333     1.182 -78.72   0
       501   1013.3176    201.6893 307.5127050  +6.6226558     1578.194     2250.659     2296.497     78.77529     157.8639     315.3206      1.524     3.82     846.8223     55.56934     242.7189        13     1.120     0.847 -78.07   0
       502    452.4472    200.2666 307.7457534  +6.6044558     4833.894     7362.545     7716.149     79.02577     157.6133     315.2893      1.655     3.33     852.9054     55.56934     611.7347        28     1.232     1.210  -4.68   0
       503    227.1536    196.7765 307.8394594  +6.5983198     678.0834     1103.106     1174.631     78.64975      157.676     315.1325      1.518     3.53     862.4141     55.56934     103.6702         5     1.138     0.316  80.83   0
       504    109.8305    191.5723 307.8883708  +6.5965158     4685.388      7463.81     7436.271     78.52402     157.4251     315.0384      1.692     3.52     865.3773     55.56934      630.205        29     1.366     1.128 -74.37   0
       505    929.4678    191.0508 307.5478965  +6.6242468       945.58     1199.767     1471.981     78.90063     157.5506     315.1952      1.402     3.93     849.1354     55.56934     143.1921         9     0.933     0.769 -60.12   0
       506    606.7083    190.7731 307.6819905  +6.6135538     600.5834     1229.624     1673.788     79.15071     157.4251     315.1325      2.351     4.41      851.884     55.56934     90.77545         5     0.811     0.681 -64.67   0
       507    280.1266    188.1701 307.8177451  +6.6036565     32308.03     51771.29     55340.47     78.90063      157.676     315.2266      1.719     3.45      860.747     55.56934     4227.249        69     1.554     1.383  83.11   0
       508    255.4299    189.3121 307.8279657  +6.6023537     6564.261     10219.82     10814.59     79.15071     157.4251     315.1639      1.712     3.56     861.4113     55.56934     798.2558        35     1.378     1.207  79.76   0
       509    709.1668    187.5840 307.6395338  +6.6183054     962.5483     1161.768     1078.816     78.64976     157.4251     315.1325      1.405     3.63     852.0006     55.56934       123.91        12     0.983     0.883 -50.87   0
       510    404.1870    183.7457 307.7663586  +6.6096557     47203.77     75981.28     81181.16     78.39807     157.6133     315.0071      1.738     3.50     854.3431     55.56934     6036.393        79     1.542     1.443  78.25   0
       511    160.1745    184.9319 307.8676828  +6.6009543     3795.761     5958.273     6151.896     78.64975     157.5506     315.1639      1.649     3.64     862.6945     55.56934      501.334        27     1.343     1.141  79.48   0
       512    421.6170    184.3571 307.7590973  +6.6099890     1443.871     2189.858      2388.74     78.52402     157.5506     315.0071      1.662     3.81     853.3259     55.56934     196.6106        15     1.158     0.876 -20.44   0
       513    308.2216    181.4513 307.8063012  +6.6073760     17601.19     28054.73     30653.66     78.52402     157.7386     315.1325      1.740     3.45     859.6695     55.56934     2383.182        57     1.534     1.346 -84.96   0
       514    743.4990    180.0611 307.6255241  +6.6225618     32313.34      49264.3      52139.5     78.77529     157.6133     315.3833      1.631     3.19     851.7735     55.56934     4455.293        63     1.454     1.331 -89.32   0
       515    691.3648    181.7816 307.6471245  +6.6201047     987.2844     1518.496     1649.762     78.52402     157.4879     315.0384      1.694     5.02     851.8788     55.56934     137.9831        13     1.117     0.942  87.73   0
       516    315.7104    181.3474 307.8031938  +6.6076708     1813.441     3394.764     4870.728     79.02577     157.4879     315.3833      2.438     5.45     859.3138     55.56934     229.3387        22     1.574     0.987 -70.41   0
       517    792.0512    180.6586 307.6053336  +6.6239408     1136.349     1757.449      2134.69     79.02577      157.676     315.2579      1.807     3.68     851.6995     55.56934     160.3154        12     1.055     0.759 -85.77   0
       518     60.2817    177.1384 307.9094415  +6.6008046     8813.842     14140.98     14737.71     79.15071      157.676     315.2579      1.716     3.46     866.7291     55.56934     1101.387        44     1.415     1.326 -80.83   0
       519     31.0741    180.1583 307.9214718  +6.5985724     672.1954     1095.098     1208.999     78.90063     157.7386     315.2892      1.581     3.96     867.7315     55.56934     121.7543         6     0.966     0.465 -55.01   0
       520     94.0458    175.2738 307.8954792  +6.6027131     1435.134     2297.731     2120.732     78.90063     157.7386     315.2579      1.673     4.07     865.5466     55.56934     181.2125        18     1.181     1.044  50.48   0
       521   1001.9600    174.6763 307.5183295  +6.6334304     1071.136      1621.25      2640.92     78.90063      157.676     315.3206      1.752     3.13     845.6946     55.56934     159.5068         9     0.813     0.771 -53.52   0
       522    969.6702    173.7259 307.5317761  +6.6327441     532.6174     1092.551     793.1498     79.15071     157.8013     315.2579      1.776     3.73     846.8151     55.56934     102.1566         5     0.926     0.432  -7.82   0
       523    577.3163    164.6456 307.6950807  +6.6233560     820.0242     1169.052     1130.297     79.02577      157.676     315.2579      1.570     4.25     851.2627     55.56934     137.1807         9     0.939     0.746  22.86   0
       524   1002.8533    160.6294 307.5184295  +6.6392604     2238.324     3405.459     3901.194     78.77529     157.7386     315.1952      1.632     3.26      844.879     55.56934     351.6339        20     1.120     1.065  -4.55   0
       525    585.8461    158.9526 307.6917289  +6.6259929     966.3481     1347.758     1268.171     79.02577     157.5506     315.2892      1.422     3.50     851.1899     55.56934     147.1406         9     0.972     0.629 -35.66   0
       526    594.2828    156.4686 307.6883077  +6.6273015     1876.275     2858.558     3291.888     79.27546     157.9265     315.2893      1.694     3.20     851.1042     55.56934     258.7654        17     1.082     0.985  73.84   0
       527    279.0659    154.4668 307.8193244  +6.6175367     29422.28     46714.21     49381.44     79.02577      157.676     315.2893      1.734     3.46     860.6125     55.56934     3772.774        64     1.511     1.393  86.51   0
       528    338.5670    156.6989 307.7945312  +6.6186169     864.8495     1347.533     1375.443     79.02577     157.5506     315.3833      1.552     3.64     858.2779     55.56934     126.0727         6     0.832     0.528 -49.96   0
       529     24.3727    153.0812 307.9251725  +6.6095261     4248.401     6880.974     7573.858     78.90063     157.4879     315.2266      1.787     3.68     867.7304     55.56934     524.1305        31     1.454     1.140 -74.62   0
       530    710.7231    151.2167 307.6401107  +6.6333738     7855.102     12105.22     13461.07     78.52402     157.4251     315.1325      1.659     3.16     850.7548     55.56934      1093.27        38     1.414     1.195  86.24   0
       531    188.1994    152.8746 307.8571254  +6.6151346     871.7377     1491.309     1413.964     78.27193      157.048     315.0698      1.836     5.04       861.36     55.56934     120.1182         9     1.049     0.684  -4.05   0
       532    265.1017    149.7302 307.8252854  +6.6190224     929.4016     1391.487     1778.444     78.90063     157.8013     315.2579      1.615     4.48     860.7493     55.56934     136.3195        10     0.977     0.868 -60.83   0
       533    121.4145    148.2336 307.8850253  +6.6148004     4579.414     7297.331     7516.893     78.64976     157.4251     315.1325      1.733     3.52     863.1756     55.56934     553.2915        31     1.299     1.268 -82.25   0
       534    649.3638    145.3567 307.6657991  +6.6337369      887.468     1394.993     1243.022     78.77529     157.6133     315.1012      1.731     3.10     850.5468     55.56934     134.8197         8     0.874     0.694 -37.21   0
       535    583.4808    146.4933 307.6931312  +6.6310580     683.7085     982.2278     975.8679     78.77529     157.9265     315.3206      1.487     3.73     850.5104     55.56934     94.34497         6     0.918     0.435  17.73   0
       536    460.4265    145.4268 307.7442881  +6.6273673     1352.659     2212.029     2346.905     78.52402     157.4879     315.1325      1.799     4.43        851.1     55.56934     182.0776        14     1.201     0.881  79.82   0
       537    392.1729    144.3184 307.7726800  +6.6255313     3746.863     6247.601     6990.927     78.90063     157.4879     315.1952      1.829     3.88     854.2997     55.56934     425.3456        30     1.508     1.122  84.52   0
       538    356.6768    143.2348 307.7874626  +6.6247853     3129.029     4870.693     4640.846     78.90063     157.7386     315.2579      1.665     3.31     857.2615     55.56934     422.5039        22     1.224     1.025 -81.56   0
       539    568.8347    143.2145 307.6993262  +6.6319204     694.4806     1228.615     1445.258     78.64975     157.4251     315.1325      1.789     5.70     850.3273     55.56934     102.6024         9     1.308     0.699 -58.78   0
       540    110.9337    143.0188 307.8895556  +6.6166002     1797.032     2938.935     2416.661     78.64976      157.676     315.1639      1.678     4.10     863.3775     55.56934     236.8007        20     1.264     1.109  -5.70   0
       541    747.3566    141.7044 307.6252114  +6.6385287     639.4518     884.9387     478.4134     79.02577     157.6133     315.3833      1.289     3.04     850.0192     55.56934     105.6609         5     0.725     0.457 -75.24   0
       542    672.4180    141.4928 307.6563515  +6.6361052     787.8423     1029.801     981.5212     78.90063     157.4251     315.1325      1.483     4.42     850.2973     55.56934      124.941         8     1.200     0.464  81.26   0
       543   1003.5355    137.5442 307.5189205  +6.6488154     1492.126     2152.149     2197.395     79.15071     157.6133     315.2579      1.577     3.61     844.0454     55.56934      196.074        16     1.114     0.973 -29.96   0
       544    670.2820    130.9415 307.6575940  +6.6403903     6111.943     9134.552     9595.709     79.02577      157.676     315.3206      1.582     3.15     849.6738     55.56934     814.6885        32     1.275     1.188 -76.70   0
       545    208.4654    132.0330 307.8494113  +6.6244225     5468.069      8481.53     9033.902     78.90063      157.676     315.2266      1.661     3.42     861.0482     55.56934     702.1317        31     1.266     1.250 -86.93   0
       546     91.2408    131.9119 307.8981121  +6.6205221     2131.445     3362.916      3714.78     79.02577     157.6133     315.2893      1.724     3.72     863.7017     55.56934     260.1509        19     1.242     0.948  82.01   0
       547    818.3898    131.2544 307.5960519  +6.6452219      1031.22     1598.552     1332.673     78.39807     157.6133     314.9757      1.553     3.76     848.5379     55.56934     136.7445        10     0.941     0.733 -52.68   0
       548    622.3789    128.1946 307.6775876  +6.6399183     9082.605      14255.8     15588.24     78.64976     157.4251     315.0698      1.693     3.36     849.4867     55.56934      1153.68        40     1.480     1.208  86.27   3
       549    625.9388    119.6959 307.6763949  +6.6435469     51912.36     80289.12     85757.45     78.77529     157.7386     315.3206      1.681     3.29     848.9879     55.56934      7231.87        82     1.508     1.428 -86.29   2
       550    257.1416    128.8676 307.8292972  +6.6273685     684.0142     1080.313     1105.437     79.15071     157.6133     315.2579      1.707     5.04     860.7403     55.56934     97.41052         8     1.053     0.681 -39.74   0
       551     21.0015    127.6008 307.9274360  +6.6199328     903.6263     1456.834     1059.065     78.39807     157.2367     314.9443      1.681     5.66      868.065     55.56934      117.842        11     1.273     0.709 -76.97   0
       552    560.7631    127.7505 307.7032005  +6.6380347     739.6985     987.1289      1104.66     78.77529     157.6133     315.1012      1.449     5.62     849.7161     55.56934     86.39795         8     1.045     0.853 -40.15   0
       553    349.5673    124.0002 307.7910655  +6.6324881     3671.331     6322.312     6748.997     78.27193     157.4879     315.0071      1.840     3.81     857.6655     55.56934     450.0162        32     1.621     1.138 -55.17   0
       554    995.4772    122.9522 307.5227580  +6.6545714     854.2147     1208.514     1335.568     78.90063     157.7386     315.2266      1.665     4.40     843.8024     55.56934     118.4189        12     1.073     0.881 -75.70   0
       555    531.3484    123.3883 307.7155676  +6.6388486      1636.49     2425.151     2309.084     78.39807     157.5506     315.0071      1.534     4.04     849.7567     55.56934     214.3076        17     1.225     0.940 -36.35   0
       556    305.1810    113.4238 307.8098621  +6.6353619     3400.845     5557.052      6196.44     78.77529     157.5506     315.1952      1.828     3.73     859.7054     55.56934     423.6008        29     1.324     1.156 -39.50   0
       557      2.9942     96.3313 307.9359757  +6.6322357     732062.6      1564893      1677498     78.52402     146.8377     262.7766      2.135     5.94     869.8448     55.56934     63406.59       339     2.156     1.744  89.22  28
       558    500.0267    110.8839 307.7290015  +6.6429600      480.604     835.4341     692.4831     79.15071     157.4251     315.1639      1.979     5.27     849.7728     55.56934     77.22461         5     1.418     0.553 -77.77   0
       559    704.9900    108.3040 307.6439363  +6.6509006     943.4552     1346.052      1283.51     78.77529     157.2995     315.0384      1.587     4.36     848.1028     55.56934     147.6066         8     1.047     0.644 -32.97   0
       560    676.5992    107.0699 307.6557729  +6.6504587     1348.498      2158.54     2429.333     78.52401     157.2367     315.0698      1.709     3.98     848.1602     55.56934     189.8923        18     1.269     0.994 -28.68   0
       561    690.3851    103.6192 307.6501616  +6.6523456      3278.51     5057.479      5001.31     78.77529     157.4251     315.1639      1.667     3.36     847.9177     55.56934     423.9749        24     1.267     1.061 -87.67   0
       562    568.2066    103.8483 307.7009135  +6.6481537     386.6414     419.2116      676.735     78.52402     157.4879     314.8816      1.439     4.46      848.655     55.56934     74.01733         5     0.776     0.728  65.45   0
       563    432.0241     94.6986 307.7577988  +6.6473586     3917.338     6133.314     6464.712     79.15071     157.4251     315.0698      1.667     3.38     851.6428     55.56934     551.6479        29     1.306     1.206  14.25   0
       564    904.6697     90.1519 307.5615866  +6.6650799     3860.048     5777.284     6058.352     79.02577     157.6133     315.2893      1.611     3.27     844.8726     55.56934     518.3973        25     1.260     1.064 -74.42   0
       565    886.7106     91.1619 307.5690142  +6.6640623     2210.877     3401.872     3452.677     79.02577     157.6133     315.2893      1.685     3.35     845.2569     55.56934     299.7953        18     1.098     1.023  51.72   0
       566    596.7432     88.6940 307.6895683  +6.6553684     1631.242     2277.597      2491.36     78.90063      157.676     315.4459      1.623     3.67     847.7314     55.56934     217.5991        15     1.052     0.973  37.47   0
       567    242.3228     88.0814 307.8368318  +6.6437099     814.0775     1379.724     2410.451     79.27546     157.9265     315.3833      2.146     4.70     860.6459     55.56934     117.9141        10     1.052     0.890 -58.07   0
       568    395.4473     86.7049 307.7732642  +6.6494298     1900.145     2727.567      2278.13     78.90063     157.5506     315.4146      1.608     3.77     854.1423     55.56934      243.738        15     1.100     0.920 -79.37   0
       569    143.4811     83.3395 307.8780542  +6.6423381     3085.353      4818.92     4712.468     79.15071      157.676     315.2266      1.723     3.60     860.6093     55.56934     422.8906        27     1.282     1.204 -83.05   0
       570    292.2369     81.8905 307.8163048  +6.6479462     1391.478     2286.224       2599.3     79.15071     157.6133     315.2892      1.745     4.63     860.2816     55.56934     165.4109        16     1.222     1.016  87.67   0
       571     25.3149     81.1200 307.9272186  +6.6392695     11967.38     19074.48     20423.48     78.90063      157.989     315.3519      1.712     3.48     866.3231     55.56934      1541.11        42     1.428     1.275  81.27   0
       572    760.3240     80.4971 307.6218824  +6.6642359      795.306     1090.096     2004.281     78.64976     157.8639     315.2893      1.736     4.42     846.3943     55.56934     94.00488         8     0.911     0.710  43.38   0
       573    552.6793     80.8818 307.7081382  +6.6571155     707.0941     948.9401     931.3119     79.15071     157.9265     315.4459      1.534     4.40     848.3663     55.56934     87.92584         7     0.905     0.609 -57.67   0
       574    772.1310     76.2570 307.6171195  +6.6663821     3321.519     4944.613     5425.312     79.15071     157.6133     315.2266      1.617     3.42     846.0536     55.56934     430.2415        22     1.184     1.095 -65.06   0
       575    417.1352     77.0082 307.7645812  +6.6541626     986.5929      1593.63     1099.727     78.52402     157.4251     315.1325      1.684     5.57     852.6635     55.56934     127.9642        14     1.203     0.903 -61.43   0
       576    827.0517     75.7887 307.5943173  +6.6684140     6098.893     9246.991     10152.54     78.39807     157.5506     315.0071      1.611     3.10     845.4154     55.56934     868.9026        32     1.320     1.158 -88.01   0
       577    565.3893     80.9537 307.7028553  +6.6575124      648.965      866.245     1136.209     78.52402     157.4879     314.9443      1.401     4.43     848.1776     55.56934     89.41766         6     0.844     0.660 -64.05   0
       578    534.3849     74.3091 307.7159603  +6.6592153     1093.345     1596.528     2045.477     78.77529     157.4879     315.1325      1.516     3.54     848.5371     55.56934     146.7862        12     0.961     0.899 -11.90   0
       579     65.5665     73.1235 307.9107679  +6.6439291     3149.429     4903.482     4951.032     78.90063      157.676     315.2266      1.679     3.63     862.9233     55.56934     392.7792        24     1.323     1.022 -84.56   0
       580     50.2534     74.1727 307.9170938  +6.6429793     974.6454     1475.536     2004.704     78.77529     157.8013     315.1639      2.096     4.17     864.0043     55.56934     140.6269        12     1.026     0.923 -70.54   0
       581    654.4766     73.5387 307.6660927  +6.6635623     756.8824     1134.828     1057.767     79.27546     157.7386     315.2579      1.732     5.20      847.456     55.56934     120.5491         7     0.920     0.829  89.49   0
       582    427.0692     72.8572 307.7605942  +6.6562103     819.3172     1213.159     1325.815     79.15071     157.6133     315.2266      1.597     4.92     852.2347     55.56934     108.3785         9     1.041     0.659 -35.10   0
       583    589.3286     70.0375 307.6932773  +6.6628229     1257.143     1779.338     1643.418     78.90063      157.676     315.3206      1.507     3.68     847.7009     55.56934     164.1121        14     1.090     0.947  35.43   0
       584      7.9784     68.4791 307.9348488  +6.6439036     2392.963     3667.001     3901.657     78.64975     157.3623     313.6868      1.650     3.68     865.9721     55.56934     290.3427        20     1.230     1.022  64.29  16
       585    766.6863     63.5700 307.6198083  +6.6714383     1994.984     2979.728     3405.405     79.15071     157.4251     315.1639      1.671     3.68     845.7233     55.56934     283.3916        18     1.186     0.996 -78.32   0
       586    407.5991     64.3560 307.7689700  +6.6590661     974.4857      1599.56     1515.585     78.39807     157.3623     314.8816      1.540     3.80     853.6024     55.56934     182.5956        11     1.202     0.704 -36.82   0
       587     80.5698     63.5238 307.9048601  +6.6483987     781.1746      1232.05     1328.371     78.90063     157.7386     315.2893      1.723     6.30     861.6692     55.56934     111.0801        10     1.301     0.858 -86.76   0
       588    104.7236     62.6220 307.8948564  +6.6495856     1048.208     1513.758     1604.418     78.64976     157.5506     315.1952      1.621     4.39     860.7653     55.56934      127.689        13     1.023     0.920  15.02   0
       589     93.3816     57.3440 307.8997469  +6.6513823     9091.285     14261.93     15161.13     78.52402     157.6133     315.0384      1.713     3.45     860.9039     55.56934     1120.183        39     1.417     1.239 -87.12   0
       590    422.4807     57.3096 307.7630251  +6.6624757     2384.177      3676.13     3881.748     78.77529     157.8639     315.3519      1.636     3.77     852.8342     55.56934     317.5273        21     1.229     1.103  -2.49   0
       591    243.7871     56.4725 307.8372919  +6.6568102     571.6852     889.8315     1363.718     78.52402     157.3623     315.0698      1.851     4.33     860.5117     55.56934     78.06012         5     1.173     0.455 -58.31   0
       592    636.1287     49.4359 307.6745272  +6.6728991      18424.7     27787.24     29788.56     78.90063      157.676     315.2893      1.629     3.24     847.3497     55.56934     2576.051        51     1.428     1.275  78.16   0
       593    260.0406     51.4737 307.8307084  +6.6594214     1446.344     2636.614     4182.518     78.90063     157.7386     315.2893      2.429     4.24     860.4672     55.56934     170.7415        17     1.130     1.014 -11.97   0
       594    535.9098     45.5814 307.7162950  +6.6711282     5083.826     7756.528      8147.87     78.77529     157.4251     315.1639      1.619     3.18     847.9752     55.56934     749.0162        27     1.257     1.126 -81.42   0
       595    254.3243     45.7325 307.8332773  +6.6615994     1815.857     3080.593     4276.142     79.15071     157.8013     315.2579      2.003     3.91     860.4614     55.56934     257.5034        20     1.250     1.078 -83.23   1
       596    918.0300     42.8504 307.5576240  +6.6850578     4105.688     5819.869     5670.168     78.64976     157.8013     315.1639      1.678     6.74     843.5591     55.56934      2730.88        22     1.878     0.678 -49.96   0
       597    441.4493     41.0942 307.7556915  +6.6698084     22239.98     34716.52     36902.53     78.90063     157.5506     315.3833      1.691     3.36     851.8032     55.56934     2755.101        55     1.435     1.339  83.83   0
       598    262.0938     41.5285 307.8301916  +6.6635968     9061.251     14336.27     16273.49     78.90063     157.7386     315.2893      1.751     3.44     860.4431     55.56934     1162.168        43     1.461     1.295 -64.25   0
       599      3.5354     43.9329 307.9375262  +6.6538883     1131.702     1763.202     2043.038     79.02577     152.1261     270.3024      1.704     5.03     863.1545     55.56934     159.3165        12     1.072     0.926 -16.44  24
       600    622.3807     39.5850 307.6805708  +6.6765055     3184.495     5225.681     6361.266     78.77529     157.4251     315.1639      1.945     4.72     847.3115     55.56934     438.7844        31     1.803     1.073  68.92   0
       601    321.9132     41.7936 307.8053304  +6.6655005     961.2823     1486.725       1821.4     78.52402     157.3623     315.0071      1.624     5.70     858.8769     55.56934     128.7087        12     1.118     0.870 -83.95   0
       602     27.4381     41.1215 307.9276915  +6.6558558     2320.698     3681.683     4005.206     78.90063     157.7386     315.2579      1.717     3.84     862.2089     55.56934     278.5883        22     1.197     1.132  22.75   0
       603    554.5175     40.9326 307.7087208  +6.6736722     621.1649     918.3559     1193.522     79.15071     157.9265     315.3206      1.499     3.80     847.6485     55.56934     90.29718         6     0.833     0.498 -86.08   0
       604    526.0676     41.0099 307.7205382  +6.6726853     649.9353     981.3599     994.7233     78.52402     157.4879     315.1639      1.521     4.11     848.0704     55.56934      95.8363         7     0.897     0.537 -44.54   0
       605    957.4213   1020.0226 307.5084835  +6.2828828     5745.475     10114.05     10596.11     78.77529     157.4879     288.3786      1.876     3.98     873.3228     55.56934     644.1532        39     1.494     1.350  78.24  16
       606    940.0145     31.5338 307.5488696  +6.6904656     996.2489     1136.707      1142.21     78.52402     157.5506     315.1952      1.358     4.86     842.3294     55.56934     135.4255        10     1.051     0.636 -57.56   0
       607    691.4086     30.7155 307.6521898  +6.6824821     1880.155     2809.485     2131.356     78.64976     157.3623     315.1012      1.561     3.32     846.7225     55.56934     252.4006        18     1.136     0.977  35.02   0
       608    202.7827     26.5781 307.8553379  +6.6677723     806.9781     1063.942     534.7725     78.77529     157.5506     315.1952      1.422     3.64     860.3809     55.56934     122.1659        10     0.970     0.716 -80.61   0
       609    303.0916     36.5686 307.8133265  +6.6670246     1027.572      1456.51      1837.89     79.15071     157.4879     315.2579      1.543     4.50     859.7665     55.56934     140.4855         9     1.101     0.673 -52.78   0
       610    711.7429   1020.4701 307.6104641  +6.2744814     1059.229     1586.951     2037.777     79.15071      157.676     283.1223      1.704     4.65     877.3064     55.56934     142.3824        11     0.962     0.907  53.01  19
       611    717.1890   1017.9274 307.6082885  +6.2757137     2417.554     4180.597      4655.36     78.52402     157.2995     308.0286      1.874     4.22     877.2533     55.56934     302.6658        26     1.352     1.217 -75.68  18
       612    241.8976   1019.8817 307.8055358  +6.2589558      1382.11     2233.856      2310.67     78.90063     158.0515     289.8824      1.678     4.66     880.9608     55.56934     157.4056        15     1.211     1.007 -49.00  16
       613    726.3032     19.9388 307.6380543  +6.6881011     1867.139     2635.626     2870.784     78.77529     157.7386     315.3519      1.508     3.36     845.3722     55.56934     253.7971        18     1.113     0.998 -10.95   0
       614    732.6749   1017.2873 307.6018810  +6.2764965     892.2112     1373.372     1670.793     79.02577      157.989     312.3926      1.556     5.36     877.2039     55.56934     130.9245        13     1.455     0.758 -64.74  16
       615    440.4644   1019.0689 307.7231316  +6.2659643     789.4478     1211.844     865.4554     79.02577     157.7386     298.4482      1.520     4.33     881.0511     55.56934     117.7864         8     0.912     0.683 -34.16  16
       616    363.8125   1015.4929 307.7550732  +6.2648665     1830.258     2914.722      3149.29     78.77529     157.4251     315.0698      1.713     4.24     881.3188     55.56934     239.9315        22     1.312     1.145  73.56  16
       617    516.3102   1007.0182 307.6920505  +6.2734856     1122.768     1453.378      1659.34     78.77529     157.4251     315.1639      1.423     3.91     881.2934     55.56934     188.2225        14     1.128     0.943 -66.59   0
       618    331.3781     13.2412 307.8023625  +6.6776080     776.7014     1173.024     1170.905     78.64976     157.4879     315.0698      1.493     3.48     858.4555     55.56934     111.1667         6     0.721     0.644 -34.61   0
       619    296.4299   1004.1182 307.7834297  +6.2672985     14418.86     23280.77     26148.04     78.90063     157.4879     315.2579      1.821     3.70     880.7677     55.56934     1864.494        71     1.862     1.409 -43.84   0
       620    750.6290   1004.9699 307.5948409  +6.2821836     7433.368     12165.52     12727.56     78.52402     157.4251     315.0071      1.757     3.40     876.3761     55.56934     928.8588        45     1.530     1.291  84.92   0
       621    546.0873   1005.6168 307.6797357  +6.2750632     4008.774     6307.118      6785.42     78.77529     157.4251     315.1325      1.727     3.43     880.8731     55.56934     504.3104        28     1.371     1.118  73.68   3
       622    543.3300    997.7852 307.6811440  +6.2782044      8079.83     12878.52     13975.58     78.52402     157.6133     315.1639      1.718     3.44      880.673     55.56934     1024.516        42     1.424     1.276 -74.72   2
       623    811.5911   1004.4987 307.5695475  +6.2844181     1061.048     1938.464      2197.63     78.77529     157.2995     315.0698      2.165     6.49     874.5311     55.56934     164.3761        18     1.381     1.168 -72.49   0
       624    420.5912   1005.2469 307.7318474  +6.2710043       923.69     1458.875     1403.836     78.52402     157.6133     314.9129      1.766     3.72     880.3049     55.56934     154.6035        10     1.143     0.610 -54.61   0
       625    267.7902   1001.9095 307.7953935  +6.2672474     974.4048     1428.409     1070.005     78.77529     157.3623     315.0384      1.488     4.66     880.7188     55.56934     151.3577        12     1.242     0.792 -47.60   0
       626    911.9055    998.5819 307.5280989  +6.2902153     7883.596     13726.33     14811.98     78.90063     157.4879     315.1325      1.868     3.70     873.9556     55.56934     896.2956        46     1.535     1.401  88.94   0
       627    885.5726    994.6882 307.5391621  +6.2909429     11225.12     19078.14      20895.5     79.15071     157.4251     315.1639      1.886     3.59      873.851     55.56934     1312.054        57     1.597     1.506 -66.69   0
       628   1007.3969    994.1808 307.4886010  +6.2952223      4147.03     7450.504     7911.292     78.64976     157.2367     315.0698      1.918     4.05     870.2059     55.56934     453.5381        36     1.467     1.351  87.97   0
