#   1 NUMBER                 Running object number                                     
#   2 X_IMAGE                Object position along x                                    [pixel]
#   3 Y_IMAGE                Object position along y                                    [pixel]
#   4 ALPHA_J2000            Right ascension of barycenter (J2000)                      [deg]
#   5 DELTA_J2000            Declination of barycenter (J2000)                          [deg]
#   6 FLUX_APER              Flux vector within fixed circular aperture(s)              [count]
#   9 FLUXERR_APER           RMS error vector for aperture flux(es)                     [count]
#  12 FLUX_RADIUS            Fraction-of-light radii                                    [pixel]
#  13 FWHM_IMAGE             FWHM assuming a gaussian core                              [pixel]
#  14 BACKGROUND             Background at centroid position                            [count]
#  15 THRESHOLD              Detection threshold above background                       [count]
#  16 FLUX_MAX               Peak flux above background                                 [count]
#  17 ISOAREA_IMAGE          Isophotal area above Analysis threshold                    [pixel**2]
#  18 A_IMAGE                Profile RMS along major axis                               [pixel]
#  19 B_IMAGE                Profile RMS along minor axis                               [pixel]
#  20 THETA_IMAGE            Position angle (CCW/x)                                     [deg]
#  21 FLAGS                  Extraction flags                                          
         1     38.7549    122.3893 307.9369063  +6.6312899     429005.6      1912072      2749192     93.29999     187.1971     374.2451      3.327    10.38     1269.812     66.02589     58113.73       413     2.717     2.585  66.03   4
         2    679.8353     20.5107 307.6732551  +6.6947627     3067.645     6336.833      8211.42     94.04461     187.2716     374.5804      2.247     8.59     1231.804     66.02589     355.3931        30     2.310     0.908  35.73   3
         3    682.1567     17.7080 307.6723818  +6.6959970     2748.662     7852.593     12312.74     93.89616     187.3461     374.7294      3.208     9.97     1231.751     66.02589     287.8254        51     2.685     1.345  33.59   3
         4    687.8654     23.9586 307.6697941  +6.6936065     3463.345     8929.978     11973.56     93.89616     187.2716     374.6921      3.495    17.14     1231.858     66.02589     380.1995        74     5.144     1.720 -81.97  19
         5    691.3136     22.2610 307.6684143  +6.6944222     2683.174     5506.159     7417.213     94.04461     187.4949     374.6549      2.896     8.25     1231.822     66.02589     295.4872        30     2.436     1.015  72.46   3
         6    291.0990     19.7485 307.8352372  +6.6821089     2132.942     5393.744     8194.186     93.89616     187.3461      374.841      3.020    10.74     1261.022     66.02589     261.2802        46     2.686     1.682  32.61   3
         7    453.1871     18.1940 307.7677608  +6.6881644     2295.082     4952.981     7457.006     93.44939     187.1226     374.4314      2.768    11.27     1243.775     66.02589     236.3926        40     3.113     1.137  32.89  18
         8    712.5510     16.1089 307.6597719  +6.6976689     6401.122     18077.47     31428.21     93.89616     187.1226     374.7666      3.641     8.57     1231.715     66.02589     686.3999       121     3.020     2.367 -34.18  16
         9     96.5488     14.7316 307.9164563  +6.6776699     1051.478      2177.77     3183.556     93.74747     187.1971      374.506      2.324     6.73     1264.104     66.02589     135.8085        13     1.452     0.875  19.43   2
        10     98.8344     11.4216 307.9156156  +6.6791129      1065.25     2192.446     3777.422     93.29999     187.1226     374.2824      3.337     7.26     1263.931     66.02589     148.6464        14     1.785     0.826  23.08  18
        11    187.3943     12.0376 307.8787006  +6.6818236     1547.914     3732.268      6710.38     92.85034      187.048     374.2824      3.974    15.66      1260.22     66.02589     180.6249        48     3.502     1.947  79.71  18
        12    190.0211     10.0000 307.8776749  +6.6827527     1518.449     2830.138      4665.59     93.29999     186.8988     374.1706      2.543     5.60     1260.208     66.02589     169.0072        15     1.259     1.018 -21.95   3
        13    920.4694      6.5443 307.5734636  +6.7085297     853.1553     2359.358     3942.084     93.89616     187.1971     361.1562      3.555     8.18      1226.52     66.02589     142.9415        12     1.620     1.154  43.26  18
        14    295.3268    981.6716 307.8011753  +6.2851290     2100.702     5419.686     6283.218     94.19283     187.4949     374.6177      2.579     6.96     1291.752     66.02589     229.2971        39     1.688     1.673  46.59   0
        15    948.3670   1022.3403 307.5279524  +6.2900761     5952.303     10531.26     11052.05     93.74747     170.4236     306.5422      1.883     4.50     1289.301     66.02589     661.1985        33     1.649     1.185  17.24  24
        16    579.9871   1021.9932 307.6813222  +6.2779748     4292.427     9127.204     10392.66     93.44939     174.6282     312.4469      2.247     5.81     1291.824     66.02589     485.4172        44     1.992     1.364  12.55  24
        17    820.6469    981.5370 307.5824855  +6.3026819       834.18     1654.744     2057.514     93.74747     187.1971     374.6549      1.995     5.14     1287.675     66.02589     131.4875         8     1.233     0.736  75.79   0
        18     64.9502    978.9623 307.8971684  +6.2785455     985.9111     2405.033     2983.966     93.59855     187.1971     374.3942      2.433     6.26     1288.794     66.02589     142.1302        12     1.637     0.717  40.86   2
        19   1006.5282    975.1834 307.5053102  +6.3114745     589.7513     816.8165     521.8524     93.29999     187.2716     374.4687      1.493     4.72     1286.793     66.02589     83.79919         6     0.967     0.653  12.42   0
        20    607.8135    972.3257 307.6713994  +6.2994067     747.4479     1648.033     2468.249     93.29999      187.048     374.3569      2.432     5.09     1290.026     66.02589     105.7587         7     1.239     0.590  19.71   0
        21    328.2674    967.1375 307.7879500  +6.2922292     617.2427     1180.674     1729.309     93.89616     187.2716     374.5804      2.475     5.84     1291.399     66.02589      95.7655         6     1.438     0.668  61.43   0
        22    930.7448    960.3052 307.5373571  +6.3151032     4525.642     9669.053     10431.63     93.74747     187.3461      374.841      2.273     5.17     1285.993     66.02589      510.401        45     1.828     1.449  49.71   0
        23    368.7187    956.2994 307.7714735  +6.2980538     4303.405     12224.83     14766.14     93.89616     187.8666     374.6921      2.701     7.01     1291.197     66.02589     489.7239        62     2.121     1.846  56.83   0
        24    467.1664    956.9851 307.7304660  +6.3010544     1033.276     2612.774     2408.733     93.44939      187.048     374.4314      2.660     7.54     1290.946     66.02589     139.0356        17     1.902     0.836  17.14   0
        25    288.7844    955.4036 307.8047803  +6.2957551     3062.491     8821.917     10677.76     93.44939     186.8988     374.3942      2.696     7.09     1290.718     66.02589     394.4615        55     2.042     1.788  40.33   0
        26    618.2895    948.2084 307.6678448  +6.3097124     593.7776     1113.243     1226.352     93.44939     186.9734     374.2824      1.707     2.92     1288.842     66.02589     108.6967         5     0.827     0.626  38.68   0
        27    946.0615    946.1707 307.5314515  +6.3214471     533.6726      1278.96     1865.376     93.59855     187.3461      374.506      2.483     5.00     1285.245     66.02589     90.91626         5     1.520     0.465 -24.49   0
        28    783.1292    937.7330 307.5995675  +6.3195201     887.2236     1932.778      2809.72     93.89616     187.4205     374.5804      2.580     4.34     1286.425     66.02589     138.4293         9     0.988     0.690 -24.46   0
        29   1014.1384    934.4577 307.5034986  +6.3285410     810.3636      1605.25     2115.683     94.04461     187.2716     374.6177      2.039     4.14     1284.605     66.02589     125.2664         6     1.028     0.476 -55.27   0
        30    701.6652    932.0558 307.6336733  +6.3191554     1318.135      3308.07      3893.11     94.04461     187.2716     374.5804      2.568     8.50     1287.249     66.02589     168.7833        25     1.739     1.448 -76.23   0
        31     98.9493    928.4854 307.8847123  +6.3005220     1475.794     3682.618     4519.079     93.89616     187.2716     374.6177      2.612     9.03     1288.043     66.02589     177.5564        29     1.979     1.296  46.06   0
        32    242.9584    926.7028 307.8248212  +6.3060732     983.5439     2215.947      2976.29     93.89616     187.1971      374.841      2.329     6.60     1289.104     66.02589     138.0012        13     1.724     0.709  47.90   0
        33    116.3663    927.5561 307.8774929  +6.3014884     878.2172     2096.297     1876.582     93.44939     187.3461     374.4314      2.320     7.79     1288.065     66.02589     133.5388        13     1.667     1.019   2.09   0
        34    696.0490    921.1045 307.6363775  +6.3234900     3283.378     8665.829      10104.8     93.74747     187.1971     374.7666      2.495     6.09     1286.696     66.02589     371.9022        54     1.931     1.776  22.70   0
        35    933.5703    917.2344 307.5376168  +6.3329793     1823.279     3972.653     4150.856     93.29999      187.048     374.3569      2.219     5.97     1283.775     66.02589     191.5007        27     1.574     1.286  55.61   0
        36    379.2391    914.6605 307.7684899  +6.3155954     6488.848     19895.09     24152.84     93.89616     187.3461     374.6549      2.788     7.02     1290.141     66.02589     839.0708        73     2.189     1.944  43.00   0
        37    115.2734    915.3515 307.8783582  +6.3064904      524.002     1447.253     1651.538     93.89616     187.4205     374.6177      2.342     6.62     1287.478     66.02589      103.415         7     1.846     0.665  50.54   0
        38     69.7266    916.3965 307.8972841  +6.3045348     504.0073     1211.771     1623.491     93.29999     186.8241     374.3942      2.140     4.11     1286.743     66.02589      103.924         6     1.450     0.332  44.35   0
        39    143.6398    904.1709 307.8669250  +6.3120551     692.9025     1463.037     1954.682     93.44939      187.048     374.4314      1.774     5.18     1287.259     66.02589     118.8357         7     1.672     0.453  23.96   0
        40    127.4362    898.4338 307.8738635  +6.3138815     1231.239     2791.656     3926.247     93.59855      187.048     374.2824      2.659     6.48     1286.851     66.02589     164.5392        19     1.667     1.075  49.46   2
        41    923.7427    898.7864 307.5423237  +6.3402696     1202.395     2882.499     3383.457     93.15034     187.1971     374.2078      2.395     5.99     1283.013     66.02589     150.9402        16     1.306     1.076 -46.05   0
        42    895.0893    898.4124 307.5542661  +6.3394729     1170.185      2497.07     2353.436     93.59855      187.048     374.4687      2.113     5.43     1283.133     66.02589     169.6519        14     1.413     0.704 -81.84   0
        43    858.4460    897.8017 307.5695429  +6.3385083     1586.984     3920.991     4469.186     93.15034     186.9734     374.1333      2.470     6.73     1283.383     66.02589     191.7786        28     1.609     1.488 -85.65   0
        44    594.2593    889.6320 307.6798089  +6.3330959     139403.3     409763.8     507643.2     93.59855     187.4205     374.5432      2.790     6.59     1287.659     66.02589     15335.93       179     2.320     2.130  36.81   0
        45    438.6308    892.3799 307.7445104  +6.3267751     2982.827     9170.673     11054.65     93.29999     187.1226     374.4314      2.719     7.18     1289.156     66.02589     382.7098        56     2.033     1.864  44.67   0
        46    381.8465    890.7934 307.7682046  +6.3255358     4549.784     14779.78     19027.46     93.29999     187.1226     374.1706      2.912     6.97     1289.517     66.02589     586.0436        70     2.235     1.930  37.31   0
        47    700.2513    886.5303 307.6357835  +6.3379039     1699.037     4618.378     5492.283     93.74747     187.1971     374.5804      2.665     8.96      1284.62     66.02589     195.8931        35     1.816     1.651  24.35   0
        48    932.2084    885.2780 307.5392494  +6.3461277     3096.543     7408.726     8807.407     93.44939     186.7494     374.3942      2.533     6.42     1282.304     66.02589     336.5575        42     1.920     1.510  20.77   0
        49    675.0763    880.8011 307.6464565  +6.3394317     1528.734     4381.587     5459.463     93.00047     186.6747     374.3942      2.839     8.83     1284.824     66.02589     182.3365        32     1.883     1.553  -8.18   0
        50    864.5623    879.1976 307.5676172  +6.3463924     741.6591     1739.964     1500.893     92.85035     187.1226     374.3569      1.912     3.46     1282.344     66.02589     111.3247         5     1.233     0.280  35.72   2
        51    665.6438    878.5397 307.6504594  +6.3400515     767.6743     1668.085     3563.287     93.74747     187.3461     374.7294      4.277     5.47     1285.047     66.02589     127.4701         9     1.291     0.742 -35.08   3
        52    667.8353    874.5484 307.6496804  +6.3417723     920.2823     2236.502     3852.357     93.74747     187.3461      374.506      3.359     7.44     1284.768     66.02589      112.942        15     1.668     0.930   0.62   2
        53    950.9927    872.9269 307.5318402  +6.3518503     1774.402     4025.918     4091.935     93.44939     186.8241     374.4687      2.304     5.81      1281.36     66.02589     246.3519        27     1.567     1.278 -69.58   0
        54    410.3310    869.0384 307.7570749  +6.3354677     972.2501      3053.43     3746.348     93.74747     187.3461     374.7294      2.858    10.10     1288.697     66.02589     143.3754        23     2.071     1.374   2.82   2
        55    545.3292    861.5482 307.7011205  +6.3430606     927.9154     2231.657     3297.194     93.74747     187.3461     374.6177      2.556     7.41     1287.347     66.02589      119.662        12     1.991     0.772  19.20   3
        56    546.7850    858.3763 307.7006205  +6.3444186       1226.1     2907.019     4167.237     93.59855     187.1226     374.4687      2.776     8.61     1286.945     66.02589     152.2596        24     1.826     1.134  23.19   2
        57    592.8196    855.4129 307.6815532  +6.3471754     2525.918     7472.286     10145.56     93.59855      187.048     374.4687      2.989     7.77     1286.249     66.02589     283.6838        56     2.125     1.852   2.12   0
        58    511.9916    853.8466 307.7152584  +6.3451294     674.4463     1475.691     2054.263     93.29999     187.2716     374.1706      2.473     5.76     1286.935     66.02589       79.073         7     1.376     0.680  47.56   0
        59    928.0485    853.1635 307.5420524  +6.3592485     625.2622     1666.032     1905.928     93.74747     187.2716     374.4314      2.759     3.77     1280.722     66.02589     113.2687         5     0.806     0.506 -50.09   0
        60    563.3273    849.3516 307.6940353  +6.3486956     7660.997      23724.4      30121.4     93.89616     187.4205     374.6177      2.846     7.27     1285.921     66.02589     825.7928        87     2.221     2.067  39.90   0
        61    152.6813    852.8624 307.8648852  +6.3335397      650.112     1607.927     1987.689     94.04461     187.3461     374.5432      2.563     5.72     1285.666     66.02589     108.6555         7     1.443     0.639  32.53   0
        62    976.6722    847.2011 307.5220057  +6.3633235     2203.289      5209.09     5771.267     93.15034     186.8241     374.3942      2.396     6.29     1279.183     66.02589     268.1281        36     1.805     1.448  31.79   0
        63    355.5588    840.9985 307.7808189  +6.3452162     967.9459     1862.681     2625.849     93.15034     186.9734     374.2078      1.848     3.80     1287.508     66.02589     148.7592         6     1.228     0.338  40.36   2
        64    356.7625    837.3442 307.7804403  +6.3467651     1367.327     3089.171     4352.973     93.89616     187.4205     374.6177      2.879     8.24     1287.234     66.02589     171.8373        22     1.928     0.984  24.93   2
        65     75.6664    839.5151 307.8973970  +6.3364731      722.223     1278.018     792.7278     94.04462     187.6437     374.6549      1.741     4.01     1284.271     66.02589     135.7157         6     1.110     0.415  53.14   0
        66    821.3583    833.5640 307.5871289  +6.3637976     25816.46     69135.52     82578.69     93.59855     187.3461     374.3942      2.656     6.16     1280.006     66.02589     2780.851        98     2.138     1.959  43.15   0
        67    278.3367    810.7113 307.8139862  +6.3551415     675265.4      2498802      3374652     93.74747     187.5693     374.6177      3.140     9.96     1285.922     66.02589     63544.58       592     2.878     2.478  66.96   4
        68     56.9749    835.6051 307.9053102  +6.3374616     972.6019     2282.868     2785.753     93.29999      187.048     374.3942      2.285     6.92     1284.073     66.02589      144.359        13     2.083     0.645  35.27   0
        69    946.5938    828.6553 307.5351479  +6.3699825      4363.54     11200.26     13549.69     93.29999      187.048     374.2078      2.559     6.49     1278.802     66.02589     471.1965        54     2.018     1.675  46.81   3
        70    943.6655    820.2673 307.5366469  +6.3733484     3624.887     8923.554      10513.4     93.89616     187.3461     374.6177      2.500     5.70     1278.324     66.02589     411.2251        51     1.872     1.681  55.65   3
        71    744.5811    825.4556 307.6193674  +6.3645933     32986.93     105956.4       157605     93.29999     187.3461     374.3569      3.267     8.67     1280.114     66.02589     3954.334       173     3.583     2.064  29.84   0
        72    386.5092    827.4937 307.7683858  +6.3518246     5461.973     10028.46     11097.96     93.89616     187.9408     374.5804      2.014     7.42     1286.446     66.02589     605.6746        23     1.730     0.915  52.23   3
        73    389.2816    825.0234 307.7673143  +6.3529369     8324.683     18830.37     25195.61     93.59855     186.9734     374.4687      2.632     7.60     1286.313     66.02589     882.1359        67     2.557     1.676  38.96   3
        74      1.9817    828.4848 307.9284447  +6.3385595     1435.337     2594.226      2239.89     89.95044     159.9517     294.1407      1.867     7.70     1283.461     66.02589     219.8169        18     1.751     0.947  88.09  24
        75    450.2867    823.8183 307.7419551  +6.3554695     7724.493      25498.7     32886.66     93.59855      187.048     374.4314      2.960     7.48     1285.623     66.02589     919.0786        88     2.289     2.119  43.60   0
        76    987.0047    821.7172 307.5185530  +6.3741876     1293.412     2781.147      2860.24     93.29999     186.8988     374.2824      2.039     8.04     1277.337     66.02589      170.374        19     1.789     1.011  54.14   0
        77    684.2158    819.3586 307.6447054  +6.3651027     2516.485     7575.692     9468.746     93.29999      187.048     374.3196      2.819     7.69     1281.168     66.02589     323.7913        53     2.014     1.870  24.24   0
        78    472.3091    818.0309 307.7329799  +6.3585932     492.7354     1824.916     2594.555     94.04461     187.1226     374.5432      3.394     6.48     1284.852     66.02589     90.60278         7     1.878     0.628 -68.40   0
        79    718.9841    809.2111 307.6305681  +6.3704488     1093.609     3204.153     4484.922     93.59855     186.9734     374.4687      2.840     9.96     1279.777     66.02589     151.2744        26     1.874     1.476 -76.15   0
        80    453.1529    806.5222 307.7413414  +6.3627058     18687.83     62705.95      82789.1     93.74747     187.4205     374.5804      3.008     7.68     1284.461     66.02589     2174.176       115     2.402     2.202  32.78   0
        81    570.7487    805.3997 307.6924164  +6.3670885     2427.397     8186.633     10489.96     93.00047     186.8241     374.0587      2.944     7.52     1281.444     66.02589     327.2449        60     2.144     1.924  44.18   0
        82    487.5056    803.4935 307.7271397  +6.3651016     1637.243      5057.77     8202.493     93.89616     187.9408     374.5432      3.583    10.86     1283.408     66.02589     196.6793        50     2.536     1.737  60.32   2
        83    484.6392    796.3858 307.7285713  +6.3679405     930.7165     2245.079     3045.987     93.29999     187.1226     374.2824      2.930     8.49     1283.185     66.02589     125.2749        14     2.117     0.952  19.03   2
        84    815.9703    801.7936 307.5904331  +6.3767353     5124.599     14512.29     17717.85     93.29999      187.048     374.3196      2.679     6.62     1277.993     66.02589     569.6399        66     2.004     1.917  37.69   0
        85    183.0450    793.6803 307.8542325  +6.3589878     1133.911     2833.625      3856.22     93.89616     187.3461     374.5804      2.786    12.31     1284.213     66.02589     166.4608        28     2.704     1.560  40.97   3
        86    173.4611    796.6373 307.8581234  +6.3574466     3226.035     7360.103     10327.14     93.89616     187.4205     374.5804      3.715    14.17     1284.063     66.02589     327.7822        49     4.841     1.154  31.03   3
        87    175.1977    793.4882 307.8575061  +6.3588047     4632.358     10436.99     15527.41     93.15034     186.8988     374.2824      3.461    13.18     1284.031     66.02589     549.4783        69     4.244     1.138  28.42   3
        88    961.5320    790.1898 307.5302104  +6.3863591     3477.266       8621.1     9676.259     93.29999     187.1226     374.4314      2.485     5.68     1275.996     66.02589     435.4075        50     1.865     1.664  57.76   0
        89   1010.1329    788.8903 307.5100168  +6.3885077     667.8761     1617.578     2215.301     94.04461     187.4949     374.5804      2.514     6.31     1274.869     66.02589     91.18274         8     1.123     0.995  49.02   0
        90    606.1030    786.9080 307.6783147  +6.3759003     827.4301     1802.267     3084.173     93.89616     187.9408     374.5432      3.487     4.95     1280.052     66.02589     119.4535         8     0.883     0.785  61.53   0
        91    985.1103    781.6653 307.5206768  +6.3906607     1807.166     4149.198     4535.122     93.74747     187.5693     374.6177      2.331     6.10     1275.062     66.02589     218.0801        32     1.629     1.478  -7.91   0
        92    955.8411    782.1675 307.5328476  +6.3894823     1491.955     3734.447      4052.72     93.44939     187.2716     374.4314      2.460     7.27     1275.626     66.02589     165.9348        28     1.663     1.410  69.20   0
        93   1015.8447    781.1522 307.5078963  +6.3918919     995.9117      2250.72     2736.441     93.89616     187.2716     374.5432      2.216     8.19      1274.42     66.02589     112.2496        17     1.692     1.108  73.16  16
        94    278.5533    778.7647 307.8149684  +6.3683377     849.1286      1708.98     2968.445     93.44939     187.2716     374.4314      3.175     5.43      1284.56     66.02589     121.0276        10     1.337     0.622  59.81   0
        95    283.0781    777.3989 307.8131303  +6.3690528     641.2234     1493.476     2448.033     93.00047     186.6747     374.3569      2.292     4.28     1284.499     66.02589     111.1786         5     1.099     0.475 -60.93   2
        96    280.5246    775.2079 307.8142671  +6.3698720     649.1118     1204.117     2495.359     93.44939     186.7494     374.3569      1.956     4.45     1284.417     66.02589     89.24023         5     0.858     0.657 -45.69   3
        97   1000.0798    769.4167 307.5148518  +6.3962142     1277.106     3469.569     4163.835     93.44939      187.048     374.4314      2.849     9.66     1274.175     66.02589     145.6298        26     1.835     1.417 -39.81   2
        98    929.7329    758.3411 307.5445135  +6.3984530     788.0542     2091.328     2234.114     94.04461     187.2716     374.5804      2.329     8.37     1274.365     66.02589     105.5232        12     1.846     1.060 -28.79   0
        99    886.2882    749.0682 307.5629133  +6.4008392     915.9627     2103.079      2496.35     94.04461     187.6437     374.6177      2.682     6.23     1274.067     66.02589     126.1796        13     1.345     0.811 -17.92   2
       100     86.3047    749.2433 307.8960041  +6.3740967     1157.507     3040.312     4159.446     93.89616     187.2716     374.7294      3.017     9.30     1281.275     66.02589     153.9122        20     1.675     1.442  14.76   0
       101    697.9540    737.9652 307.6417063  +6.3991636     2430.719     7744.314     10594.64     93.44939     187.2716     374.4314      3.103     8.24      1276.39     66.02589     274.5978        62     2.246     1.947  40.98   0
       102    162.6353    733.5825 307.8647498  +6.3831161     1501.126     3538.904     5150.364     93.29999     187.1226     374.3196      2.945     7.27     1282.866     66.02589     217.8687        24     1.978     1.257  60.27   2
       103    671.1039    735.6888 307.6529626  +6.3992101     687.7728     1475.809     2128.099     93.89616     187.7923     374.6177      3.069     6.06     1277.164     66.02589     124.6151         8     1.269     0.828  53.42   0
       104    814.8902    729.8381 307.5932855  +6.4064069     7977.966     24280.42     30319.38     93.89616     187.2716     374.6177      2.843     6.76     1273.531     66.02589     916.6274        82     2.196     2.037  34.93   0
       105    943.9954    731.3080 307.5394761  +6.4100873     1050.769     1822.481      2399.75     93.44939     186.9734     374.3196      1.943     5.63       1272.4     66.02589     171.5063        11     1.558     0.574  28.22   3
       106    945.1981    728.4905 307.5390693  +6.4112904     1614.716     3666.744     4607.019     93.00047     186.9734     374.3196      2.445     7.32     1272.201     66.02589     191.2141        24     1.904     0.978  29.77   2
       107    286.4614    725.0092 307.8134803  +6.3907946     1714.569     3536.461     4103.938     93.15034     187.1971     374.3196      2.326     7.85     1282.121     66.02589     210.1089        21     1.676     1.029  60.10   3
       108    289.9733    722.7164 307.8120950  +6.3918585     2068.323     4649.059     6377.062     93.74747      187.048      374.506      2.605     9.07     1281.982     66.02589     239.6393        37     2.232     1.448  49.45   3
       109    695.7007    722.7266 307.6431540  +6.4053800     2717.166     8252.227     11002.62     93.44939     187.4949     374.5432      3.016     7.99      1275.34     66.02589     287.0869        58     2.163     1.875  79.70   0
       110    767.9269    710.6781 307.6134813  +6.4127564     1544.975     4555.602     6179.086     94.19283     187.6437     374.6177      3.164    10.11     1272.748     66.02589     171.4874        34     2.228     1.280   7.69   2
       111    972.1622    707.5375 307.5285398  +6.4208358     1218.446     2950.352     3073.464     93.89616     187.4205     374.5804      2.286     9.40     1270.856     66.02589      147.752        22     1.880     1.312  46.76   0
       112    110.2302    705.5980 307.8875104  +6.3929159     6480.452     13619.87     15991.73     93.29999     187.1226     374.3569      2.271     7.46     1279.179     66.02589     694.2333        38     2.319     0.970  33.97   3
       113    112.3082    702.2266 307.8867585  +6.3943773      9864.29     21158.37     25962.44     94.04461      187.048     374.3942      2.421     7.25     1278.973     66.02589     1066.342        62     2.575     1.247  34.68   3
       114     54.0257    706.3480 307.9108868  +6.3907248     806.9722     1856.758     2941.454     93.44939     187.4949     374.4687      2.993     5.52      1279.61     66.02589     122.9243         8     1.386     0.620  49.92   0
       115    571.7283    702.4571 307.6954543  +6.4096213     764.7759     1868.404     2480.756     94.04462     187.3461     374.5432      2.799     7.09     1276.704     66.02589     101.7802        10     1.578     0.892 -87.35   0
       116    755.3265    696.5709 307.6191996  +6.4181617     1193.169     2339.435     3662.617     93.74747     187.3461     374.5432      2.443     7.62     1271.911     66.02589     178.9988        14     2.020     0.805  18.82   3
       117    756.4799    692.7491 307.6188471  +6.4197779     1151.922     2695.784     4110.014     93.89616     187.4205     374.5804      3.117     9.45     1271.614     66.02589     156.0398        23     2.151     1.159  31.29   2
       118    778.6793    693.0999 307.6095912  +6.4203711     1409.504     4842.231     6157.614     93.59855     187.6437     374.6177      2.939    10.35     1271.333     66.02589     175.7821        42     1.971     1.831 -28.75   0
       119    610.1140    690.4651 307.6798718  +6.4158507     1081.371     3382.072     4506.316     94.04461     187.5693     374.6177      2.933    10.08     1275.638     66.02589      124.286        24     2.020     1.401 -72.98   2
       120   1016.9761    687.7092 307.5105392  +6.4305086     4230.486     10312.76     11342.78     93.89616     187.1226     372.9008      2.408     5.68      1269.53     66.02589     464.3606        52     1.894     1.651  65.20  16
       121    174.8615    684.2784 307.8613162  +6.4038797     6023.713     12957.35     14227.04     94.04461     187.4205     374.5432      2.232     7.34     1278.967     66.02589     627.8651        38     2.259     1.030  33.12   3
       122    176.8420    680.8395 307.8606072  +6.4053657     8422.625     19876.32     24684.23     93.59855     187.3461     374.4314      2.524     7.55     1278.738     66.02589      910.592        61     2.594     1.278  31.73   3
       123    465.3317    682.3035 307.7404331  +6.4143956     817.0234     1483.199     2600.057     93.74747     187.4949     374.6177      3.339     5.92     1277.818     66.02589     132.6907         7     1.531     0.644 -36.38   3
       124    462.8270    680.7899 307.7415268  +6.4149370     1148.544     2367.614     3668.318     93.44939     187.1226     374.4314      2.870     6.94     1277.761     66.02589     180.5829        13     2.072     0.652 -49.59   2
       125   1011.8577    670.6522 307.5132392  +6.4373811     3648.562     9513.542     10330.29     93.89616     187.3461     374.5804      2.550     6.32     1268.377     66.02589     412.2732        47     1.881     1.650  24.18  16
       126    605.6066    666.4475 307.6825524  +6.4256164     14903.13     53970.98     72150.09     93.29999     187.1226     374.1706      3.091     7.98     1273.875     66.02589     1714.491       108     2.414     2.255  38.96   0
       127    215.4156    666.7118 307.8450204  +6.4124880     686.4349     1200.815     2416.914     93.59855      187.048     374.4314      1.468     3.40     1277.905     66.02589     105.8829         5     0.735     0.454 -70.70   3
       128    214.7174    662.5626 307.8454505  +6.4141776     1121.309     2444.411     3883.789     93.89616     187.2716     374.5432      3.291     7.44     1277.751     66.02589     142.2173        17     1.663     0.932  28.24   2
       129    501.6411    652.3286 307.7263180  +6.4279814     16791.76     34547.36     38427.56     93.74747     187.3461     374.6549      2.183     6.73     1274.896     66.02589     1928.511        50     2.237     1.099  36.65   3
       130    504.1436    649.1432 307.7253826  +6.4293799     20536.66     48218.35     60405.12     94.04461     187.3461     374.6549      2.548     7.85     1274.623     66.02589     2040.428        75     2.681     1.335  32.54   3
       131     47.0548    650.6605 307.9156633  +6.4134812     822.7211     1504.024     2308.688     94.04461     187.2716     374.5432      2.857     6.74     1277.469     66.02589     106.2517         8     1.287     0.990 -83.69   0
       132    179.3534    644.7302 307.8607751  +6.4203570     577.5356      1368.82     1986.593     93.89616     187.2716     374.5804      1.914     4.11     1277.056     66.02589     114.1714         5     1.569     0.308  39.37   0
       133    350.9038    638.5486 307.7895487  +6.4286416     693.9327      1753.69     3768.286     93.74747     187.2716      374.841      3.890     5.33     1275.083     66.02589     116.6892         7     1.151     0.704  49.38   2
       134    773.2546    635.2414 307.6137832  +6.4440781     1705.874     3514.974     4806.126     93.74747     187.3461     374.6177      2.183     7.71     1268.298     66.02589     181.3405        20     2.031     0.819  25.57   3
       135    775.7727    632.5161 307.6128256  +6.4452870     2023.551     4538.872     5908.273     93.89616      187.048     374.4314      2.487     7.27     1268.195     66.02589      224.501        35     2.152     1.182  30.26   3
       136    827.0105    630.4734 307.5915566  +6.4478333      4342.33     8225.532     9870.739     93.29999     186.8988     374.4314      2.053     5.88     1267.895     66.02589     588.1093        29     1.878     1.009  32.87   3
       137    829.0743    627.6237 307.5907923  +6.4490784     5127.577     11518.26     13584.05     93.44939     187.1226      374.506      2.371     6.72     1267.818     66.02589     605.7625        46     2.393     1.187  27.58   3
       138    655.0013    626.5602 307.6633180  +6.4437285     947.6161     1981.254      3408.96     92.85034      187.048     374.2078      3.582     7.32     1268.803     66.02589     107.6835        11     1.969     0.762  25.36   2
       139    652.4723    629.2773 307.6642803  +6.4425226     884.1068     1953.397     2951.438     94.19283     187.6437     374.5804      2.969     6.81     1269.021     66.02589     123.5869        10     1.589     0.818  32.76   2
       140    967.5592    623.9205 307.5332448  +6.4552054     732.4435     1592.835     2415.795     93.74747     187.3461     374.5432      2.502     6.31     1264.557     66.02589     104.3654         8     1.482     0.756 -50.27   0
       141    904.3547    612.2770 307.5599546  +6.4579147     1123.394     3381.104     3974.402     93.74747     187.4205     374.5804      2.767    10.57     1265.401     66.02589     121.4658        30     1.811     1.721  14.51   0
       142    863.5703    609.9013 307.5770184  +6.4575412     919.5123      3046.53     3668.618     93.89616      187.048     374.6177      2.729     9.64     1267.161     66.02589     134.4135        23     2.054     1.463 -43.72   0
       143    292.3119    608.3101 307.8149620  +6.4391686      1421.42     1824.641     2627.808     93.59855     187.9408     374.6921      1.301     3.42     1272.926     66.02589     231.4656         7     0.944     0.492  -7.05   3
       144    291.7816    604.2537 307.8153190  +6.4408255     2349.706     7398.268     10634.62     93.29999     187.3461     374.3196      3.174     9.97     1272.648     66.02589      317.682        60     2.373     2.113  -8.05   2
       145    843.6309    600.7397 307.5856280  +6.4606613     57543.51     184235.5     236358.5     93.59855     187.3461     374.5432      2.946     7.18     1266.353     66.02589     6205.875       178     2.465     2.324 -11.23   0
       146    224.6039    601.9189 307.8433712  +6.4395443     13596.68     31514.32     36384.54     93.29999     186.8241     374.2451      2.363     7.61     1274.892     66.02589      1422.16        48     2.405     1.123  34.40   3
       147    226.8979    598.5251 307.8425299  +6.4410221     19878.12     46411.69     58718.33     93.44939     187.4949     374.5804      2.538     7.83      1274.49     66.02589     2069.472        77     2.759     1.311  34.25   3
       148      1.7812    599.8719 307.9362244  +6.4329319     951.1798     1964.718     2758.732     87.59325     156.6025     290.3698      2.493     7.39     1275.214     66.02589     126.0035        14     2.018     0.758  60.43  27
       149      5.3040    597.6694 307.9348316  +6.4339592     1588.717      3601.05      4892.48     93.74747     187.4949      346.932      2.632     9.54     1275.206     66.02589     196.1982        28     2.305     1.102  50.55  18
       150    148.7851    598.2764 307.8750653  +6.4385125      1683.08     3391.557     4197.749     93.29999      187.048     374.3942      2.202     7.31     1274.993     66.02589     189.5715        22     1.884     0.876  25.04   3
       151    151.0262    595.3254 307.8742314  +6.4398057     1950.114     5149.772     7027.692     93.44939     187.2716     374.5432      2.801    10.11     1274.846     66.02589      207.307        39     2.488     1.203  32.08   3
       152    398.4303    589.2186 307.7714127  +6.4505938     4304.374     9922.413     11553.54     93.44939     187.1226     374.4314      2.312     8.13     1271.324     66.02589      480.257        37     2.208     1.053  24.86   3
       153    400.1782    585.3598 307.7708142  +6.4522452     5280.357     13276.03     18345.29     93.44939     187.1226     374.3569      2.802     8.77     1271.061     66.02589      561.517        54     2.667     1.335  24.50   3
       154    880.2663    587.8033 307.5708030  +6.4672191     1731.599     5083.505     6383.175     93.15034     186.9734     374.3196      2.802     8.93     1264.588     66.02589     189.4518        40     1.882     1.712  70.17   0
       155    565.3866    581.1835 307.7021555  +6.4594782     1791.441     6547.961     9411.998     93.59855     186.9734      374.506      3.263    10.28     1268.381     66.02589     228.3669        64     2.247     2.151 -79.44   0
       156    202.2393    584.5847 307.8532666  +6.4459529     914.0852     2060.427     3887.193     93.59855     187.1226     374.2824      3.861     6.67     1273.497     66.02589     98.03589        15     1.386     0.901  26.55   0
       157    833.5143    583.0358 307.5904323  +6.4676344     1698.262     3244.617     4520.967     93.89616     187.2716     374.5804      2.226     6.34     1264.617     66.02589     214.9415        20     1.599     0.930  38.09   3
       158    834.1968    579.6729 307.5902604  +6.4690455      2065.74      4562.76      6265.76     93.29999     186.8241     374.3942      2.761     9.43     1264.327     66.02589     247.8796        33     2.407     1.100  26.91   2
       159    306.6818    573.7169 307.8101395  +6.4539302      21308.3     49838.32     58334.19     93.59855     187.6437     374.6921      2.406     7.97     1270.567     66.02589     2275.261        62     2.410     1.210  32.53   3
       160    308.7336    570.0126 307.8094094  +6.4555281     27233.09     67209.28     85047.74     93.29999     187.1226     374.4687      2.624     8.12      1270.29     66.02589     2862.768        76     2.767     1.290  30.93   3
       161    210.5091    576.8354 307.8500833  +6.4494286     1681.991     3503.146     6107.615     94.04461     187.1971     374.6177      2.901     7.95     1272.522     66.02589     192.7267        21     1.789     1.013  57.31   3
       162    213.5286    573.5641 307.8489359  +6.4508801     2390.699     5555.897     8489.293     93.74747     187.3461     374.6177      3.207     9.33     1272.136     66.02589     276.3566        44     2.610     1.436  47.48   2
       163     83.1205    576.0480 307.9031563  +6.4454915     1345.348     3082.347     4489.311     93.89616     187.4205      374.506      2.667     7.59     1273.919     66.02589      209.506        23     1.907     1.122  27.92   3
       164     87.0000    573.9781 307.9016105  +6.4464759      1287.76     2278.099     2963.146     93.29999     186.8988     374.1706      1.859     4.87      1273.77     66.02589     208.3967        11     1.394     0.606  80.11   3
       165     84.3204    571.6290 307.9028053  +6.4473560     1409.063     2964.592     4376.491     93.74747     187.3461     374.5432      2.415     6.48     1273.748     66.02589     184.8849        16     1.597     0.738  44.75   3
       166    608.8824    575.7286 307.6842245  +6.4631790     672.3574     1706.125     2773.886     94.19283      187.718     374.6177      1.699     3.46     1266.714     66.02589     102.5057         5     1.563     0.221  26.85   2
       167    610.1079    571.9241 307.6838415  +6.4647906     750.7116     1654.445     3055.346     93.74747     187.5693     374.5804      3.185     5.03     1266.623     66.02589     114.6272         6     1.138     0.630 -56.08   2
       168    830.4833    563.0884 307.5923607  +6.4757691     5825.304     18635.93     23797.68     93.59855     187.5693     374.6177      2.919     7.47      1262.69     66.02589      645.809        78     2.197     2.081  16.93   0
       169    533.2070    564.0851 307.7161291  +6.4654650     11659.26     25329.04     29836.07     93.44939     186.9734     374.3942      2.332     6.77     1267.941     66.02589     1269.215        50     2.352     1.153  26.27   3
       170    534.9249    560.1945 307.7155440  +6.4671285     13307.79     31807.79     41047.02     93.44939     186.7494     374.4687      2.629     8.32     1267.624     66.02589     1311.249        72     2.732     1.323  26.43   3
       171    692.5071    558.7939 307.6499656  +6.4729544     874.5826     1749.617     3305.151     93.44939     186.9734     374.3569      2.607     4.72     1264.432     66.02589     120.8915         8     1.187     0.533  50.27   2
       172    695.3494    555.4128 307.6488950  +6.4744448     1068.378     2551.592     4750.651     93.15035     187.2716     374.2451      4.531     7.60     1264.143     66.02589     146.9413        16     1.809     0.893  22.27   2
       173    247.1302    557.1838 307.8354936  +6.4587659     627.0247     1441.044     1978.234     93.29999     187.1971     374.4687      2.782     5.13     1269.738     66.02589     81.96533         6     1.067     0.696  -3.49   0
       174    365.1791    551.0491 307.7865400  +6.4652420     1036.389     3115.335     4652.441     93.29999     187.4205     374.4314      2.943    11.36     1268.962     66.02589     145.4225        29     2.551     1.410  41.20   2
       175    361.6737    552.8680 307.7879388  +6.4643740     1178.454     1970.491     2663.667     94.04461     187.4949     374.5432      2.095     5.37       1269.1     66.02589     173.4156        13     1.187     0.951  58.17   3
       176    177.6026    552.1189 307.8646170  +6.4585321     6263.212     14150.24     16087.27     93.15034     186.8241     374.2824      2.299     7.11     1271.714     66.02589     626.7622        39     2.194     1.068  34.29   3
       177    179.8842    548.5695 307.8637862  +6.4600737     8389.864     20301.98     26186.06     93.89616     187.1226     374.4314      2.609     8.05     1271.401     66.02589     857.4419        67     2.741     1.330  33.05   3
       178    905.7446    548.8701 307.5614917  +6.4841391     616.0638     1581.349     1893.039     93.89616     187.2716     374.5432      2.581     6.12     1261.146     66.02589     129.9375         6     1.589     0.663 -84.35   0
       179    543.9269    548.5320 307.7121858  +6.4722433     812.8016     1873.893     2517.347     94.04461     187.4949     374.5804      2.630     6.04     1266.734     66.02589      102.459         9     1.685     0.608  33.46   0
       180     25.8573    548.1558 307.9279402  +6.4550887     722.9982     2035.776     2702.383     93.74747     187.3461     374.5804      2.848     8.44     1274.684     66.02589      116.557        13     1.594     1.250 -24.77   0
       181    146.9614    548.2778 307.8775059  +6.4590928      749.358     1502.085     1904.766     93.74747     187.4205     374.5804      2.241     3.74     1272.358     66.02589      112.767         5     0.822     0.513  38.71   3
       182    143.5520    546.0000 307.8790023  +6.4599191      748.709     1610.957     2326.517     93.00047     186.8988     374.0214      1.884     5.23     1272.257     66.02589     127.3838         7     2.273     0.340  -0.59   2
       183   1003.8230    543.7500 307.5208156  +6.4895077     2257.242     6211.769     7257.988     93.44939     187.4205     374.4687      2.619     7.09      1258.52     66.02589     243.8823        44     1.854     1.651  73.71   0
       184     42.4642    536.7158 307.9214099  +6.4603678     6370.203     15092.32     17738.95     94.04462     187.4949     374.6549      2.421     7.93     1273.548     66.02589     673.7506        41     2.400     1.125  35.81   3
       185     44.2850    533.1674 307.9207711  +6.4618937     8735.397     19938.78     24742.78     93.89616     187.1226     374.5432      2.500     8.04     1273.197     66.02589     940.3916        56     2.639     1.243  36.14   3
       186    474.5183    532.7371 307.7416203  +6.4764504     11419.73     26026.37     30539.02     94.04462     187.3461     374.6177      2.415     7.17     1266.052     66.02589     1214.437        52     2.333     1.156  33.05   3
       187    476.8575    529.3961 307.7407581  +6.4779077     12332.56     31597.26     40753.62     93.15034     187.1971     374.2078      2.703     8.92     1265.688     66.02589     1202.057        72     2.788     1.335  31.74   3
       188     25.5993    528.5328 307.9287082  +6.4631811     51468.04     209480.6     291801.7     93.00047     186.8241     374.2824      3.206     8.72     1273.488     66.02589      7329.74       167     2.619     2.358  57.11   0
       189    683.4922    530.1188 307.6546790  +6.4844930     3563.021     13013.87     17268.06     93.59855     187.6437     374.6549      3.115     8.29     1263.271     66.02589     404.9976        71     2.193     2.153  24.57   0
       190    239.9207    530.8207 307.8393816  +6.4694087     4725.844     10356.91     13211.16     93.44939     186.9734     374.5804      2.383     8.11      1267.45     66.02589     522.9656        38     2.367     1.043  40.27   3
       191    242.1473    527.1873 307.8385764  +6.4709831     5988.399     14853.74     19703.34     93.15034     187.2716     374.2451      2.684     8.42     1267.123     66.02589     652.2629        56     2.690     1.306  37.51   3
       192    651.1447    524.3047 307.6683451  +6.4858167     1740.924      3858.33     5208.029     93.74747     187.3461      374.841      2.643     6.75     1263.703     66.02589     216.6682        25     1.945     0.997  42.88   3
       193    655.3903    522.3675 307.6666418  +6.4867578     1376.429     2210.785     3230.905     93.29999      187.048     374.3942      2.007     6.22     1263.508     66.02589     183.0709        14     1.873     0.580  80.95   3
       194    652.1721    520.8058 307.6680343  +6.4872955     1849.089     3793.122     5458.217     93.29999     187.1226     374.3569      2.523     7.62     1263.493     66.02589     194.6056        23     1.682     1.029  37.03   3
       195    978.9860    523.5738 307.5318325  +6.4970138     2027.697     5368.425     6195.282     93.59855     187.1226      374.506      2.608     7.63     1257.783     66.02589     220.5414        40     1.847     1.585  71.73   0
       196    606.7963    525.3354 307.6867801  +6.4839145     833.9603     1877.379     2916.458     93.00047      187.048     374.3196      2.855     5.66     1264.519     66.02589     116.5015         8     1.117     0.809  43.08   0
       197   1001.1768    515.9331 307.5228452  +6.5009045     1480.672     3883.621     4658.098     93.44939     187.3461      374.506      2.659     8.46     1256.711     66.02589     171.3688        26     1.833     1.510  70.99   2
       198    562.6927    515.5356 307.7054757  +6.4864913     2065.533     4143.052     4879.536     93.89616     187.5693     374.6549      2.152     8.22     1264.057     66.02589     286.1027        24     1.835     1.028  34.66   3
       199    565.3458    512.2471 307.7044809  +6.4879373     2230.245     5580.346     8193.605     93.89616     187.3461     374.6177      2.987    10.37     1263.728     66.02589      243.236        44     2.564     1.395  35.31   3
       200    412.0296    512.8561 307.7683105  +6.4825736     858.4086     2235.536     3352.738     93.59855     187.4205     374.4687      2.289     6.10     1265.199     66.02589     127.3893        10     1.984     0.526  26.54   0
       201    920.3261    509.8351 307.5567216  +6.5007392     1281.938     3619.089     5421.852     93.74747     187.4205     374.5432      3.248     9.91     1257.934     66.02589     152.6564        27     2.149     1.275  75.09   2
       202    751.6299    501.7046 307.6272517  +6.4984907     1010.224     2530.244     4185.194     94.04462      187.048     374.5804      3.551     5.59     1259.743     66.02589     172.8586        13     1.493     0.886  54.66   2
       203    424.1852    496.8352 307.7637855  +6.4895934     1240.546     3202.761     5426.839     93.44939      187.048     374.3942      4.070    11.77     1263.474     66.02589     166.6266        28     2.207     1.747  29.39   2
       204    649.7930    496.6278 307.6698342  +6.4971982     2756.912      6626.56     8795.227     93.29999     187.1226     374.3569      2.583     7.41     1261.967     66.02589     347.5648        39     2.196     1.206  33.81   3
       205    651.8138    492.9926 307.6691142  +6.4987663     2752.339     6479.927     8322.529     93.44939      187.048     374.3942      2.519     9.06     1261.697     66.02589     280.4889        35     2.291     1.050  26.37   3
       206    114.0241    497.4563 307.8929313  +6.4789715     684.8234     1634.661     2502.146     93.44939     187.3461     374.3569      2.264     4.20     1268.758     66.02589     98.15247         5     1.512     0.333  28.28   0
       207    812.7120    492.9658 307.6021043  +6.5041293     4915.479     9404.506     11439.75     93.89616     187.2716     374.5804      2.114     6.07     1258.609     66.02589     582.7423        31     2.071     0.947  30.32   3
       208    813.9731    489.5068 307.6016946  +6.5055992     5477.314     13526.48     18021.27     94.04461      187.048     374.3942      2.695     8.02     1258.468     66.02589     559.7339        54     2.397     1.359  27.79   3
       209    333.4452    490.3091 307.8017940  +6.4892585     889.8574     2039.087     3357.592     93.89616     187.2716     374.7294      2.957     6.61     1263.153     66.02589     91.74683        11     1.248     0.983  37.58   0
       210    152.3729    482.4073 307.8774674  +6.4864677     1314.658     3628.333     6356.652     93.29999     187.1226     374.3569      3.397     9.75     1266.683     66.02589     157.0087        28     2.282     1.162  36.03   2
       211    152.1488    486.5490 307.8774214  +6.4847503     1042.416     2297.929     3574.079     93.89616     187.1971     374.5804      2.843     4.70     1267.121     66.02589     177.1294         7     1.186     0.528  27.84   3
       212    788.5005    483.6582 307.6124990  +6.5071672     698.0914     1640.119     2472.357     93.59855     187.3461     374.7294      2.923     6.05     1258.416     66.02589     105.9362         7     1.277     0.806  59.56   0
       213    386.6442    480.6705 307.7799622  +6.4950141      871.567     2261.851     3434.903     93.74747     187.3461     374.6177      3.341    13.65     1261.842     66.02589     120.2435        21     2.347     2.207  45.04   2
       214    387.7013    476.7283 307.7796542  +6.4966768     848.1744     1998.317     2951.038     93.59855     187.5693     374.5804      2.562     5.02      1261.44     66.02589     156.7146         7     1.326     0.651  17.63   3
       215    750.9282    464.7986 307.6287777  +6.5137042     4261.243     8384.423     9700.782     93.29999     186.8241     374.3942      2.085     6.15     1257.327     66.02589     524.1886        31     1.961     0.987  27.94   3
       216    752.1973    461.2573 307.6283675  +6.5152085     4628.445     11676.98     16195.38     93.15034      187.048     374.2824      2.867     8.76     1256.942     66.02589     459.2096        53     2.632     1.275  23.96   3
       217    671.7527    459.2707 307.6619383  +6.5133522     835.9758     2750.438     4551.717     93.89616     187.2716     374.5804      3.399     9.95     1258.541     66.02589     135.0665        17     2.453     1.125  56.16   2
       218    644.3107    455.7814 307.6734843  +6.5138793     4563.636     10651.19     13940.82     93.59855      187.048     374.4687      2.681     7.62     1258.527     66.02589     487.8433        51     2.788     1.146  33.13   3
       219    646.0342    452.6330 307.6728718  +6.5152365     4981.368     12948.97     18550.62     93.44939      187.048     374.2824      2.971     8.91     1258.214     66.02589     501.2026        65     3.176     1.255  30.29   3
       220    977.3213    452.5413 307.5348949  +6.5262851     1742.765     4719.683     5752.524     94.04462     187.3461      374.506      2.689     7.84     1253.029     66.02589      198.981        36     1.815     1.519 -77.99   0
       221    415.8100    451.5056 307.7687938  +6.5080281      7297.57     16821.43     21129.85     93.44939     186.8988     374.3569      2.413     7.78     1258.431     66.02589     823.1569        46     2.396     1.102  27.42   3
       222    417.7802    447.8586 307.7680956  +6.5095995     8173.124     22003.79     28914.24     93.44939     187.1971     374.3569      2.787     8.94      1257.94     66.02589      831.515        71     2.822     1.395  29.64   3
       223    945.0439    445.3418 307.5485787  +6.5281863     1090.942     1882.952     2768.824     93.74747     187.2716     374.6549      1.613     4.99     1252.778     66.02589      209.006        10     1.532     0.461  26.87   3
       224    946.3513    442.1154 307.5481419  +6.5295618     1857.941     4671.455      6171.03     93.89616     187.3461     374.6177      2.671     7.87     1252.592     66.02589     197.3772        40     2.126     1.358   9.14   2
       225    273.2432    442.0671 307.8284858  +6.5071636     3438.137     8217.001     9574.021     93.89616     187.2716     374.6177      2.461     7.75     1260.575     66.02589     388.6691        38     2.185     1.144  25.19   3
       226    275.4891    438.5099 307.8276699  +6.5087072      4113.59     10123.16     14183.22     93.89616     187.9408     374.6921      2.739     8.88     1260.339     66.02589     414.9038        55     2.717     1.303  31.42   3
       227    386.5440    432.5950 307.7816169  +6.5148584     535.4595     1183.425     2196.145     93.15035     187.1226     374.2451      2.188     3.87     1257.047     66.02589     98.14685         5     1.026     0.419  15.81   0
       228    175.7042    427.2200 307.8696066  +6.5100317     1748.437     4055.462     5543.934     93.74747     187.1226     374.3569      2.681     9.17     1262.446     66.02589     191.6182        29     2.178     1.328  17.96   2
       229    175.2914    431.4203 307.8696373  +6.5082838     1128.524     1989.743     3083.342     93.74747     187.1226     374.3942      2.186     4.64     1262.728     66.02589      195.704         8     1.301     0.470 -30.65   3
       230    172.6467    430.7166 307.8707624  +6.5084858     1238.273       1867.7     2991.469     93.89616     187.3461     374.5804      1.798     2.94     1262.814     66.02589     174.9933        10     0.831     0.813  19.28   3
       231    195.9021    425.0028 307.8612693  +6.5116226     651.1351     2009.677     3686.124     93.59855      187.048     374.2078      3.233     7.76     1261.476     66.02589     96.23828         9     1.879     0.896 -13.53   0
       232     13.6432    418.6454 307.9373873  +6.5081455     795.0443     1731.965     3489.027     93.89616     187.3461      374.506      2.943     4.89     1267.109     66.02589     108.4476         5     1.090     0.622  50.74   0
       233    164.6606    448.0500 307.8735054  +6.5010628     770.9648     1904.227     3456.295     93.89616     187.2716     374.6549      3.236     6.83     1264.183     66.02589     109.9142        11     1.810     0.724  50.11   0
       234     70.7791    412.4056 307.9138026  +6.5126355      1093.21     3323.831     5201.621     93.44939      187.048     374.3569      3.491     8.73     1266.411     66.02589     131.6288        24     2.078     1.023  30.45   2
       235    472.4208    414.4307 307.7464596  +6.5252230      1885.69     4232.578     5599.214     93.29999     187.1226     374.4314      2.545     7.55      1254.14     66.02589     234.2528        29     2.047     0.992  37.86   3
       236    475.3538    411.3110 307.7453426  +6.5266088     2038.128     5369.176     6885.923     93.89616     187.1971     374.7294      2.754    10.08     1254.005     66.02589     231.0275        38     2.311     1.306  32.77   3
       237    813.0981    411.1263 307.6046776  +6.5379301     3962.483     8520.163     11784.04     93.44939     187.4949     374.5432      2.738     6.60     1252.392     66.02589     442.9696        39     2.347     1.100  28.27   3
       238    815.0407    408.0957 307.6039698  +6.5392458     4029.256      10118.6     12371.13     93.89616     187.2716     374.7666      2.576     8.10     1252.185     66.02589     424.1968        46     2.434     1.269  33.26   3
       239     25.8032    400.0280 307.9329501  +6.5162388     447.3466     1221.075     2649.316     93.29999      187.048     374.3569      1.400     3.72     1266.966     66.02589     70.51758         5     1.447     0.275  78.36   0
       240    520.4104    398.2397 307.7270149  +6.5335076     708.5666     1899.095     3014.887     93.15035     187.1226     374.2824      2.477     4.66     1253.879     66.02589     103.7346         8     1.654     0.373  55.37   0
       241    879.4778    392.2279 307.5776607  +6.5479379     11581.88     37765.79     49703.42     93.74747     187.2716     374.5804      3.011     7.51      1250.54     66.02589     1247.994       103     2.389     2.181  66.10   0
       242    492.2861    396.7369 307.7387790  +6.5331903     667.1482     1903.928     3306.904     94.04461     187.4949     374.6177      2.816     6.45     1253.499     66.02589     97.40466         8     1.771     0.659  89.96   0
       243    522.8876    394.3232 307.7261144  +6.5352071     778.3094     1898.051     3064.257     93.89616      187.718     374.6921      2.386     5.24     1253.631     66.02589     108.0065         8     1.461     0.532  31.62   0
       244    649.7387    386.7490 307.6735338  +6.5425602     808.1224     2085.198     3748.289     93.89616     187.2716     374.5804      3.754     6.44     1251.439     66.02589     99.66113         8     1.205     0.968  11.56   0
       245    736.8281    376.9905 307.6375862  +6.5494872     23480.31     60170.12     76834.21     93.44939     187.1226     374.4314      2.668     8.42      1250.12     66.02589     2402.194        84     2.680     1.438  35.24   3
       246    734.8333    380.5138 307.6382993  +6.5479662     23469.97     46686.89     53762.69     93.89616     187.1971     374.5804      2.154     6.46     1250.395     66.02589     2718.961        50     2.246     1.041  40.06   3
       247    135.1682    377.3641 307.8881654  +6.5292576     1558.686     2834.802     3604.831     93.44939      187.048     374.2824      2.049     7.50      1262.25     66.02589     186.7001        19     1.850     0.851  33.31   3
       248    138.3291    373.8438 307.8869674  +6.5308167     1875.951     4416.363     6764.123     93.74747     187.3461     374.6177      3.042    11.86     1261.948     66.02589      243.934        46     2.966     1.612  29.90   2
       249    599.7897    373.8267 307.6947707  +6.5462317     871.9048     2264.413     3631.307     93.44939     187.1226     374.4314      3.359     6.27     1250.686     66.02589     126.9288        11     1.116     0.991  52.15   0
       250    582.8900    370.0854 307.7019349  +6.5472133     2034.597     5355.592     7680.323     93.59855      187.718     374.7294      2.963     9.81     1250.706     66.02589     219.4291        45     2.595     1.264  23.97   2
       251    582.9329    374.5272 307.7017683  +6.5453810     1425.421     2298.766     2973.848     94.04461     187.4949     374.5432      1.736     4.57     1251.245     66.02589     195.8718        11     1.145     0.763 -26.92   3
       252    579.5499    373.0552 307.7032267  +6.5458760     1616.122     2951.294     4103.645     93.89616     187.3461     374.6177      1.946     4.91     1251.111     66.02589      220.511        13     1.329     0.660  57.28   3
       253    443.5999    369.0243 307.7599860  +6.5430074     6847.195     15548.88     17475.88     93.29999     186.9734     374.3569      2.320     7.27     1252.138     66.02589      737.889        44     2.227     1.143  29.88   3
       254    446.1445    365.4782 307.7590451  +6.5445563     7278.681     18997.45     24917.96     94.04461     187.3461     374.6177      2.723     8.99     1251.959     66.02589     699.5044        62     2.790     1.291  29.79   3
       255    313.1706    369.0345 307.8143095  +6.5386486     929.6464     2264.715     2993.311     93.29999      187.048     374.3569      2.657     4.94      1254.66     66.02589     125.8363         9     1.094     0.633  59.81   0
       256    532.5059    359.2344 307.7232840  +6.5500141     2415.218     5181.112     7060.996     94.04461     187.1971     374.6921      2.402     6.70      1251.03     66.02589     281.5973        29     2.011     1.062  34.88   3
       257    535.2480    355.9289 307.7222527  +6.5514701     2396.344     6277.554     9048.231     93.89616     187.2716     374.6177      3.016    10.37      1250.77     66.02589     238.3939        48     2.687     1.366  32.27   3
       258    802.3870    354.2035 307.6110411  +6.5610749     1006.036      2976.73     4603.885     93.44939     186.9734     374.4314      3.422    10.13     1248.549     66.02589     123.0547        20     2.158     1.326 -12.29   2
       259    422.7526    343.8732 307.7695127  +6.5526953     2002.976     4067.524     4637.289     93.89616     187.4205     374.5804      2.152     7.79     1250.902     66.02589     252.7606        29     2.163     0.961  23.30   3
       260    424.8127    339.7610 307.7687926  +6.5544617      1963.02     4970.403     6297.282     93.29999     187.1226     374.3196      2.644     9.06     1250.619     66.02589     237.2592        40     2.453     1.217  26.31   3
       261    791.4102    336.8920 307.6161919  +6.5678571      16175.4     58095.81     79426.55     93.59855     186.8988     374.3196      3.135     8.20      1246.88     66.02589     1791.442       117     2.442     2.294  52.84   0
       262    281.9174    341.3772 307.8282553  +6.5490223     697.2772     1179.519     2142.994     93.59855     186.9734     374.4687      1.773     4.17     1254.397     66.02589     103.2797         5     1.057     0.469  62.28   0
       263    449.7929    334.9210 307.7585503  +6.5572934     464.2462     1328.696     1597.909     93.44939     186.7494     374.3196      2.378     4.68     1249.536     66.02589     102.4248         7     2.252     0.276  34.72   0
       264    967.4113    332.8938 307.5430140  +6.5753537     992.9186     2933.688     3363.872     93.59855     186.9734     374.3196      2.602     8.89     1243.726     66.02589     138.0879        21     1.915     1.152 -57.57   0
       265    789.0939    323.7464 307.6175960  +6.5732073     1771.086     3529.122     5305.697     93.74747     187.2716      374.841      2.420     7.99     1245.589     66.02589     220.8768        20     1.897     0.941   5.96   3
       266    789.7258    320.1155 307.6174542  +6.5747273     1956.157     4869.829     6911.552     94.04461      187.718     374.6549      3.136     8.53      1245.18     66.02589      219.465        36     2.286     1.234   9.39   3
       267    804.6077    320.7741 307.6112333  +6.5749502     801.3052     2202.623     3658.099     93.44939     187.1226     374.3942      2.967     3.96      1245.24     66.02589     100.5403         6     0.941     0.477  89.19   2
       268    227.1774    321.7212 307.8517153  +6.5553071     622.3523     1454.959     2310.115     93.44939     186.9734     374.5432      2.943     4.68     1256.424     66.02589     91.81946         6     0.981     0.635  63.27   0
       269    285.4921    306.5037 307.8279379  +6.5635389     1219.055     5646.598      8486.04     93.89616     187.9408     374.5432      3.425    14.05     1253.029     66.02589     183.6156        64     2.383     2.305 -84.14   0
       270     15.7789    299.4536 307.9405123  +6.5574230      16403.5     72082.79     102122.4     93.29999     187.3461     374.3569      3.298     9.78     1267.667     66.02589     2272.285       127     2.580     2.394  61.55  16
       271    760.8833    286.4857 307.6305926  +6.5876524     1576.112     3903.692     4877.693     93.59855     187.5693     374.6921      2.615     9.40     1242.498     66.02589     199.4153        26     2.149     1.148  71.48   3
       272    764.2278    284.0230 307.6292818  +6.5887804     1425.869     2700.661     3664.537     93.29999     187.1971     374.3942      2.232     7.30     1242.386     66.02589     198.3912        19     1.704     1.055  61.53   3
       273    940.6306    285.1699 307.5557621  +6.5941680     662.7612     1810.064      2975.56     93.29999      187.048     374.2824      3.493     4.53     1241.356     66.02589     102.2578         6     0.979     0.594  21.11   0
       274    704.9338    284.2086 307.6539745  +6.5867312     680.6754     1788.707     2809.089     93.29999      187.048     374.4314      3.277     4.86     1242.142     66.02589     98.38123         5     0.900     0.742 -14.29   0
       275    261.8903    275.2847 307.8388174  +6.5756384     661.0185     1299.714     2575.499     93.59855      187.718     374.7294      2.124     3.88     1252.947     66.02589     96.91321         5     1.285     0.335  48.91   0
       276    494.4531    263.3476 307.7423479  +6.5883318     6131.792     12151.76     14370.74     94.19283     187.1971     374.6177      2.186     6.73     1239.793     66.02589     690.1296        36     2.179     0.963  34.54   3
       277    497.0516    260.1025 307.7413743  +6.5897582     6207.833     18523.86     25903.87     93.74747     187.3461      374.841      3.014     9.22     1239.599     66.02589      652.762        70     2.706     1.611  32.70   3
       278    821.5848    259.8866 307.6061961  +6.6006521     4063.185     14579.55     19853.89     93.44939      187.048     374.4687      3.118     7.90     1241.286     66.02589     511.8007        81     2.277     2.218  27.37   0
       279    183.9502    257.9005 307.8718657  +6.5802087     636.1291      1264.46     2150.702     93.89616     187.3461     374.7666      2.076     3.75     1257.061     66.02589     89.38159         5     1.021     0.395  58.62   0
       280    186.6094    254.6741 307.8708666  +6.5816296     655.3427     1425.924     2639.233     93.44939     186.8241     374.4314      3.627     5.55     1256.854     66.02589     117.2522         6     0.952     0.913  24.07   0
       281     20.9859    250.5720 307.9399900  +6.5777772     1282.037     2817.895     4307.752     93.44939     187.1226     374.4687      2.498     8.38     1269.465     66.02589     175.8157        21     2.084     0.942  33.72   3
       282     25.0261    248.0293 307.9383928  +6.5789623     1337.445     2321.921      2825.52     93.29999     187.1226     374.3942      1.826     5.84     1269.357     66.02589     153.1698        12     1.073     0.896 -22.52   3
       283     21.9558    246.0000 307.9397400  +6.5796972     1231.845     2378.267     3463.854     93.00047     186.8988      374.096      2.460     6.05     1269.669     66.02589     177.5786        15     1.578     0.817  10.65   3
       284    618.8690    248.7880 307.6910104  +6.5984893     1348.512     3052.331     4489.328     93.29999     187.1226     374.4314      2.460     8.17     1239.236     66.02589     184.8601        22     2.073     0.899  27.01   3
       285    621.2731    245.1238 307.6901317  +6.6000822     1349.224     3343.567     5120.388     94.19283     187.6437     374.6177      2.909     9.40     1238.984     66.02589     166.3413        29     2.216     1.113  37.79   3
       286    926.5902    242.9906 307.5630187  +6.6111159     4030.064     12897.09     15959.23     93.44939     187.1226     374.4687      2.895     7.60     1238.957     66.02589     490.3695        70     2.282     1.905  54.80   0
       287    979.7932    244.8666 307.5407932  +6.6121072      973.664     2104.985     2780.896     93.29999      187.048     374.3569      2.857     7.30     1239.085     66.02589     157.7584        10     1.453     1.028  28.18   2
       288    980.5095    241.0225 307.5406230  +6.6137181     855.9322      1454.26     2481.137     93.89616     187.1226     374.4314      3.187     6.51     1238.946     66.02589     110.0221        11     1.334     0.893  27.27   2
       289     52.3223    243.1559 307.9271876  +6.5818888     6977.445     15078.92     17559.54     93.74747     187.3461     374.5804      2.273     7.23     1267.747     66.02589       714.02        41     2.306     1.028  34.11   3
       290     55.2474    239.6235 307.9260882  +6.5834451     8332.318     20022.91     26977.16     93.44939     187.3461     374.4314      2.752     9.09     1267.671     66.02589     858.9327        70     2.932     1.477  31.75   3
       291   1013.3878    240.7690 307.5269352  +6.6149135      3916.68      11743.8     13606.91     93.29999      187.048     374.4687      2.676     7.24     1239.031     66.02589     517.8044        59     2.064     1.870  43.44  16
       292    723.9196    243.2788 307.6474350  +6.6042609     1061.913     2814.105      4325.32     94.19283     187.6437     374.7666      3.278     8.67     1240.791     66.02589     128.4922        19     1.737     1.208  42.99   2
       293    544.6686    234.8592 307.7223856  +6.6017674     700.4677     1787.508     3918.118     94.04461     187.2716     374.5804      3.209     7.05      1237.73     66.02589     94.41223        10     2.042     0.683  27.69   0
       294    776.1740    231.1230 307.6260742  +6.6110175     12758.54     25332.09     28385.48     93.59855     187.3461     374.5432      2.126     5.94     1240.755     66.02589     1390.257        45     2.113     1.093  28.32   3
       295    777.9443    227.8860 307.6254449  +6.6124128     11780.93     30674.32     38440.69     93.89616     187.3461     374.7666      2.653     8.50     1240.672     66.02589     1211.292        63     2.679     1.308  27.32   3
       296    917.9038    231.0835 307.5670347  +6.6157433     796.9788     2519.248     2813.032     93.89616     187.7923     374.6921      2.693     7.37     1238.207     66.02589     95.01843        12     1.628     0.935  23.80   0
       297   1009.6010    228.4038 307.5289251  +6.6198929     1252.765     3364.993     4365.695     93.15035     186.8241     374.2824      2.748     8.87     1238.783     66.02589     182.7819        24     2.123     1.193  69.77   2
       298    380.2581    229.1859 307.7910612  +6.5986245     2021.819     6886.883     12334.18     93.15034     187.1971     374.2078      3.765    10.99     1245.592     66.02589     225.2247        90     2.749     2.372 -77.69   0
       299    944.6877    226.0830 307.5560441  +6.6186970       2974.3     8746.509     10947.79     93.59855     187.5693     374.6177      2.785     6.99     1238.027     66.02589     346.6289        59     2.073     1.907  40.53   0
       300    487.4749    227.8525 307.7464448  +6.6027530     1351.227     2885.619      4701.26     93.89616     187.4205     374.5804      3.047     8.98       1237.7     66.02589     143.9998        27     2.007     1.122  35.38   2
       301    491.3675    225.1235 307.7449148  +6.6040095     1446.123     3245.237     5179.475     93.74747     187.3461      374.506      3.143     8.27     1237.487     66.02589      158.239        24     1.714     1.116  59.59   3
       302    144.8507    219.7222 307.8894359  +6.5946615     1196.931     2961.172     4113.522     93.89616     187.4205     374.5804      2.757     9.43     1260.519     66.02589     159.9686        23     2.093     1.184  31.84   3
       303    148.6147    216.3804 307.8879805  +6.5961670     1349.202     2956.002     5381.165     93.44939     186.9734     374.4314      3.021     9.07     1260.355     66.02589     196.1982        24     2.267     1.012  32.09   2
       304    290.1762    216.8580 307.8289985  +6.6007046     1539.898     2951.188     3257.698     93.44939     187.3461     374.3942      2.177     7.56     1251.101     66.02589     199.8434        21     1.986     0.805  38.86   3
       305    293.0573    214.0000 307.8278944  +6.6019808     1803.539     4814.874     6492.533     93.00047     186.8988     374.1706      2.688    10.45     1251.113     66.02589      211.217        43     2.589     1.327  33.40   3
       306    315.2952    216.1361 307.8185595  +6.6018421      8999.69     21062.34     24516.83     93.74747     187.4949     374.6177      2.411     6.94     1250.057     66.02589     934.2931        48     2.364     1.126  29.63   3
       307    317.8975    212.5760 307.8175951  +6.6033988     9034.505     23489.09     31259.11     94.04461      187.048     374.4314      2.806    10.13     1250.028     66.02589     815.8657        66     2.932     1.386  29.26   3
       308    439.3083    211.7382 307.7670493  +6.6077987     13363.05     29680.64     35817.19     93.89616     187.4205     374.6921      2.414     7.76     1239.458     66.02589     1390.207        57     2.525     1.171  33.66   3
       309    441.7922    208.0765 307.7661374  +6.6093933     13114.53     35558.48     45889.06     93.44939     186.7494     374.3569      2.786     9.82     1239.117     66.02589     1296.961        73     2.884     1.394  33.41   3
       310    193.8085    212.0086 307.8693027  +6.5994842     827.7377      2329.87     3550.738     93.15034     187.1226     374.4314      2.817     5.56     1257.178     66.02589     113.1372         8     1.407     0.619 -82.42   3
       311    198.9784    210.4491 307.8672016  +6.6003010     1237.618     2797.805     3917.119     93.44939     187.4205     374.4314      2.466     6.38     1256.952     66.02589     135.4822        14     1.474     0.775  75.45   2
       312    195.7491    207.5429 307.8686445  +6.6013927     930.8929     1810.498     3926.416     93.89616     187.3461     374.5804      2.478     5.76     1257.296     66.02589     139.5883         8     1.535     0.609  10.77   3
       313    343.2087    209.3439 307.8071603  +6.6055787     4674.914     10461.89     12005.75     93.15035     187.1971     374.2451      2.370     8.24     1248.979     66.02589     522.4849        40     2.279     1.142  23.59   3
       314    345.6970    205.6917 307.8062464  +6.6071696     4903.053     13151.83     19763.74     93.89616     187.9408     374.5432      3.153     9.37     1248.894     66.02589     520.9545        75     3.274     1.507  21.41   3
       315    779.3331    205.0237 307.6256307  +6.6218977     9597.088     35825.24     48699.27     93.44939     187.2716      374.506      3.129     8.49     1239.448     66.02589      1143.16       103     2.454     2.246  44.44   0
       316     95.4597    205.4452 307.9104894  +6.5989018     2552.993     5086.954     6148.812     93.74747     187.2716     374.7294      2.167     7.19     1265.332     66.02589       258.42        30     2.048     0.969  29.06   3
       317     98.0677    202.0621 307.9095170  +6.6003858     2898.667     6931.717     9447.942     93.89616     187.2716     374.5804      2.709     9.91     1265.102     66.02589     328.2539        47     2.774     1.273  34.76   3
       318    314.0782    182.4334 307.8201985  +6.6157151     8155.599     17829.52     21247.85     93.74747     187.3461     374.5432      2.356     7.14      1251.33     66.02589     877.2017        47     2.317     1.166  26.05   3
       319    317.0244    179.1993 307.8190799  +6.6171487     8270.452     21276.14      28536.1     93.44939     186.9734     374.3196      2.772    10.68     1251.249     66.02589     834.1775        68     3.026     1.414  29.53   3
       320    626.1423    182.4294 307.6902026  +6.6261275     699.6978     1917.875     3800.023     93.44939     187.4205     374.4687      4.285     6.31     1236.764     66.02589     102.6674         9     1.461     0.767  51.22   0
       321     60.1803    181.8090 307.9259803  +6.6074778     1193.993     2637.437     4085.445     93.44939      187.048     374.3569      3.080     7.93     1268.081     66.02589     189.9216        18     1.891     1.109  27.84   3
       322     64.0000    178.9534 307.9244855  +6.6087846     1032.013     1611.804     2309.943     93.00047     186.8988     374.0214      1.681     4.91     1267.775     66.02589     162.2822         8     1.207     0.565 -73.12   3
       323     60.7891    176.7664 307.9258966  +6.6095799     1143.717     2652.831     3782.053     93.29999      187.048     374.3942      2.510     7.41     1268.016     66.02589     145.1104        16     1.667     0.921  22.26   3
       324    745.6324    177.2410 307.6405989  +6.6322469     2548.104     6267.407     8198.532     93.44939     187.1971     374.4314      2.734     8.79     1238.227     66.02589       299.46        41     2.275     1.302  68.68   2
       325    748.8292    175.1711 307.6393364  +6.6332078     1780.342     3538.458     4571.896     93.29999      187.048     374.2824      2.133     7.08     1238.092     66.02589     218.8831        18     1.802     0.781  64.60   3
       326    157.0617    176.6802 307.8857976  +6.6128392     1347.859     2328.546     3017.894     94.04461     187.3461     374.5804      1.950     7.48     1262.143     66.02589     172.5491        19     1.872     0.855  23.04   3
       327    159.1894    172.8521 307.8850401  +6.6144908     1216.089     3304.188     4442.988     93.15034     187.1971     374.2824      3.191    11.45      1262.31     66.02589     142.5247        35     2.654     1.375  22.53   2
       328    430.1208    168.9148 307.7723131  +6.6251713     1370.753     3300.666     4823.034     93.74747      187.718     374.6921      3.152     8.87     1237.673     66.02589     191.6869        23     1.928     1.140  37.48   3
       329    395.5062    168.8658 307.7867341  +6.6240361     891.5948     2041.331     3636.533     93.89616     187.5693     374.5804      3.334     7.75     1241.679     66.02589     136.8232        13     1.563     1.074  84.71   2
       330    243.7453    160.2104 307.8502431  +6.6225385     1385.122     3225.089     4957.306     93.15034     187.2716     374.2078      3.158     9.07     1256.909     66.02589     175.3778        25     2.153     1.066  33.87   2
       331    245.2092    155.9980 307.8497748  +6.6243265     1368.284     3856.604     5473.368     93.15034     186.9734     374.3196      3.060     9.13     1257.008     66.02589     175.5002        25     2.107     1.103  19.11   3
       332    125.2061    159.6179 307.8996412  +6.6188167     602.1168     1400.242     3385.672     93.44939     186.9734     374.3942      3.133     4.34     1264.245     66.02589     85.54114         5     0.936     0.572  48.59   0
       333    705.0820    157.4149 307.6581550  +6.6390828     1744.134     4315.117     5697.746     93.44939      187.048     374.3942      3.100    10.72     1237.055     66.02589     204.2506        38     2.606     1.266  62.71   2
       334    707.7070    154.3844 307.6571628  +6.6404213      1611.77     3626.812     4898.655     93.59855     187.1226     374.4314      2.485     7.94     1236.882     66.02589     167.0061        23     1.947     0.905  55.82   3
       335    427.7812    172.5503 307.7731657  +6.6235924     1114.889     2509.069     3479.463     93.29999     187.4205     374.3569      2.804     8.88     1237.945     66.02589     135.0837        22     1.904     1.156  35.41   3
       336    657.1663    154.3528 307.6782187  +6.6387520     2958.747     8775.088     13995.95     93.59855     187.3461      374.506      3.538    15.29     1236.449     66.02589     327.2137        69     2.798     2.324 -84.96   3
       337    660.8943    146.8284 307.6769175  +6.6419825     16373.17     33705.51     39910.94     94.04461      187.048     374.4687      2.250     6.37     1236.128     66.02589     1740.863        55     2.352     1.194  38.23   3
       338    663.2038    143.7971 307.6760568  +6.6433109     14426.67      41843.9     53546.38     93.15034     186.8241     374.3569      2.800     9.69     1235.979     66.02589     1415.231        72     2.856     1.342  32.83   3
       339    385.2806    152.2576 307.7915513  +6.6305512     860.1118     1548.374     2295.954     93.89616     187.3461     374.5804      2.225     6.50     1243.648     66.02589     127.1403        11     1.762     0.673  18.12   2
       340    386.9829    148.3110 307.7909746  +6.6322373     1159.661      3094.65     4391.712     93.59855      187.048     374.4314      2.848    10.14     1243.405     66.02589     119.8625        28     2.164     1.325  21.36   2
       341    339.9305    141.1583 307.8108156  +6.6336187     962.5684     2466.146     3810.361     93.74747     187.3461     374.6549      2.697     7.30     1250.498     66.02589     120.9248        15     1.986     0.752  33.58   0
       342    341.1613    136.5455 307.8104578  +6.6355642     872.7094      2195.09      3311.42     93.89616     187.4205     374.5804      3.061     6.17     1250.478     66.02589     136.6917         9     1.409     0.760   5.92   2
       343    922.0867   1019.1008 307.5390012  +6.2905415     8440.935     17788.23     19349.57     93.89616     187.8666     354.3321      2.211     4.69     1289.174     66.02589     1036.844        55     1.810     1.583  42.29  16
       344    470.7708    119.8833 307.7570240  +6.6467700     1046.263     1950.907     2966.034     93.89616      187.048     374.4314      2.192     5.66     1236.339     66.02589     119.4377        12     1.505     0.600 -62.58   3
       345    467.5739    122.4819 307.7582686  +6.6455905     1153.834      2534.23     3772.642     93.74747     187.1226     374.5804      2.326     7.18     1236.498     66.02589     176.2139        15     1.871     0.772  36.56   3
       346    467.1776    117.7004 307.7585941  +6.6475513     1052.743     2206.194     3365.255     93.89616      187.048     374.3196      2.608     7.38     1236.572     66.02589     130.4343        12     1.563     0.975 -13.96   3
       347    939.7335    116.7583 307.5617574  +6.6636676     1301.879     2874.191     3964.536     93.89616     187.2716     374.6549      2.660     6.71     1231.352     66.02589     164.2573        14     1.411     0.895  29.00   3
       348    939.9328    113.7812 307.5617738  +6.6649033     1511.243     3541.849     4648.501     93.44939     187.2716     374.4687      2.639     5.43     1231.234     66.02589     187.1497        16     1.209     0.997 -26.44   3
       349    921.9262    117.5557 307.5691495  +6.6627471     698.6299     1829.004     2739.957     93.74747     187.4205     374.6177      3.117     3.97     1231.716     66.02589     109.1742         5     0.913     0.495   3.28   0
       350    179.3315    111.8325 307.8787024  +6.6403557     986.6624     2435.359      4611.48     93.74747     187.3461     374.5804      3.450     9.24     1262.276     66.02589     135.7784        18     2.463     0.967  30.91   2
       351    179.2033    106.2379 307.8789440  +6.6426610     776.7019     1795.021     3049.698     92.85035     187.1226     374.3196      2.915     4.25     1262.351     66.02589     144.1389         6     1.118     0.461  55.61   2
       352     61.0175    109.4381 307.9280688  +6.6373824     3640.473     8414.704     11626.94     93.44939     187.1971     374.2824      2.659     8.39     1267.994     66.02589     398.6747        43     2.495     1.164  37.33   3
       353     63.6294    106.5118 307.9270793  +6.6386780     3951.153     8811.358     12304.93     94.04462      187.048     374.4314      2.656    10.94     1267.744     66.02589     400.7924        45     2.959     1.126  38.26   3
       354    725.3682    131.0630 307.6505855  +6.6506372     985.7723     2180.726     2758.001     93.59855     187.4205     374.5432      2.133     6.79     1235.453     66.02589     148.3158        14     1.570     0.824  39.53   0
       355    861.7395    102.7137 307.5947200  +6.6668755     2104.597     4478.912     7119.083     94.04462     187.4949     374.6921      3.189    13.86     1231.925     66.02589     242.2823        41     2.623     2.038  -3.51   2
       356    862.0064     99.2943 307.5947230  +6.6682960     1940.295     3787.528     4890.628     93.59855     186.9734     374.3569      2.228     7.18     1231.702     66.02589     262.9828        17     1.728     0.836 -11.94   3
       357    806.9734    103.5264 307.6175092  +6.6647198      1144.99     2026.927     3486.278     93.44939     187.2716     374.5432      4.276     8.56     1233.065     66.02589     162.2257        17     2.194     0.932  70.96   2
       358    809.9067     99.3105 307.6164281  +6.6665578     980.5928       2115.1     2673.571     93.89616     187.9408     374.6177      2.615     9.32     1232.709     66.02589     153.8304        15     1.726     1.406  59.50   2
       359    103.1080     97.3589 307.9109420  +6.6437790     909.2509      2466.59      4583.21     93.89616     187.2716     374.6921      3.385     8.41     1264.808     66.02589     123.2375        14     1.905     1.037  24.75   0
       360    727.4478    127.6083 307.6498347  +6.6521326     829.6124     2284.808     2554.554     93.29999     187.1971     374.1706      2.793     6.92     1235.259     66.02589     105.7997        13     1.824     0.737  25.51   0
       361    129.4102     83.3424 307.9004570  +6.6504461      2165.14     10233.18     15229.73     93.15035     187.2716     374.2451      3.397     9.69     1263.688     66.02589     320.3562        82     2.465     2.329  56.77   0
       362    456.6347     84.6185 307.7640960  +6.6608570     600.5219     1363.971     2312.488     93.29999     187.1226     374.3196      2.277     4.00     1238.326     66.02589     119.1559         5     1.179     0.388  53.97   0
       363    461.5298     82.2944 307.7621346  +6.6619798     637.1371     1122.814     1845.686     93.74747     187.4205     374.5804      1.779     4.56     1238.179     66.02589     100.4291         5     1.318     0.449 -58.37   0
       364    458.3166     80.4992 307.7635335  +6.6626137     742.9333     1541.522     2448.316     93.89616     187.9408     374.6921      2.857     5.62     1238.633     66.02589     109.4252         7     1.263     0.705  -2.28   0
       365    671.2863     76.7009 307.6749358  +6.6712803     5833.252     13419.26        16709     93.89616     187.8666     374.6549      2.519     8.53     1232.848     66.02589     652.5763        50     2.574     1.292  42.63   3
       366    674.0115     73.8347 307.6738963  +6.6725543     5058.191     12111.62     16242.27     93.29999     187.1226     374.3569      2.590    10.59     1232.749     66.02589     516.2864        43     2.843     1.099  36.92   3
       367    570.6881     73.0302 307.7169693  +6.6694446     1426.935     3317.865     4860.029     94.04461     187.1226      374.506      3.031    10.79     1234.668     66.02589     166.8395        32     2.142     1.514  35.40   3
       368    574.6817     70.3702 307.7153946  +6.6706759     1315.387     2390.347     3278.412     93.74747     187.1226     374.5804      2.258     5.35      1234.57     66.02589     152.8604        12     1.130     0.830  34.33   3
       369    571.0237     68.7433 307.7169731  +6.6712256     1248.923     2576.764     4035.295     93.44939     187.3461     374.3569      3.067     6.22     1234.635     66.02589     140.8403        15     1.309     0.885  -8.27   3
       370    297.3262     69.3943 307.8309746  +6.6618217     2679.377     6679.928      12656.7     93.44939     186.8241     374.4687      5.303     8.19     1257.221     66.02589     305.4501        43     2.502     1.274  20.56   3
       371    299.5864     65.7546 307.8301553  +6.6633998     2571.451     7121.619     10393.98     93.15035     187.1226     374.3196      3.544    10.52     1257.162     66.02589     291.2906        46     2.725     1.266  34.60   3
       372    476.6930     68.7343 307.7562725  +6.6680838     6518.944      15010.6     17035.67     93.74747     187.5693     374.5804      2.411     7.38     1238.011     66.02589     679.4187        48     2.412     1.184  34.23   3
       373    479.2066     65.4858 307.7553342  +6.6695088      6136.46     15978.35     20674.36     93.29999     186.9734     374.2824      2.722    10.73     1238.152     66.02589     613.6709        59     2.932     1.292  32.51   3
       374    955.1301     66.0331 307.5570362  +6.6851206      854.967     2445.385     3585.416     93.74747     187.3461     374.6177      2.968     9.54     1228.873     66.02589     110.6454        21     1.645     1.544 -13.90   0
       375    657.3091     66.6982 307.6810938  +6.6749444     1112.982     2602.342     4804.275     93.89616     187.8666     374.5432      3.991     7.76     1232.925     66.02589     176.9022        15     1.949     0.864  23.15   3
       376    659.5638     64.3255 307.6802339  +6.6759991     903.4398     2736.027     4681.082     93.74747     187.4205     374.6177      4.078     9.65     1232.801     66.02589     133.6769        13     2.011     1.291  42.95   3
       377    285.4388     66.4420 307.8360261  +6.6626432      1055.92     2936.199     6877.338     93.59855     187.3461     374.4314      7.224     7.97     1258.301     66.02589     176.9353        18     2.107     0.977  32.92   3
       378    288.0000     63.9745 307.8350420  +6.6637475     907.6295     2688.881     6633.692     93.29999     186.8988     374.3196      6.090     7.33     1258.304     66.02589     128.5503        12     1.687     0.892 -79.07   3
       379     62.9840     63.8487 307.9287850  +6.6562687      654.432     1565.098     3253.271     93.29999     187.3461     374.2451      3.990     4.73     1266.001     66.02589     91.34705         5     0.954     0.665  28.17   0
       380    214.7318     51.5577 307.8659826  +6.6664233     3177.912     7010.671     8736.101     93.89616     187.2716     374.6921      2.339     7.89     1260.885     66.02589      304.552        36     2.120     1.150  29.25   3
       381    216.8427     48.0273 307.8652219  +6.6679514     2943.061     7793.437     10061.46     93.44939     187.3461     374.4314      2.672     9.87     1260.833     66.02589     311.2197        41     2.514     1.189  26.91   3
       382    960.2773     47.7521 307.5555020  +6.6928388     1669.656     3119.316     4420.314     93.74747     187.4205     374.5432      2.738     9.26     1227.984     66.02589     225.8923        25     2.055     1.387  -3.27   2
       383    960.9672     44.5173 307.5553225  +6.6941972     1300.792     2671.305     3468.291     93.89616     187.1971      374.506      2.519     5.33     1227.835     66.02589     154.4086        12     1.213     0.811 -23.96   3
       384    558.5864     49.1317 307.7228119  +6.6789075     826.0102     2116.378     3481.296     93.29999     187.1226     374.4314      2.997     5.01     1234.906     66.02589     108.6735         7     1.112     0.638  39.48   0
       385    761.0073     46.7866 307.6385570  +6.6866160     652.5067     1389.803     2549.924     93.44939     187.1226     374.3942      2.687     4.35     1231.458     66.02589     103.6481         5     1.039     0.518  38.30   0
       386    562.2181     46.2252 307.7213963  +6.6802285     645.8679     1960.495     3565.198     93.44939     187.1226      374.506      3.553     6.05     1234.795     66.02589     94.53967         6     1.291     0.796  42.94   2
       387    499.7809     47.6118 307.7473622  +6.6775742     623.7052     1363.231     1936.559     93.44939      187.048     374.4687      2.724     5.40     1238.114     66.02589     112.4398         7     1.497     0.550 -34.75   0
       388    744.1967     39.6226 307.6458005  +6.6890144     2481.535     6850.267     9270.331     93.44939     186.9734     374.3569      2.786     8.72      1231.88     66.02589     282.0554        49     2.234     1.772  78.42   2
       389    747.5692     38.9375 307.6444183  +6.6894095     1591.823     3374.811     4764.174     93.59855     187.4205     374.5432      2.114     6.00     1231.705     66.02589     225.8282        13     1.853     0.546  72.82   3
       390    664.1479     39.8553 307.6791433  +6.6862541     1263.863     3322.051     5838.453     93.89616     187.3461     374.5432      3.613     7.34     1232.222     66.02589     138.7925        21     1.703     1.141  54.80   2
       391     68.9095     35.0476 307.9272865  +6.6683570     2716.844      6448.75     8337.108     93.89616     187.1971     374.7294      2.593    11.43     1264.393     66.02589     309.3011        41     2.576     1.412  49.06   3
       392     65.5099     37.0177 307.9286364  +6.6674298     2547.906     5428.766     6488.928     93.59855      187.048     374.4687      2.425     8.18     1264.503     66.02589     253.4664        29     2.302     1.003  56.01   3
       393    464.6017     36.8410 307.7623797  +6.6808472     1888.421     3848.505     4839.774     93.15034      187.048     374.2451      2.379     6.31     1241.346     66.02589     236.8336        27     1.937     1.021  35.83   3
       394    466.7648     33.8014 307.7615805  +6.6821742     1733.627     4746.187     6476.526     92.85035     187.1226     374.3569      2.911     9.89      1241.41     66.02589     195.4789        34     2.236     1.219  33.69   3
       395    361.0629     31.8505 307.8056829  +6.6794507     3570.526     7888.426     10563.59     93.89616     187.2716     374.6549      2.535     7.32     1254.095     66.02589     373.6848        37     2.280     1.021  29.80   3
       396    363.8463     28.8595 307.8046238  +6.6807785      3657.19      9616.77     13422.67     93.74747     187.3461     374.6921      2.865    10.49     1253.889     66.02589     363.4551        49     2.763     1.272  30.69   3
       397    138.0800     29.6521 307.8986523  +6.6729012     798.4687     2064.715     2796.519     93.89616     187.3461     374.5804      3.392     5.36     1261.918     66.02589     127.9741         7     1.278     0.635  31.87   0
       398    566.6055   1018.3802 307.6870138  +6.2790208     2214.429     5631.366     7110.417     93.44939     186.9734     361.8894      2.656     7.14     1291.475     66.02589     239.0586        40     1.965     1.501  12.36  16
       399    635.2511   1018.4271 307.6584352  +6.2812869     779.5012     1841.363     2313.875     93.44939     187.4949     361.4265      2.494     5.57      1291.97     66.02589     129.8575         8     1.360     0.643   9.10  16
       400    520.3527   1014.6837 307.7063923  +6.2790061     1212.825     3021.945     4093.439     93.89616     187.3461     374.6177      2.786     8.46     1291.581     66.02589      157.272        22     1.679     1.340  37.44  16
       401    953.8152   1006.5677 307.5262100  +6.2967687     29748.34     62532.85      68642.6     93.44939      187.048     374.4687      2.189     4.72     1288.501     66.02589       3580.8        74     1.845     1.631  39.13   0
       402    431.0521     27.3464 307.7766756  +6.6836472     686.2334     1559.116     2846.349     94.04461     187.2716     374.6177      2.555     3.42     1244.885     66.02589       123.39         5     0.785     0.430  18.05   0
       403    287.7346     22.2429 307.8365550  +6.6809667     1785.224     3724.262       4610.9     93.89616     187.2716     374.6177      2.157     6.92     1261.036     66.02589     213.4674        18     1.369     1.008  17.08   3
       404     27.2783   1007.1403 307.9119023  +6.2656515      1810.94     3871.324     4354.995     94.04461     187.3461     374.5432      2.237     6.13     1289.843     66.02589     242.2521        27     1.704     1.329  38.23   0
       405    449.7194     21.0907 307.7691084  +6.6868528     2362.083     5086.723     6331.266     93.59855     187.6437     374.6177      2.260     7.70     1243.792     66.02589     295.0409        29     1.925     1.073  27.57   3
       406    852.1091   1000.3563 307.5687591  +6.2959572     1602.906     3303.077     3779.214     93.89616     187.2716     374.6921      2.335     5.04     1288.459     66.02589     230.9896        21     1.428     1.139 -56.95   0
       407    799.9766    998.4333 307.5905268  +6.2950193     3883.083     9322.565     11296.84     93.29999     187.1226     374.3569      2.526     5.54     1288.331     66.02589     496.2603        50     1.851     1.713  56.11   0
       408    853.8087     19.9843 307.6007886  +6.7007666     530.0596     1196.147     2329.159     93.59855      187.048     374.3942      3.250     4.94     1227.504     66.02589     83.04712         5     1.173     0.589 -11.78   0
       409     95.0653    996.4260 307.8840450  +6.2723436     1395.253     3553.282     3850.935     93.44939     187.2716     374.4687      2.398     6.97     1289.455     66.02589     188.3445        28     1.671     1.430  80.89   0
       410    988.0981    993.3212 307.5123788  +6.3033749     4718.555     9776.628     10310.74     93.59855     187.6437     374.6177      2.143     4.71     1287.754     66.02589     536.0828        40     1.653     1.406  40.45   0
       411    961.9713    985.0759 307.5235308  +6.3059124     1424.269     2705.949     3105.208     93.74747     187.4205     374.6177      2.102     5.33     1287.327     66.02589     181.7361        16     1.281     0.986 -12.17   0
       412    682.8173    981.4218 307.6398702  +6.2981474     2208.112     5570.293     6055.066     93.59855     187.1226      374.506      2.426     6.18     1289.811     66.02589     241.2191        41     1.746     1.615  67.06   0
