#   1 NUMBER                 Running object number                                     
#   2 X_IMAGE                Object position along x                                    [pixel]
#   3 Y_IMAGE                Object position along y                                    [pixel]
#   4 ALPHA_J2000            Right ascension of barycenter (J2000)                      [deg]
#   5 DELTA_J2000            Declination of barycenter (J2000)                          [deg]
#   6 FLUX_APER              Flux vector within fixed circular aperture(s)              [count]
#   9 FLUXERR_APER           RMS error vector for aperture flux(es)                     [count]
#  12 FLUX_RADIUS            Fraction-of-light radii                                    [pixel]
#  13 FWHM_IMAGE             FWHM assuming a gaussian core                              [pixel]
#  14 BACKGROUND             Background at centroid position                            [count]
#  15 THRESHOLD              Detection threshold above background                       [count]
#  16 FLUX_MAX               Peak flux above background                                 [count]
#  17 ISOAREA_IMAGE          Isophotal area above Analysis threshold                    [pixel**2]
#  18 A_IMAGE                Profile RMS along major axis                               [pixel]
#  19 B_IMAGE                Profile RMS along minor axis                               [pixel]
#  20 THETA_IMAGE            Position angle (CCW/x)                                     [deg]
#  21 FLAGS                  Extraction flags                                          
         1    672.6701     20.8054 307.6452025  +6.6898458     8481.523     11151.05      10840.4     76.91467     154.0757     308.6432      1.405     3.20     808.9214     54.43044     1250.268        28     1.353     0.863  62.24   0
         2    393.0767     16.4062 307.7615264  +6.6823275     7367.479     9713.697      10120.4     77.03783     153.9525     308.6432      1.417     3.26     814.4505     54.43044     1092.962        25     1.227     0.906  59.49   0
         3    468.7258     13.5666 307.7301883  +6.6860282     1020.452     1175.498     1517.353     77.28356     154.4444     308.7967      1.355     4.71     810.4044     54.43044     131.4461        11     1.044     0.765  58.47   0
         4    384.6295     12.0532 307.7651824  +6.6838422     968.4089     1280.391     1589.246     77.16079     154.5058     308.7353      1.408     3.88     815.3322     54.43044     174.2181        12     1.304     0.623  66.27   0
         5    289.6696     11.3135 307.8046640  +6.6809708     15149.12     20640.32     21641.83     77.52852     154.6897     308.8274      1.466     3.20     819.0771     54.43044      2302.59        37     1.320     0.987  61.92   0
         6     63.2197     11.7523 307.8987392  +6.6732012     2823.108     3992.923     4737.823     76.91467     154.4444     308.6125      1.476     3.24     815.5869     54.43044     426.9324        21     1.312     0.865  57.98   0
         7     54.6279     10.6002 307.9023478  +6.6733886     1730.701     2542.413     3009.312     76.91467     154.1987     308.6125      1.607     3.36      815.553     54.43044     287.5081        16     1.318     0.677  61.29   0
         8    758.1053     10.2364 307.6100553  +6.6970563     996.8837     1240.105      1223.57     77.52852     154.3216     308.8888      1.415     3.55     807.7659     54.43044     178.8587        10     1.079     0.637  73.49   0
         9    424.0812      9.6449 307.7488704  +6.6861554     672.6094     826.9976     794.2562     77.40614     154.4444      308.766      1.338     3.45     811.5799     54.43044     116.5469         5     0.978     0.351  44.77   0
        10    355.7695      9.1991 307.7772698  +6.6840554     2621.858     3637.275     3677.131     76.79131     154.2601     308.6125      1.450     3.60     818.5939     54.43044     366.9138        19     1.242     0.806  56.01   0
        11    616.6244      4.7248 307.6690293  +6.6946159     12538.04      17010.5     17858.36     77.03783     154.2601     279.5331      1.422     3.18     808.9097     54.43044     1904.212        35     1.343     0.936  65.76  24
        12    950.8893      5.9275 307.5300902  +6.7052499      852.274      1207.89     1820.466     77.40614     154.6897     292.2666      1.390     4.17     806.8396     54.43044     127.7995         9     1.017     0.629  57.36  16
        13     34.4140      5.7495 307.9109099  +6.6747129     777.8925     988.8984      1238.46     76.79131     154.4444     290.3465      1.416     2.74     815.3519     54.43044     131.2479         8     0.956     0.702  28.95  16
        14    781.1994      4.0305 307.6006663  +6.7003876     1834.583     2731.484     3008.284     76.79131     152.5296     270.9915      1.534     3.84     807.5271     54.43044     288.8741        17     1.349     0.785  63.18  24
        15    494.3393      4.4803 307.7198500  +6.6906351     1531.269     1873.666     1872.128     77.52852     154.4444      276.738      1.319     3.14     809.9451     54.43044     233.5392        13     1.068     0.728  59.96  16
        16    851.6956      2.3088 307.5714301  +6.7034450     1711.865     2196.315     2595.442     76.66775     136.5239      247.476      1.323     3.59     807.2369     54.43044     268.5701        11     1.064     0.638  56.84  24
        17    393.1391      2.2996 307.7619738  +6.6881536     644.8999     1017.243     948.7398     76.42004     135.9672      247.476      1.888     4.40     814.4454     54.43044      115.776         8     1.097     0.503  55.05  24
        18    216.6540      2.0538 307.8353137  +6.6823488      7035.45     8335.223     8118.452     75.29523     133.0777     243.8484      1.278     3.36     818.5042     54.43044      1159.01        19     1.117     0.791  37.12  26
        19    220.9819      1.0000 307.8335508  +6.6829289     464.7348     615.4214     533.3018     62.34603     117.1659     226.6399      0.884     3.59     818.7234     54.43044      146.776         5     1.004     0.370   0.16  27
        20    738.3802      2.1828 307.6185210  +6.6997242     577.9875     532.9649     764.6782     75.67202     134.4245     245.5917      1.180     3.33     807.4475     54.43044     105.5217         5     0.781     0.411  67.16  24
        21    608.6158      1.4169 307.6724679  +6.6957145      5293.95     5991.577     6256.874     68.43533     123.6997     233.6024      0.949     2.06     808.8776     54.43044     1400.739        13     0.921     0.591   5.05  24
        22    378.4121      1.4895 307.7681203  +6.6879956     4825.583     5441.434      5217.24     68.98724     124.9958     234.6552      0.977     2.23     816.1922     54.43044     1141.276        14     0.953     0.652   1.99  24
        23    638.5183      1.1592 307.6600511  +6.6968182     2210.835     2594.664      3135.13     65.17123     119.9645     229.3428      0.806     1.59     808.5931     54.43044     764.4847         6     0.739     0.366  -0.13  24
        24    286.3468    990.0592 307.7731924  +6.2767699     541.3954     677.3823     404.7642     77.40614      154.383     308.7967      1.428     3.46     840.7407     54.43044     96.27551         5     0.814     0.425  72.00   0
        25    921.0847   1023.8011 307.5085264  +6.2839998     943.1407     1217.753     1189.241     65.17122     120.4377      229.962      1.083     3.08       837.14     54.43044     244.4279         7     1.034     0.391  -4.86  24
        26    696.0193   1023.5362 307.6019813  +6.2766211     864.2448     1079.491     1119.986     68.84967     124.6921     234.2913      1.228     3.62     840.1275     54.43044     154.8296         9     1.047     0.615   2.21  24
        27    680.8119   1023.4033 307.6082997  +6.2761693     1653.462     1888.228     1786.337     70.21317     126.3537     236.3861      1.154     2.97     840.4174     54.43044     334.4887        11     1.058     0.635 -15.23  24
        28    327.4944   1022.0967 307.7550346  +6.2649184     1908.226     2485.311     2401.496     77.40614     143.4322     256.0986      1.491     3.82     842.0998     54.43044     236.9244        18     1.232     0.939  46.69  24
        29    188.2978    987.3101 307.8139925  +6.2746243     1900.559     2926.807     3287.086     77.40614     154.8735     308.7967      1.742     3.76     839.0677     54.43044     279.5424        20     1.276     0.991  69.69   0
        30    587.1409    985.5319 307.6484571  +6.2886836     894.3698     1301.013     1275.958     77.52852      154.383     308.7967      1.646     5.70     841.5839     54.43044     121.8076        11     1.188     0.771  57.66   0
        31    778.9813    982.7281 307.5688980  +6.2962320      2321.72     3820.178     3919.408     77.03783      154.383     308.7353      1.743     3.94     838.7269     54.43044     314.7208        24     1.415     1.037  48.32   0
        32    727.2125    980.7408 307.5904591  +6.2953291     6612.927     10713.81     11805.99     76.79131      154.383     308.5203      1.755     3.73     838.8889     54.43044     871.2579        39     1.651     1.135  86.94   0
        33    196.4455    979.9311 307.8108575  +6.2779435     1504.287     2358.156     2400.137     77.40614      154.383     308.7967      1.621     4.09     839.0176     54.43044     224.7195        17     1.309     0.875  62.84   0
        34    514.0829    979.7025 307.6789857  +6.2886535     1069.779     1625.561     1928.577     77.40614     154.8123     308.8581      1.708     4.28     841.7033     54.43044      124.972        13     1.103     0.838  68.06   0
        35    161.0496    979.3149 307.8255738  +6.2770130     920.2016     1180.846     1336.057     77.40614     154.4444     308.8888      1.398     4.77     838.4236     54.43044     116.0656         9     1.020     0.633  52.62   0
        36    915.4524    975.7538 307.5124662  +6.3036504     6258.921     10837.09     11184.75     77.52852      154.383     308.8581      1.874     4.11     835.8754     54.43044     697.1905        40     1.578     1.269  66.67   0
        37     21.5113    977.7971 307.8835572  +6.2729641     2813.823     4322.025     4308.082     76.79131     154.1372     308.5203      1.624     3.57     836.6849     54.43044      347.363        25     1.297     1.079  58.03   0
        38    597.4785    970.0527 307.6446825  +6.2954193     800.9822     1204.513     1348.825     77.40614     154.4444     308.7967      1.560     6.42     841.1199     54.43044     117.5209        12     1.299     0.890  56.66   0
        39    889.1772    967.2752 307.5236587  +6.3062777     2014.264     3214.566      3311.79     77.03783     154.3216     308.7046      1.722     3.95     836.4116     54.43044     279.0955        21     1.323     1.005  57.65   0
        40    748.7493    964.0627 307.5820737  +6.3029322      1276.89     2060.022     2822.445     77.40614      154.383     308.8581      1.998     5.24     838.4775     54.43044     166.9673        18     1.352     0.997  46.95   0
        41    222.0482    963.6213 307.8007751  +6.2855342     4624.636     6732.989     6758.237     77.03783     154.4444     308.6739      1.532     3.32      838.917     54.43044      597.841        28     1.329     1.049  61.60   0
        42    609.8895    963.2782 307.6397559  +6.2986301     4646.527     6898.406     6759.558      77.1608     154.6897     308.9195      1.585     3.56     840.8517     54.43044     600.9717        27     1.332     1.015  64.31   0
        43    959.3596    962.3311 307.4946824  +6.3106514      759.897     1270.784     1292.976     77.28356     154.4444     308.8888      1.786     4.10     834.3038     54.43044     127.5664         9     1.130     0.903 -40.41   0
        44    432.0820    961.6954 307.7136352  +6.2933507     1222.716     1829.367     1402.109      77.1608      154.751     308.9195      1.551     5.01     840.8983     54.43044     169.8293        15     1.389     0.796  57.59   0
        45    841.7160    959.8430 307.5436133  +6.3077680     937.8145     1430.828     1009.381     77.40614      154.383      308.766      1.497     3.96     837.4764     54.43044     134.6368        11     0.977     0.870  85.95   0
        46    934.1631    957.5787 307.5053029  +6.3117764     585.6449     1062.016      1317.67     77.03783     154.1987      308.551      1.994     4.98     834.7853     54.43044     70.64899         7     1.549     0.453  62.34   0
        47    913.6771    957.3748 307.5138159  +6.3111798     685.1934     1022.539     1140.386     77.03783      154.383      308.766      1.704     4.86     835.3484     54.43044     100.5991         8     0.946     0.707  83.71   0
        48    965.9980    955.4668 307.4921547  +6.3137061     852.4717     1553.237     1793.275     76.79131     154.0757     308.5817      1.862     7.41     833.9768     54.43044     124.1229        13     1.730     0.888 -68.87   0
        49    534.5117    955.9360 307.6712989  +6.2991476     1787.521     2621.291     2496.419     77.40614     154.6897     308.7967      1.575     4.19     841.0759     54.43044     240.3644        16     1.305     0.800  62.52   0
        50    258.0308    957.0431 307.7860563  +6.2894540     873.6307     1129.162     1356.479     77.03783      154.383     308.6432      1.344     4.82     839.1194     54.43044     135.3018         9     1.021     0.646  39.02   0
        51    573.7165    952.1709 307.6551467  +6.3020099     1311.322     1837.025     1906.749     77.40614     154.1987     308.6739      1.496     3.98     840.8043     54.43044     175.0136        13     1.103     0.822  63.48   0
        52     23.5452    952.6234 307.8835594  +6.2834255     717.1678     1077.077     1094.677     77.03783     154.4444     308.6125      1.485     3.43     835.7449     54.43044     122.1849         7     1.084     0.492 -85.54   0
        53    253.6567    950.1069 307.7881051  +6.2921714     1470.634     2148.334     2365.844     77.28356     154.4444     308.9809      1.630     4.89     838.8186     54.43044     177.8991        16     1.328     0.880  78.41   0
        54    521.7797    948.3533 307.6768390  +6.3018535     591.4116     786.8646     433.3195     77.03783     154.4444     308.6432      1.426     3.49     840.8668     54.43044     85.16058         5     1.223     0.288  54.63   0
        55    720.6371    946.2567 307.5943409  +6.3093479     925.5491     1293.462     873.0168     77.40614     154.5058     308.8274      1.472     4.08     838.4852     54.43044     127.8679         9     0.998     0.638 -81.82   0
        56    858.1838    942.5360 307.5373528  +6.3154615     6826.726     11090.18     11184.91     76.91467      154.383     308.6739      1.728     3.81     836.7414     54.43044      816.704        36     1.489     1.162  59.53   0
        57     95.8103    944.1201 307.8538422  +6.2893583     573.4491     784.8391     532.9005     77.03783     154.1372     308.6432      1.406     2.65     836.2943     54.43044     85.87512         5     0.894     0.728 -84.05   0
        58    393.9724    939.9047 307.7301883  +6.3010745     2334.784     3470.646     3850.778     77.52852     154.1987     308.7046      1.554     4.04     839.6507     54.43044     339.7322        19     1.334     0.844  63.00   0
        59    295.6266    938.1808 307.7710794  +6.2984991     10251.92     15022.69     15918.98     77.03783     154.2601     308.7046      1.577     3.46      838.807     54.43044     1324.343        34     1.364     1.063  64.00   0
        60    215.6652    937.1537 307.8043136  +6.2962481     7530.376     11162.38     11817.25     77.40614      154.383     308.7967      1.600     3.41     837.9832     54.43044      954.879        32     1.367     1.049  69.61   0
        61    543.8022    931.4390 307.6682609  +6.3095718     1351.063     1878.321      1305.28     76.54399     154.1987     308.5203      1.542     4.40     840.4224     54.43044      168.418        13     1.161     0.778  72.31   0
        62    873.5102    927.6119 307.5314865  +6.3221330      1124.66      1961.58     2327.215      77.1608     154.1372     308.6125      1.921     5.07     835.9139     54.43044      137.291        12     1.101     0.897  41.49   0
        63    830.5812    927.0925 307.5493292  +6.3209197     758.8953     1413.837     1824.953     77.28356     154.1987     308.6739      2.393     4.98      837.067     54.43044      100.621        11     1.100     0.757  58.93   0
        64    178.1030    927.4653 307.8202345  +6.2989907     571.2555     882.3636     552.2004     77.40614     154.5058     308.8274      1.835     3.88      837.471     54.43044     95.47327         5     1.286     0.335  47.67   0
        65    106.4026    927.8260 307.8499919  +6.2964404     624.2843     665.6018     436.0774     76.91467     154.1372     308.6125      1.343     4.51     836.1466     54.43044     102.0365         5     0.857     0.674  45.00   0
        66    802.6501    921.5369 307.5611124  +6.3222842     496.8524     862.0223     801.6711     77.40614      154.383     308.8581      1.657     3.97     837.6475     54.43044     69.78821         6     0.946     0.477  89.92   0
        67    710.0950    920.5920 307.5995754  +6.3195932     1819.887     2684.665       3101.1     77.16079     154.0757     308.6125      1.687     3.79     838.3286     54.43044     245.5957        17     1.218     0.879  63.40   0
        68    533.7927    921.0057 307.6727662  +6.3135455     588.9393     640.1317      805.698     76.79131     154.2601     308.6432      1.227     3.87     840.1627     54.43044      89.1181         5     0.833     0.515  34.99   0
        69    941.4308    916.2999 307.5036607  +6.3290612     1332.665      2118.13     2822.771     77.40614     154.1987     308.9502      1.836     4.36     833.6287     54.43044      187.474        15     1.276     0.874  49.48   0
        70    585.5634    917.0559 307.6514021  +6.3169031     742.6346     1204.468     737.3383     77.28356     154.4444     308.8274      1.388     3.65      839.861     54.43044     125.9594         6     0.811     0.473  76.89   0
        71    495.3141    916.4623 307.6888952  +6.3141373     1284.343     2044.138     1822.769     77.52852     154.6284     308.7967      1.723     3.78      840.063     54.43044     171.0688        15     1.113     0.914  34.67   0
        72    628.7796    914.1074 307.6335563  +6.3195612     2798.173      4162.26     4417.474     77.28356     154.2601     308.6432      1.596     3.25     839.3691     54.43044     417.8164        22     1.314     0.921  60.52   0
        73    574.5701    917.6055 307.6559483  +6.3163095     949.0627     1174.442     1081.484     76.91467     154.2601     308.5817      1.485     4.64     839.9372     54.43044     148.0649        13     1.354     0.671  61.79   0
        74     25.2671    910.3367 307.8842666  +6.3009417     3084.201      4764.74     5110.374     77.40614     154.4444     308.8274      1.663     3.59     834.5813     54.43044     403.6848        28     1.361     1.128  78.47   0
        75    789.8130    910.4338 307.5668133  +6.3264413     879.3146     1419.022     1157.385     76.91467     154.1987     308.7046      1.680     5.31     837.5012     54.43044     144.6796        10     1.073     0.742  63.27   0
        76    168.7432    909.1407 307.8247361  +6.3062429     2364.444     3556.287     3412.029     77.52852     154.4444     308.8274      1.559     3.39      837.046     54.43044     315.4406        20     1.208     1.010  78.80   0
        77     42.8827    909.7324 307.8769730  +6.3017817     1791.356     2664.909     2683.427     77.52852     154.6897     308.8274      1.548     3.85     834.8063     54.43044     237.6666        19     1.319     0.887  60.39   0
        78    906.8505    908.9740 307.5182639  +6.3309367     855.6909      1385.37     1696.681     77.03783     154.5058     308.7046      2.205     5.26     834.5569     54.43044       124.77        10     1.067     0.733  48.31   0
        79    307.5263    905.0129 307.7672510  +6.3125910     897.9808     1373.243     1134.537     76.91467     154.1372     308.6125      1.525     4.78     838.2678     54.43044     133.1236         8     1.090     0.594  57.03   0
        80    202.8545    905.8088 307.8106848  +6.3087605     748.5129      1305.21     800.9802     76.79131      154.383     308.5203      1.872     4.67     837.3834     54.43044     156.0029         7     1.280     0.485  50.37   0
        81    760.8748    904.1060 307.5790406  +6.3280907     795.2535       1220.1     1134.729      77.1608     154.6284     308.7967      1.860     5.15     837.6983     54.43044     115.7615        10     1.151     0.652  66.65   0
        82    623.3373    903.1284 307.6361831  +6.3239128     7543.338     11149.67     11194.54     77.40614     154.4444     308.8581      1.584     3.38     839.2295     54.43044      1030.62        34     1.420     1.062  71.79   0
        83    861.1428    899.3281 307.5375651  +6.3333996     2709.495     4107.634     3736.085     77.52852     154.4444      308.766      1.616     3.85     835.9424     54.43044     350.3617        23     1.310     1.075  49.74   0
        84    412.6274    900.8613 307.7237506  +6.3178176     484.9227      618.597     246.6813     77.03783     154.5058     308.7046      1.375     2.44     839.0201     54.43044     106.6701         5     0.724     0.437  69.01   0
        85    736.0670    900.0638 307.5894766  +6.3289338     588.9935     759.6824     525.0374     77.40614     154.4444     308.8274      1.392     2.95     837.9626     54.43044     94.00946         5     0.621     0.598  -8.79   0
        86    306.3349    896.4229 307.7680338  +6.3160976     17901.34     25787.27     27029.92     77.03783     154.4444     308.7046      1.582     3.43     838.1348     54.43044     2497.428        49     1.443     1.138  64.48   0
        87     40.8570    897.3983 307.8782288  +6.3068061     1373.697     2104.579      1940.02     76.79131     154.1372      308.551      1.650     5.01     834.5651     54.43044     197.4224        17     1.464     0.823  78.46   0
        88    177.2669    896.2029 307.8216315  +6.3118698     1362.886     2180.436      1415.88     76.79131     154.1372     308.6125      1.527     3.58     836.8947     54.43044     234.2208        12     1.210     0.664  51.15   0
        89    357.1302    895.6028 307.7469703  +6.3181343      777.973      1087.13     1058.276     76.91467     154.0757     308.6125      1.363     3.60     838.6436     54.43044     136.5507         8     1.007     0.709  74.12   0
        90     69.5994    887.1688 307.8666390  +6.3119929     1798.566     2831.492     3018.384     76.79131     154.2601     308.6125      1.689     4.05     834.6532     54.43044     206.8245        18     1.255     0.957  66.71   0
        91    384.2776    887.5205 307.7359691  +6.3223785     1085.433     1485.957     978.3754     77.65071     154.6897     308.9502      1.571     5.44     838.7159     54.43044     152.2222        12     1.268     0.723  42.75   0
        92    465.0090    884.1617 307.7025599  +6.3264617     700.5349     873.3133     1061.425     76.66775     154.2601     308.5203      1.451     4.35     839.2249     54.43044     112.4788         8     1.115     0.483  53.59   0
        93    637.6913    883.1742 307.6308899  +6.3326299     1026.217     1348.893     1785.167     77.52852     154.1987     308.6432      1.392     4.75     838.6423     54.43044     136.1837        12     1.200     0.694  57.11   0
        94    851.4263    881.0089 307.5422108  +6.3406401     1928.444     2992.809     3080.458     77.03783     154.2601     308.6739      1.635     4.11     835.8674     54.43044     239.9791        19     1.410     0.864  57.63   0
        95    822.0956    880.5985 307.5544039  +6.3398339     2090.159      3270.81     3710.501     76.91467     154.1987     308.4281      1.670     3.87     836.3458     54.43044     284.5543        22     1.339     1.003  51.47   0
        96     53.1663    880.7000 307.8736795  +6.3141128     2447.113     3669.083     4063.028     77.40614     154.3216     308.9502      1.669     3.73     834.3926     54.43044     312.9454        20     1.250     0.964  69.05   0
        97    785.5915    879.9169 307.5695848  +6.3389006     3209.753     4871.051     5133.779     77.03783     154.1372     308.6432      1.608     3.71     836.9576     54.43044     395.9751        24     1.375     0.984  61.16   0
        98    301.1090    878.7070 307.7707978  +6.3232372     619.0538     608.8279     808.5958     77.40614     154.9347     308.7967      1.286     4.37     837.8661     54.43044     97.06647         7     1.041     0.523  64.84   0
        99    521.4612    871.5937 307.6795400  +6.3335350     366892.3     518958.7     538863.4     76.79131     154.2601     308.5817      1.559     3.65     838.9359     54.43044     52664.31       157     1.564     1.218  66.96   4
       100    365.6880    874.1755 307.7441351  +6.3272671     8442.696     11786.28     12054.08     77.52852     154.2601     308.6739      1.490     3.36     838.4629     54.43044     1121.774        31     1.352     0.975  66.63   0
       101    308.8984    872.5847 307.7677688  +6.3260254     13815.18     19451.21     20061.28     77.40614     154.1987      308.551      1.531     3.37     837.8798     54.43044     1824.761        38     1.400     1.032  62.40   0
       102    859.7839    867.6792 307.5391850  +6.3464216     5333.143     8280.448      8873.24     77.03783     154.1987     308.6432      1.683     3.63     835.5432     54.43044     662.1697        32     1.515     1.023  64.18   0
       103    627.3368    868.8486 307.6356684  +6.3381994     3751.403     5343.167     5668.347     77.28356      154.383     308.8581      1.552     3.52     838.4719     54.43044     519.1055        22     1.266     0.936  64.36   0
       104    698.9554    865.5182 307.6060407  +6.3419610      875.775     1300.372     1417.312     77.40614     154.4444      308.766      1.519     5.21     837.9706     54.43044      134.228        11     1.195     0.641  70.86   0
       105    993.2235    861.7963 307.4839699  +6.3532854     4308.624     7216.651     7396.562     77.03783     154.1372     308.6432      1.756     4.08     831.0748     54.43044     537.7596        32     1.553     1.095  66.15   0
       106    602.0627    862.7289 307.6463678  +6.3398835     3588.484      5203.18     5579.196     77.40614     154.4444     308.8581      1.558     3.70     838.4837     54.43044     501.3196        23     1.405     0.882  65.36   0
       107    790.5612    861.9709 307.5681201  +6.3464756     1715.257     2487.254     2759.703     76.91467     154.1372     308.6432      1.530     3.74     836.5032     54.43044     232.7768        16     1.151     0.901  57.68   0
       108    592.3932    861.8320 307.6504130  +6.3399314     1073.017       1498.3     1592.156     76.79131     154.3216     308.6125      1.549     4.50     838.4683     54.43044     156.8856        16     1.341     0.840  74.49   2
       109    595.0914    857.3525 307.6494424  +6.3418708      2209.46     2936.055      2251.69     77.40614      154.383     308.9195      1.434     3.80     838.3004     54.43044     310.2876        14     1.116     0.769  68.56   2
       110    917.5804    861.3735 307.5153952  +6.3509467     833.2065     1310.785      1615.45     76.91467     154.2601     308.7046      1.873     5.44     833.6684     54.43044     112.9641        11     1.250     0.669  41.32   0
       111    609.3771    874.6586 307.6429317  +6.3352019     1261.536     2006.861     2364.296     77.03783     154.4444     308.6432      1.707     4.12     838.7665     54.43044      178.477        13     1.214     0.764  71.92   0
       112    878.6595    855.5668 307.5317508  +6.3520503     3218.931     4991.666     4817.258     77.28356     154.5058     308.7353      1.657     3.74     834.8167     54.43044     392.8311        24     1.372     0.973  62.98   0
       113    288.9459    856.4467 307.7765949  +6.3320210     1083.509     1568.981     1282.213     77.40614     154.4444     308.8274      1.546     4.09     837.3188     54.43044     160.1862        14     1.064     0.986 -88.99   0
       114    336.8312    851.5469 307.7568759  +6.3356452     2925.994     4172.855     4035.155     77.28356     154.5058     308.7046      1.534     3.37     837.5507     54.43044     392.6407        19     1.218     0.897  64.03   0
       115    817.0720    847.4823 307.5575950  +6.3533398     586.8496     852.3265     939.1754     77.65071      154.751     308.8274      1.469     5.36     835.8311     54.43044     95.69556         7     1.023     0.794 -35.91   0
       116    305.3371    844.0341 307.7702052  +6.3376939     573.6417     711.6829     10.36223     77.28356     154.5058     308.7967      1.393     4.16     837.0785     54.43044     87.83862         5     0.803     0.614   4.86   0
       117    473.0362    841.2003 307.7006654  +6.3444673     3397.981     4835.103     5086.761     76.42004     154.2601     308.6125      1.486     3.52     837.6439     54.43044      464.207        20     1.229     0.913  62.45   0
       118    817.8317    840.1449 307.5575244  +6.3563945     942.2733      1583.38     1873.252     77.28356     154.5058      308.766      1.973     4.26      835.716     54.43044      130.348        10     1.067     0.660  78.75   0
       119    538.1063    839.0614 307.6737170  +6.3475221     759.6181      981.866     999.5589     77.28356     154.4444     308.8274      1.349     3.99     837.5795     54.43044     160.1595         8     1.094     0.513  83.79   0
       120    519.8877    837.4379 307.6813365  +6.3475845     6763.414     9652.089     9894.391     77.40614      154.383     308.7967      1.535     3.52      837.489     54.43044     901.7134        29     1.394     0.971  65.89   0
       121    526.7034    836.7427 307.6785296  +6.3480990     1476.806     2036.145      2437.24     77.28356      154.383     308.9809      1.560     3.90     837.4908     54.43044     209.4256        13     1.148     0.759  66.48   0
       122    231.3878    837.7593 307.8011216  +6.3378108     784.5598     955.5172      740.838     76.79131     154.2601     308.5817      1.399     4.51      836.313     54.43044     112.5538         9     1.107     0.597  54.64   0
       123     79.4309    835.9086 307.8642800  +6.3334858     1365.212     2265.165     1824.545     77.52852     154.2601      308.766      1.748     5.41     833.7886     54.43044     199.5647        16     1.500     0.788  66.06   0
       124    437.6785    836.2856 307.7155119  +6.3453158      1755.04     2307.021     2132.542     77.40614      154.751     308.8888      1.375     3.70     837.2039     54.43044     239.9073        14     1.171     0.770  60.42   0
       125    855.5475    835.2738 307.5420251  +6.3596603     1427.464     2282.271     1787.922     77.40614     154.5058     308.8274      1.688     3.74     834.9919     54.43044     176.4811        15     1.146     0.878  50.51   0
       126    655.3254    834.1508 307.6252061  +6.3534582     775.8288     807.4669      550.634     77.40614     154.5058     308.8274      1.348     3.33     837.4135     54.43044     144.0451         5     0.785     0.410  70.21   0
       127    490.5712    831.2633 307.6937168  +6.3491554     21796.63     30500.12     31438.19      77.1608     154.4444     308.7353      1.531     3.37     837.1833     54.43044     3028.008        42     1.390     1.047  67.51   0
       128    331.7816    833.4089 307.7595808  +6.3429650     774.2122     954.0767     948.5423      77.1608     154.1987     308.6125      1.257     4.51     836.7394     54.43044     123.2148         8     0.988     0.584  61.09   0
       129    904.0846    829.4631 307.5220633  +6.3636733     3961.635     6182.632     5576.446     77.52852     154.5671      308.766      1.664     3.65     833.5925     54.43044     494.0938        25     1.388     1.001  54.86   0
       130     24.2597    827.1843 307.8874815  +6.3352381     651.4794     779.9638     825.0989     76.91467      154.383      308.551      1.174     4.07     832.7694     54.43044     117.8726         9     1.021     0.617  59.14   0
       131      1.4731    822.0878 307.8971143  +6.3365780     1076.038     1536.693     1524.667     69.12452     124.9958     234.6956      1.424     4.67     832.2132     54.43044     195.0751        10     1.282     0.610 -89.09  24
       132    283.1766    820.0897 307.7802102  +6.3468387      3694.93      5537.73     5745.632     77.40614     154.2601     308.6739      1.582     3.48     836.3171     54.43044     518.7474        23     1.321     0.939  66.59   0
       133    748.7167    815.7996 307.5870378  +6.3641459      59013.2     85629.05     88581.22     76.66775     153.9525     308.4588      1.525     3.40     836.4876     54.43044     7943.624        63     1.466     1.115  64.12   0
       134    687.4485    817.8359 307.6124120  +6.3612646      740.292     913.7177     1061.666      77.1608      154.383     308.7353      1.329     4.71     836.9271     54.43044     112.4407         8     0.976     0.646  34.26   0
       135    206.0458    813.7237 307.8124514  +6.3468860     5692.955     8771.349     10580.66     77.28356     154.5058     308.8274      1.690     3.51     835.0736     54.43044     780.5372        33     1.421     1.134  78.61   1
       136    391.9578    814.6674 307.7352215  +6.3527140      982.358     1300.167     1121.463     77.40614      154.383     308.8581      1.467     3.98     835.9223     54.43044     139.8169        11     1.036     0.705  63.18   0
       137    873.9270    811.0126 307.5352020  +6.3702886     8755.277     13530.26     13843.69     76.91467     154.1372     308.6125      1.604     3.43     834.1144     54.43044     1243.933        35     1.465     1.069  62.44   0
       138    676.9121    810.4185 307.6170353  +6.3639761     23340.76     33911.56     36580.63     77.16079     154.1987     308.7046      1.554     3.38      836.791     54.43044     3097.268        48     1.496     1.080  64.93   3
       139    670.6373    806.8823 307.6197591  +6.3652270     96364.45     135848.5     140752.2     77.40614     154.4444      308.766      1.519     3.34      836.744     54.43044     13181.52        74     1.474     1.097  66.90   3
       140    315.5201    807.8572 307.7671902  +6.3529708     23124.34     32616.46      33506.6     77.40614     154.4444     308.7967      1.511     3.37     835.8584     54.43044      3240.59        43     1.407     1.034  62.45   0
       141    377.3925    805.7024 307.7415701  +6.3559287     24957.06     34664.64     35771.62      77.1608     154.0757     308.5817      1.514     3.45     835.4476     54.43044     3580.985        46     1.393     1.044  68.01   0
       142    364.8307    808.1547 307.7467042  +6.3544964     1554.917     2205.755     2361.788     77.03783     154.5058     308.6739      1.475     3.68      835.541     54.43044     225.3804        16     1.269     0.851  63.87   0
       143    604.1974    807.1322 307.6473407  +6.3629092     901.0223      1290.01     1642.801     76.79131     154.0757     308.6125      1.559     4.28     836.7468     54.43044     139.6922        10     1.024     0.874  64.51   0
       144    205.5103    792.2285 307.8133954  +6.3557428     775597.8      1618300      1765845     77.52852     154.1987     308.7046      2.162     4.83     834.3084     54.43044     62840.39       560     2.338     2.036  71.72   4
       145    914.5659    804.4730 307.5185439  +6.3743397     2114.056      3197.14     3224.868     77.28357      154.383      308.766      1.676     4.53     832.8934     54.43044     262.9961        19     1.389     0.962  75.38   0
       146    870.8881    802.4659 307.5367490  +6.3737163     7034.255     10214.25     11042.01     77.40614     154.6284      308.766      1.594     3.48     834.0217     54.43044      889.085        31     1.425     0.997  60.95   0
       147    611.4536    801.4948 307.6445160  +6.3654787     7206.692     9877.629     9708.399     77.28357      154.383     309.0422      1.508     3.46     836.6097     54.43044     1029.988        31     1.351     0.975  60.87   0
       148    400.1584    799.4620 307.7323257  +6.3592659      1939.66     2990.919     2794.784     77.40614      154.383     308.8888      1.641     4.01     835.1348     54.43044     266.6906        20     1.382     0.955  65.61   0
       149    125.2214    798.7141 307.8465166  +6.3503763     902.4941     1060.799     1266.196     77.40614     154.1987     308.7046      1.450     5.20     833.8606     54.43044     115.6827        11     1.201     0.851  87.04   0
       150    449.9400    797.7334 307.7117117  +6.3616424     461.9959      732.879     410.7723     77.52852      154.383     308.7967      1.536     3.87     835.3223     54.43044     86.22345         5     0.861     0.499  49.86   0
       151    700.0009    796.0538 307.6079273  +6.3706761     520.5456      1085.93     1025.256     76.79131     154.1372     308.3666      1.599     3.77     836.3267     54.43044     77.29517         5     1.022     0.400  59.63   0
       152    236.2349    795.9872 307.8005111  +6.3552193     542.5292     1025.291     2812.808     76.91467     154.2601     308.6125      1.835     3.89     834.7864     54.43044     76.10602         5     0.836     0.518  35.65   0
       153    994.1001    794.1530 307.4858592  +6.3812433     704.0044     960.6868     1423.403     77.40614     154.3216     309.0115      1.333     3.26     830.9575     54.43044     141.5086         8     0.899     0.710 -79.84   0
       154    839.4085    793.5914 307.5501177  +6.3763334     899.3853     1188.729      1628.59     76.79131     154.2601     308.6739      1.541     5.43     834.5774     54.43044     130.6021        11     1.250     0.666  52.50   0
       155    564.4253    793.3939 307.6643160  +6.3672551     1056.308     1282.559     1283.138     76.91467     154.2601     308.6125      1.357     3.78     835.8564     54.43044      166.233        11     1.082     0.694  63.58   0
       156    115.8637    792.8604 307.8505990  +6.3524796     970.3757     1506.548     1556.842     77.40614      154.383     308.8274      1.590     3.36     833.4777     54.43044     162.5131         9     1.038     0.594  70.58   0
       157    646.4664    791.6016 307.6303072  +6.3707306     2693.289     3819.076     3414.589     76.79131     154.0757     308.5817      1.467     3.16     836.3047     54.43044     437.3771        18     1.237     0.818  70.26   0
       158     90.5739    792.4124 307.8611153  +6.3518171     1080.324     1509.831     1531.155     77.03783     154.2601     308.7353      1.537     4.29     833.1328     54.43044     141.4669        11     1.178     0.636  53.80   0
       159    923.4763    789.8874 307.5153299  +6.3806581     666.9889     1131.474     1248.327     77.40614      154.751     308.8888      1.626     5.35     832.5306     54.43044     105.6122         9     1.496     0.539  74.12   0
       160    380.3480    788.3273 307.7409253  +6.3632011     60074.28     83572.34     86692.99     77.40614     154.4444     308.8274      1.532     3.41     834.8072     54.43044     8637.581        65     1.424     1.120  62.80   0
       161    498.0481    787.3255 307.6920830  +6.3675457     7957.201     11096.44     11183.98     77.28356     154.5058     308.8274      1.471     3.72     835.1989     54.43044      1090.07        29     1.376     0.901  63.99   0
       162     32.2157    789.7129 307.8854383  +6.3509753     493.9874     673.5002     543.3476     77.03783     154.1987     308.6739      1.147     3.38     831.8977     54.43044     113.6082         5     0.940     0.352  47.40   0
       163    232.8375    781.0574 307.8024230  +6.3612696      702.184     1996.724     6219.709     77.40614     154.5058     308.7967     10.334    15.23     834.3704     54.43044     132.6403        31     5.109     1.262 -46.19   3
       164    411.4675    779.2297 307.7283076  +6.3679970     2629.762     3804.246     4310.655      77.1608     154.4444      308.766      1.582     3.48     834.5364     54.43044     403.7482        20     1.362     0.851  78.57   1
       165    765.0883    778.1509 307.5814964  +6.3802353     1356.575     2123.162     1828.255     77.40614     154.2601     308.8888      1.662     4.17     835.3881     54.43044      173.175        13     1.130     0.739  64.10   0
       166    109.0418    776.3471 307.8539867  +6.3590687     3381.179       4862.3     5394.859     77.40614     154.5058     308.8274      1.607     3.68     832.5925     54.43044     453.6918        20     1.313     0.844  63.50   0
       167     93.1900    766.9491 307.8608849  +6.3624176     2196.774     3150.308     3348.155     76.91467     154.3216     308.5203      1.562     3.64     832.0342     54.43044     327.0729        18     1.286     0.875  56.53   2
       168    101.0152    776.0098 307.8573310  +6.3589390     12504.28     18213.37     19673.78      77.1608     154.1987     308.7046      1.536     3.39     832.5317     54.43044     1650.418        39     1.389     1.094  59.69   2
       169     93.2285    773.5462 307.8606472  +6.3596952     3189.137     4823.103     5803.536      77.1608     154.5058     308.7046      1.750     3.68     832.3531     54.43044     440.3401        25     1.502     0.920  53.05   3
       170    932.4663    776.9217 307.5120287  +6.3863101     695.6163     1079.495     1254.624     77.52852     154.5058      308.766      1.733     5.26      832.197     54.43044     89.82135         7     1.041     0.750  -9.57   0
       171    888.7888    772.4558 307.5303161  +6.3867021     6884.673     10084.22     10591.14     76.79131      154.383     308.4895      1.603     3.45     833.1003     54.43044     888.7036        29     1.381     0.986  64.85   0
       172    938.0133    772.2595 307.5098806  +6.3884194     1550.092     2310.546      3006.46     76.79131      154.383     308.4895      1.527     3.97     832.0072     54.43044     194.8271        16     1.265     0.848  71.67   0
       173    414.8294    786.0164 307.7266841  +6.3653074     4969.564     6938.302     7602.492     77.03783     154.1987     308.7353      1.479     3.55     834.7456     54.43044      625.611        23     1.282     0.884  61.99   0
       174    644.2155    770.0710 307.6319617  +6.3795450     1825.243     2466.599     2675.905     76.91467      154.383     308.7046      1.458     3.62     835.5562     54.43044     316.5096        15     1.284     0.715  60.96   0
       175    531.1976    769.4510 307.6789155  +6.3760319     2592.532     3505.358     3748.785     76.79131     154.0757     308.3973      1.460     4.04     834.6282     54.43044     343.2055        16     1.183     0.796  54.49   0
       176    378.9631    768.4745 307.7421658  +6.3713515     1299.709     1945.521     1812.722     77.28356     154.5058     308.8274      1.625     4.31     834.2114     54.43044     197.2516        13     1.351     0.623  72.58   0
       177    662.7014    767.3848 307.6243748  +6.3812702     700.9833     870.2665      980.938     77.40614     154.1987      308.551      1.409     4.64     835.4861     54.43044      96.0976         8     1.113     0.549  71.31   0
       178    883.0187    764.4702 307.5329787  +6.3898074     3255.353     4595.718     4661.916     77.03783     154.3216     308.7353      1.543     3.46     833.1061     54.43044     446.5081        22     1.264     0.906  60.10   0
       179    943.3440    763.6113 307.5079551  +6.3921672     1875.634     3119.901     3125.575     76.79131      154.383     308.4895      1.738     4.15     831.8079     54.43044     264.7773        19     1.423     0.849  50.77   0
       180    912.2933    763.8650 307.5208416  +6.3910305     3183.482     4725.009     4978.351     77.28356     154.6284     308.8274      1.541     3.25     832.5055     54.43044     459.6783        21     1.271     0.893  59.81   0
       181    635.3254    763.7493 307.6358649  +6.3818588     1727.125     2279.419     2388.953     77.40614     154.5058     308.8274      1.432     3.25     835.3358     54.43044     279.2041        15     1.164     0.798  56.90   0
       182    395.4314    763.7391 307.7354859  +6.3738569     575.6479     982.3176      960.328      77.1608     154.5058     308.7353      1.551     3.47     834.0899     54.43044     86.77533         5     0.747     0.465 -73.08   0
       183    782.5383    761.7894 307.5747960  +6.3875715     1050.665     1519.664     1375.493     76.79131     154.2601     308.5817      1.673     4.09     834.8412     54.43044     167.3661        10     1.020     0.718  42.28   0
       184    857.6788    759.5753 307.5436653  +6.3909857     912.5257     1193.031      1541.62     77.03783     154.3216     308.7967      1.396     3.78     833.5414     54.43044     163.7408         8     0.868     0.721 -85.83   0
       185    208.0133    758.8582 307.8134766  +6.3696040     2228.177     3344.072     3796.327     76.79131      154.383     308.5203      1.552     3.86     833.3268     54.43044      273.596        18     1.270     0.899  80.60   0
       186    644.8895    755.8110 307.6321585  +6.3854551     695.0948     1241.307      1363.93      77.1608     154.1372     308.6125      1.840     4.68     835.0826     54.43044     119.9257         8     1.340     0.463  74.84   0
       187    900.4128    753.9343 307.5261065  +6.3947358      1220.35      1844.28     1738.687     76.91467     154.2601     308.7046      1.529     4.34     832.6223     54.43044     170.7517        14     1.155     0.976  59.08   0
       188    743.2978    783.8804 307.5903540  +6.3771442     12536.62     17897.83     18606.33     77.28356      154.751     308.8581      1.514     3.22     835.7668     54.43044     1793.683        40     1.371     1.074  58.81   0
       189    123.4353    753.9669 307.8487620  +6.3687909     816.9683     1191.443     726.4896     77.03783     154.1987      308.551      1.573     5.14     831.6066     54.43044     131.6373         9     1.204     0.631  38.80   0
       190    927.4611    751.7936 307.5149450  +6.3965188     2593.412     4054.698     4170.433     76.79131     154.2601     308.5817      1.652     3.63     832.0853     54.43044     323.1464        21     1.326     0.933  63.83   0
       191    874.6187    752.7141 307.5368592  +6.3943820     1136.312     1591.879     1618.638     77.03783     154.1987     308.7046      1.480     3.31     833.0858     54.43044     183.4765        11     1.051     0.706  60.27   0
       192    646.8973    750.8192 307.6314917  +6.3875831     1073.343     1390.005     1695.851     77.28356     154.3216      308.551      1.331     3.48     834.9178     54.43044     160.7587         8     0.937     0.598  64.38   0
       193   1001.4070    745.7695 307.4844366  +6.4014628     7324.457     11507.03     11781.39     76.79131     154.2601     308.5817      1.693     3.77     830.1215     54.43044     863.5151        34     1.447     1.137  58.16   0
       194    969.1615    745.0455 307.4978521  +6.4006906     1895.392      2690.74     2922.011      77.1608      154.383     308.7046      1.543     4.07     830.9422     54.43044     232.5865        16     1.283     0.814  69.90   0
       195    437.7380    745.9075 307.7185148  +6.3826324     724.4575     922.8104     445.8214     77.40614     154.5058     308.8581      1.335     4.47     833.5683     54.43044      119.142         8     1.166     0.487  37.19   0
       196    770.5308    743.6357 307.5803887  +6.3946671     1177.439     1532.366     1400.589     77.28356     154.5058     308.8888      1.438     3.50     834.5018     54.43044     206.4888        13     1.220     0.692  62.04   0
       197    595.3038    744.6566 307.6531235  +6.3884074     809.4553     1021.334     945.2374     77.28356      154.383     309.0116      1.349     3.97     834.4092     54.43044     136.7792         8     0.991     0.571  71.20   0
       198    856.8982    740.9516 307.5446107  +6.3986491     1617.289     2500.381     2799.723     77.40614      154.383     308.9809      1.593     4.34     833.2042     54.43044     222.8672        15     1.275     0.775  56.04   0
       199    831.2046    736.3473 307.5554347  +6.3996955     1101.197     1475.012     926.4828     76.79131     154.1987     308.4281      1.441     4.67     833.5811     54.43044     154.5582        11     1.145     0.716  82.81   0
       200    813.6016    732.1385 307.5628856  +6.4008475     1798.716     2399.247     2337.791     76.79131     154.2601     308.5203      1.499     3.68     833.8027     54.43044     241.0057        16     1.286     0.754  63.59   0
       201     12.5010    731.5286 307.8955819  +6.3743361     2702.083     3649.193     3545.373      77.1608     154.6284     308.7967      1.419     3.44     830.6275     54.43044     381.0082        18     1.237     0.830  54.80   0
       202     76.6278    729.9664 307.8690057  +6.3771313     1013.419     1907.119     1674.063     76.91467     154.1987     308.5817      2.115     6.93     830.6329     54.43044     171.5108        17     1.995     0.676  68.92   0
       203    425.1549    730.3663 307.7242610  +6.3886286     542.4954     910.5928      1031.21     77.03783     154.3216     308.6739      1.567     3.80     833.1743     54.43044     115.5259         5     1.039     0.456  58.23   0
       204    625.4377    719.7981 307.6414407  +6.3996756     6952.203      9676.56     10206.71     76.54399     154.2601     308.6125      1.509     3.45     833.9612     54.43044      991.088        28     1.355     0.930  55.36   0
       205    572.2274    719.0366 307.6635638  +6.3982156     1595.915     2409.694     2639.952     76.91467     154.1372     308.5817      1.670     4.14     833.4525     54.43044     252.3664        16     1.372     0.780  68.39   0
       206    482.7523    719.3168 307.7007121  +6.3951141     920.6871     1103.871     1109.177     77.40614     154.4444     308.7967      1.273     3.62     833.0469     54.43044     160.7529         9     1.130     0.631  53.78   0
       207    493.6572    719.0029 307.6961940  +6.3956078     595.2502     961.8436     737.3721     76.79131     154.2601     308.5203      1.683     4.63     833.0608     54.43044     92.32434         7     1.007     0.689  20.71   0
       208    962.5014    715.0417 307.5016179  +6.4128574     2545.605     3742.805     3664.629     77.40614     154.3216     309.0115      1.574     3.90     830.7493     54.43044      328.075        21     1.333     0.955  58.97   0
       209     88.3322    715.7823 307.8646223  +6.3833796     4122.841     5908.587     5762.121     76.91467      154.383     308.7046      1.561     3.45     830.5747     54.43044     555.7827        23     1.292     0.962  63.04   0
       210    599.2407    715.5126 307.6524634  +6.4005715     2426.064     3056.814      3404.22     77.40614      154.383     308.8274      1.398     3.42     833.7136     54.43044      359.485        13     1.100     0.721  56.57   0
       211    274.8302    715.7107 307.7871783  +6.3896542     706.5878     1000.265     1065.043     77.52852     154.2601     308.7353      1.497     4.82     832.0119     54.43044     125.3742         8     1.025     0.642  63.54   0
       212    210.5885    715.2776 307.8138706  +6.3876831     753.2496     963.7938      1264.95     77.03783     154.0757     308.6432      1.466     4.08     831.6476     54.43044     107.6997         7     1.015     0.468  80.22   0
       213    742.2671    711.8654 307.5931874  +6.4068434     22306.33     30932.67     31954.43     77.40614     154.4444     308.8274      1.481     3.27     833.8336     54.43044     3165.403        41     1.400     0.996  64.97   0
       214    469.7798    712.0562 307.7063425  +6.3976787     1143.305     1671.306     900.6858     76.91467     154.4444     308.6125      1.427     4.33     832.9442     54.43044     170.9696        12     1.212     0.731  71.81   0
       215    872.2895    711.5715 307.5391989  +6.4112915     3824.091      5567.19     6017.694     77.52852     154.1987     308.7046      1.632     3.65     832.0726     54.43044     528.9078        27     1.353     0.971  63.06   0
       216    441.4563    711.9061 307.7181098  +6.3967948      1542.33      2080.27     2474.634     77.28356     154.4444     308.9809      1.515     3.82       832.92     54.43044     196.1971        14     1.131     0.810  60.88   0
       217    286.6880    711.6476 307.7823905  +6.3917284     762.2628     1116.833      1126.32     77.40614     154.3216     308.8581      1.597     3.91     831.7647     54.43044      123.704         6     0.948     0.461  86.77   0
       218    243.4508    711.5628 307.8003485  +6.3903168     580.8546      723.438     627.8715      77.1608      154.383     308.7353      1.419     3.71     831.7288     54.43044      104.504         6     0.966     0.409  71.12   0
       219    622.8696    704.7372 307.6430109  +6.4058083     7760.249     10810.21     11088.65     77.40614     154.4444     308.8581      1.504     3.31     833.5933     54.43044     1079.014        31     1.349     0.994  56.27   0
       220    215.7213    705.6353 307.8120628  +6.3918359     7013.007     9788.875     10276.24     77.28356     154.5058     308.7967      1.509     3.41     831.2405     54.43044     1062.384        26     1.287     0.949  66.63   0
       221    605.0351    705.7251 307.6503844  +6.4048058     1085.259     1348.235     1773.061     77.28356     154.5058     308.7967      1.363     3.19     833.5545     54.43044     174.2311         9     0.923     0.638  67.65   0
       222    317.9881    704.4998 307.7696321  +6.3957263     841.7258     1081.707     1068.152      77.1608     154.1987     308.5817      1.422     5.24     831.7301     54.43044     114.2757         9     1.108     0.700  64.76   0
       223    882.6522    697.2561 307.5353728  +6.4175467     1277.443     1788.629      2019.02     77.40614     154.4444      308.766      1.503     3.06     831.4665     54.43044      200.939        14     1.114     0.769  67.86   0
       224    694.4957    693.0156 307.6136566  +6.4130350      4031.19     5782.927     5876.388      77.1608     154.1987     308.6432      1.520     3.52     833.3473     54.43044     645.2969        21     1.329     0.856  68.85   0
       225    649.7879    693.6089 307.6322039  +6.4113002     1247.682     1601.838     1808.028      77.1608     154.2601     308.7353      1.370     4.92     833.3548     54.43044     191.7784        10     1.139     0.601  55.98   0
       226    960.8383    689.6537 307.5031548  +6.4232844     9296.062     13857.71     14205.73     77.40614     154.5058     308.7967      1.588     3.40     830.4725     54.43044     1298.644        34     1.417     1.035  58.34   0
       227    899.2638    690.1891 307.5287095  +6.4210169     2676.212     4178.839     4331.371     76.91467     154.2601     308.6739      1.644     3.61     831.0774     54.43044     388.4786        21     1.349     0.874  60.71   0
       228    949.2202    690.1485 307.5079634  +6.4226941     409.1451    -643.0369    -580.9806     76.91467     154.5058     308.6125     -9.117     4.56     830.5753     54.43044     79.64276         6     0.937     0.630 -68.21   0
       229    513.2144    687.6703 307.6891212  +6.4091970     707.3209     956.1662     1090.426     76.91467      154.383     308.7046      1.457     3.97      832.677     54.43044     123.3922         8     1.054     0.640  38.25   0
       230    396.7179    687.4184 307.7375097  +6.4054105     680.4106     842.0613     497.9236     77.03783     154.1372     308.7353      1.280     4.86     832.2969     54.43044      98.6908         8     1.285     0.521  72.27   0
       231    499.4150    685.5462 307.6949231  +6.4096133     2360.094     3130.786      2918.74     76.79131      154.383     308.5203      1.465     3.33     832.6352     54.43044     359.9313        17     1.225     0.779  67.69   0
       232     38.1254    684.6499 307.8865182  +6.3945498     28378.49     40284.92     41633.18     77.40614     154.5058     308.8274      1.535     3.42     830.3136     54.43044     3897.186        50     1.426     1.071  65.89   0
       233    237.2100    685.6170 307.8038112  +6.4008200     627.4937     709.4041      870.738      77.1608     154.1987     308.6739      1.325     4.91      830.074     54.43044     104.1161         8     1.095     0.623  78.14   0
       234    468.0272    682.7678 307.7080514  +6.4097125     1462.082     2008.543     2118.487     76.91467     154.1987     308.6125      1.482     3.37     832.5529     54.43044      227.828        13     1.015     0.832  80.48   0
       235    889.1378    681.5496 307.5332031  +6.4242473     1073.577     1666.847     2067.519     77.40614      154.383     308.8581      1.814     4.27     830.9503     54.43044     151.9834        11     1.215     0.693  67.84   0
       236    508.4840    679.3926 307.6913629  +6.4124567     1078.488     1526.537     1808.182     77.03783     154.1372     308.6432      1.448     4.06     832.5532     54.43044      166.189         8     0.978     0.556  54.72   0
       237    684.2313    676.7688 307.6184624  +6.4194009     3869.797     5412.756     5847.602     76.91467     154.1987      308.551      1.478     3.48     832.9216     54.43044     544.9358        20     1.271     0.824  60.65   0
       238    706.1387    675.0019 307.6094231  +6.4208603     4497.929     6178.894     6040.262     76.79131     154.2601     308.5203      1.426     3.41     832.8613     54.43044     679.3387        23     1.260     0.879  58.17   0
       239    537.6583    673.0443 307.6794593  +6.4160514     3770.067     5313.023     5589.083     77.28356      154.383     308.8888      1.485     3.14     832.5059     54.43044     560.0418        21     1.281     0.844  64.90   0
       240    373.7985    673.6093 307.7474908  +6.4103459     1437.835     2052.778     1716.221     76.79131     154.1372     308.5817      1.574     4.97     831.7133     54.43044     186.6981        13     1.187     0.792  80.68   0
       241    198.1989    672.7285 307.8204445  +6.4048354     1943.343     2753.032     3238.462     76.79131     154.0141     308.6432      1.493     3.37     829.7398     54.43044     260.8004        15     1.158     0.789  74.95   0
       242    979.0842    671.1312 307.4961943  +6.4315382     5268.771     7804.234     8216.768     77.65071     154.6897     308.8274      1.601     3.54      830.187     54.43044     674.3903        28     1.374     1.031  57.21   0
       243    281.8175    672.0263 307.7857426  +6.4079238     1742.034      2194.71     2578.591     77.03783     154.2601     308.7046      1.385     3.47     829.2363     54.43044     237.7663        14     1.106     0.772  60.13   0
       244    944.4866    669.9711 307.5106020  +6.4308677     8507.724     12301.32     12346.54     77.52852     154.1372     308.6739      1.540     3.42     830.2494     54.43044     1090.912        30     1.376     1.002  61.25   0
       245    498.4109    670.7354 307.6958361  +6.4156948     585.4191     637.3183     526.2144     76.91467     154.2601     308.6432      1.136     4.34     832.3753     54.43044     121.3359         7     1.201     0.447  49.80   0
       246    993.5637    668.6633 307.4902629  +6.4330382      694.541     1053.314     1024.719     77.28356     154.5058     308.7967      1.546     5.98      830.115     54.43044     104.7768        10     1.172     0.859 -89.89   0
       247    664.0015    668.5853 307.6271375  +6.4221056     1062.967     1104.275     1033.325     77.03783     154.1372     308.5817      1.275     3.74     832.6648     54.43044     151.8383        11     1.047     0.700  69.18   0
       248     55.8072    667.0137 307.8797687  +6.4024239     908.6183     1413.905     1531.115     77.03783     154.1987     308.6432      1.481     3.79      830.241     54.43044     142.9679        10     1.083     0.606  66.28   0
       249    102.9336    663.5566 307.8603145  +6.4054310     26893.43     37495.96     39211.19     77.40614      154.383     308.8274      1.510     3.50     830.2987     54.43044     3566.848        55     1.457     1.097  69.58   0
       250    389.7564    664.5795 307.7411663  +6.4146074      3147.53     4156.623     4647.641     76.91467     154.3216     308.6432      1.420     3.26     831.4847     54.43044     455.1149        18     1.206     0.817  61.74   0
       251    771.1860    664.2332 307.5827680  +6.4274726     1404.838     2042.344     1980.604     77.03783     154.1987     308.7046      1.537     3.94     832.4611     54.43044     206.1845        12     1.112     0.758  61.17   0
       252    322.1786    657.9921 307.7694519  +6.4150681      738.845     1119.354     490.9399     76.91467     154.2601     308.5817      1.578     4.39     829.8818     54.43044     120.1835         7     0.973     0.563  76.13   0
       253    939.3842    653.0267 307.5132860  +6.4376942      7208.64     11174.68     11483.24     77.03783     154.2601     308.7046      1.629     3.53     830.0175     54.43044      951.416        37     1.598     1.014  50.83   0
       254    994.7162    648.1202 307.4904687  +6.4415584      96173.3     142596.8     148159.9     77.28356      154.751     308.8888      1.574     3.34     829.7013     54.43044     12482.89        80     1.548     1.148  63.27   0
       255    532.9189    648.3364 307.6822547  +6.4260945     55115.59     74604.65     77378.62     77.52852     154.5058      308.766      1.455     3.51     831.4847     54.43044     7517.011        57     1.398     1.019  63.23   0
       256    897.5244    649.9412 307.5307743  +6.4375767     708.9127     839.5403     1088.493     77.52852     154.5058      308.766      1.312     4.38     830.2173     54.43044     131.7773         7     1.227     0.444  52.61   0
       257    492.2974    648.5064 307.6991194  +6.4246685     735.8369     892.6235      408.621     77.40614     154.9959     308.7046      1.355     5.07     831.3785     54.43044     129.9424         9     1.189     0.610  81.68   0
       258    176.1745    649.7252 307.8303636  +6.4135951     697.4322     1024.387     1504.165     77.03783     154.2601      308.766      1.602     4.31     829.5474     54.43044     91.02698         7     1.036     0.513  67.99   0
       259    757.1367    647.9226 307.5891477  +6.4337392     577.1508      645.673     1051.339     77.65071     154.5058      308.766      1.431     3.59      831.866     54.43044     106.5345         6     0.915     0.456  58.10   0
       260    140.4524    645.0156 307.8453568  +6.4143430     3054.319     4286.866     3789.245     76.79131     154.5058     308.5203      1.462     3.35     829.7983     54.43044     476.4702        18     1.217     0.816  66.88   0
       261     33.0955    639.5016 307.8901258  +6.4130210     1526.525     2048.645     1891.731     77.40614     154.9959     308.6432      1.501     4.55     830.0284     54.43044     198.4557        13     1.147     0.769  67.08   0
       262    430.1864    632.1222 307.7254635  +6.4293589     71680.61     97797.37     101492.3     77.03783     154.1372     308.6125      1.462     3.45     830.0598     54.43044     10669.47        71     1.443     1.059  64.99   0
       263   1008.4703    631.3096 307.4853163  +6.4489560     3445.152     5090.173     5276.786     77.28356     154.6897     308.7967      1.583     3.55     829.2908     54.43044     487.1107        24     1.475     0.867  69.33   0
       264    615.9492    629.6792 307.6483954  +6.4365672     903.3982     1082.007     1279.317     77.40614     154.5058     308.7967      1.433     4.33      830.952     54.43044     141.2296         9     1.040     0.696  77.83   0
       265    104.4568    627.2561 307.8609023  +6.4204691     2022.744     2681.435     2633.084     77.52852     154.5058     308.8581      1.404     3.18     829.8203     54.43044      320.613        13     1.085     0.747  66.06   0
       266    383.7995    625.1771 307.7449612  +6.4306764      959.748     1255.643     1156.291     77.03783     154.1372     308.5817      1.384     4.60     829.2625     54.43044     168.3338         9     1.039     0.578  56.16   0
       267    899.7469    624.9877 307.5306835  +6.4479534     669.6852     830.8846     846.9234     76.79131      154.383     308.5203      1.251     4.95     829.7912     54.43044     119.0462         9     1.021     0.679  41.03   0
       268    576.2158    623.9194 307.6650901  +6.4376202     970.7629      1253.63     1455.829     77.03783     154.1987     308.6432      1.306     3.53     830.6185     54.43044     165.7919         8     0.906     0.678  32.44   0
       269    457.8307    622.5844 307.7143021  +6.4342202     596.8098     902.3347     1347.828     77.03783     154.1987     308.7353      1.703     4.74     829.8783     54.43044     88.53632         6     1.039     0.613 -69.14   0
       270    275.5304    621.3924 307.7900529  +6.4286186     2461.281     3306.614     3309.241     76.91467     154.0757     308.7046      1.476     3.10      828.535     54.43044     373.3117        15     1.117     0.757  59.23   0
       271    427.8599    620.0710 307.7268335  +6.4342568     1028.861      1492.09     2031.393     77.52852     154.4444     308.8581      1.693     4.19     829.3693     54.43044     172.9734         8     1.038     0.601  39.71   0
       272    702.2371    615.7186 307.6130247  +6.4452071     5888.415     7990.315     7989.065     77.40614     154.5058      308.766      1.472     3.36     830.6855     54.43044     862.4603        28     1.364     0.920  71.73   0
       273    755.7590    610.8507 307.5909581  +6.4489995     15620.35     21487.59     22122.51     77.40614     154.4444      308.766      1.438     3.27     830.4875     54.43044     2257.891        40     1.419     0.957  57.74   0
       274    973.2224    611.4100 307.5006192  +6.4560014     1023.257     1607.802      927.739     77.03783     154.1987     308.6432      1.668     5.97     829.1493     54.43044     121.2808        14     1.327     0.755  58.20   0
       275    498.1813    610.8400 307.6979372  +6.4404164     1493.374      2029.16     2238.959     77.03783     154.2601      308.551      1.472     3.65     829.7154     54.43044     210.2558        12     1.043     0.786  73.80   0
       276    995.5219    610.0024 307.4914043  +6.4573233     2192.417     3202.952     3099.837     76.79131     153.9525     308.5817      1.528     3.40     828.9491     54.43044     349.3745        19     1.255     0.859  55.23   0
       277      1.1963    610.5052 307.9043488  +6.4239224     600.8416     821.0319     477.9899     65.46152     120.4377     229.8795      1.322     3.59     829.9326     54.43044     134.8395         5     0.974     0.382  82.99  24
       278    579.7192    608.9933 307.6641345  +6.4438997     3352.415     4640.781     5186.991     77.03783     154.0141     308.6125      1.468     3.66     829.9933     54.43044     521.8055        22     1.275     0.886  56.75   0
       279    896.5381    604.9242 307.5326854  +6.4561306     1134.207     1771.355     2060.395     77.65071     154.4444     308.7967      1.644     4.52     829.4036     54.43044       150.35        11     1.202     0.783  66.32   0
       280    338.1858    603.0756 307.7646462  +6.4382766     1066.112     1329.077     1508.643     76.91467     154.1987     308.6432      1.389     3.85     828.1429     54.43044     154.9493        11     1.121     0.657  72.46   0
       281    155.6224    603.1964 307.8404621  +6.4321168     771.0432     1093.245     532.2159     77.03783     154.1372     308.6125      1.484     4.33     828.6572     54.43044     112.9412         8     0.917     0.816  86.41   0
       282    192.1041    602.6189 307.8253305  +6.4335771     1484.338     1898.776     2159.721     77.28356     154.2601     308.5817      1.414     3.32     828.2235     54.43044     233.7248        13     1.113     0.758  43.93   0
       283    831.8048    594.0988 307.5599329  +6.4584471     2996.675     4210.402      4278.23      77.1608     154.1372     308.4588      1.477     3.38     829.6057     54.43044     419.4085        19     1.185     0.865  65.82   0
       284    126.7112    594.0363 307.8527769  +6.4349301     786.6743     656.9761     83.19305     77.40614      154.383     308.7967      1.223     4.26     828.8739     54.43044     124.4443         7     0.867     0.597  62.04   0
       285    790.5157    591.5070 307.5771685  +6.4581432     2842.296     3756.005     3693.918      77.1608     154.8735     308.9195      1.465     3.34      829.912     54.43044     409.9703        19     1.194     0.900  67.24   0
       286    761.3673    587.5932 307.5894057  +6.4587888     2692.075     3994.838     4610.157     76.79131     154.3216     308.6125      1.606     3.45     829.8118     54.43044     382.0807        18     1.263     0.807  60.16   0
       287    218.5238    586.6980 307.8148930  +6.4410348     8777.471     12030.44     12772.64     77.03783     154.6897     308.7967      1.491     3.33     827.7256     54.43044     1273.889        28     1.315     0.922  67.56   0
       288    703.9174    587.8195 307.6132593  +6.4567820     854.1567     1391.306     1664.886     77.03783     154.1372     308.7353      1.852     4.46     829.7628     54.43044     103.5081         8     1.101     0.515  55.17   0
       289    771.1534    582.7339 307.5855034  +6.4611209     177519.1       241047     249560.3     77.40614      154.383     308.7967      1.461     3.35     829.6657     54.43044     25025.13       101     1.479     1.098  65.31   0
       290    152.7574    581.1769 307.8423919  +6.4411119     65726.44     91863.71     95065.76     77.03783     154.3216     308.6432      1.498     3.31     828.3399     54.43044     8830.636        71     1.438     1.105  62.65   0
       291    701.0370    583.0109 307.6146163  +6.4586714     738.3835     1002.732     1243.981     76.91467     154.2601     308.4895      1.616     4.08     829.5986     54.43044     113.7225         7     0.911     0.522  51.36   0
       292     76.6843    577.4305 307.8741116  +6.4401092     7036.488     10016.58     10494.49     77.40614     154.2601     308.6739      1.525     3.31     828.7665     54.43044     981.8536        30     1.374     0.975  54.70   0
       293    941.8190    574.6357 307.5148884  +6.4701414      1459.39     1984.082     2042.735     76.91467     154.2601     308.5817      1.455     3.31     827.8243     54.43044     203.1049        13     1.077     0.787  58.85   0
       294    191.1792    573.1396 307.8267050  +6.4457170     887.7292     1442.231     2196.293     77.03783      154.383     308.7353      1.727     4.65     827.8484     54.43044     149.2621        11     1.246     0.732  81.54   0
       295    962.8798    573.5208 307.5061779  +6.4713016     898.2208     1128.358     851.7853     77.65071     154.6897     308.9502      1.460     3.88     827.2969     54.43044     160.7191         9     1.099     0.565  67.14   0
       296    807.7117    570.0273 307.5707434  +6.4675841      4874.27     6561.828     7146.718     77.52852     154.1987     308.7046      1.424     3.31     829.2172     54.43044     704.7484        21     1.209     0.869  60.40   0
       297    326.1320    568.2507 307.7708206  +6.4522517      19333.8     26417.62     26952.42     77.28356     154.3216     308.7353      1.458     3.51     827.3854     54.43044     2818.989        40     1.386     0.972  66.13   0
       298    416.4354    568.1638 307.7333181  +6.4553061     859.0338     1187.625     1525.328      77.1608     154.1987      308.551      1.554     3.96     827.6361     54.43044     159.8688        10     1.110     0.790  39.70   0
       299    127.9506    567.0518 307.8531692  +6.4461125     2206.657       3089.5     3024.974     77.52852     154.3216      308.766      1.449     3.54     828.2485     54.43044     318.6032        15     1.158     0.835  71.11   0
       300    203.0136    564.9651 307.8220646  +6.4494883     1066.319     1824.209     2803.304     76.91467     154.2601     308.6739      1.996     4.85     827.6285     54.43044     171.8802        10     1.158     0.620  71.07   0
       301    761.6611    563.3229 307.5900943  +6.4688193     6495.394     8813.025     9272.765     77.65071     154.5058      308.766      1.449     3.47     829.0997     54.43044     1027.091        27     1.282     0.930  60.74   0
       302    492.4757    563.0739 307.7019066  +6.4599473     7330.098      9713.55     10008.93     77.65071     154.6897     308.8581      1.429     3.25     828.1292     54.43044       1061.2        26     1.336     0.852  68.02   0
       303    133.3386    564.5182 307.8510167  +6.4473390     776.2583     1238.391     1214.278     77.52852     154.4444     308.7967      1.481     4.78     828.1779     54.43044     108.2371         9     1.279     0.507  49.90   0
       304     65.1662    564.3915 307.8793337  +6.4451063     933.0554     1207.906     1268.754     76.91467     154.2601     308.6432      1.530     5.27     828.3911     54.43044     127.2375        11     1.091     0.727  55.48   0
       305    350.8065    559.9579 307.7608508  +6.4565006     1628.056     2421.479     2484.302     76.91467     154.1372     308.5203      1.493     4.01     827.0453     54.43044     253.5226        14     1.294     0.731  58.29   0
       306    139.5166    556.4474 307.8487221  +6.4508782     7679.692      10241.9        10278     77.40614     154.4444     308.7967      1.484     3.45     827.9655     54.43044     1129.118        26     1.339     0.888  66.85   0
       307    537.2079    556.0242 307.6835637  +6.4643510     2469.529     4123.542     4243.155     77.03783     154.3216     308.6432      1.739     3.79     828.4446     54.43044     335.9962        25     1.295     1.164 -76.84   0
       308    820.6099    556.1901 307.5658481  +6.4737264      645.626     963.2233     670.5285     77.03783     154.2601     308.7353      1.575     4.72     828.7036     54.43044     123.3469         7     1.108     0.607  54.07   0
       309     11.0994    555.0975 307.9021007  +6.4471301     5442.238     7628.878     7524.873     77.40614     154.8735     308.6432      1.497     3.46     828.2152     54.43044     728.5123        26     1.293     0.971  65.85   0
       310    778.3480    555.5844 307.5834219  +6.4725699     1495.582     2028.382     2241.117     76.79131     154.5058     308.5203      1.453     3.51     828.8987     54.43044     238.5265        13     1.140     0.717  53.20   0
       311    234.7466    552.8051 307.8092936  +6.4555711        95546     133824.7       139236     76.79131     154.1987     308.4895      1.490     3.34       827.28     54.43044     13432.75        85     1.456     1.143  61.93   0
       312    148.2085    553.1985 307.8452214  +6.4525108      317.116     369.4691     340.6608     76.79131     154.1372     308.5817      1.254     3.89     827.8903     54.43044     67.25623         5     1.352     0.321  59.14   0
       313    524.1994    550.2770 307.6891591  +6.4662897     911.5333     1123.659     1494.069     76.66775     153.8293      308.551      1.268     4.40     828.1154     54.43044     157.9739         8     1.101     0.501  58.62   0
       314    218.5338    547.9186 307.8161912  +6.4570458     1743.115     2516.193     2929.697     77.65071     154.6897     308.8274      1.528     3.75     827.2776     54.43044     253.9638        15     1.276     0.740  62.98   0
       315    934.2032    546.6150 307.5189860  +6.4814575     1816.191     2763.971     2863.677     77.03783     154.0757     308.6432      1.616     3.77     826.8326     54.43044     257.4852        16     1.261     0.793  58.79   0
       316    757.8999    545.1407 307.5922639  +6.4762011     18134.84     24685.62     25316.41     77.16079     154.4444     308.9502      1.435     3.40     828.5873     54.43044      2548.95        36     1.334     0.954  61.06   0
       317    461.5106    543.5576 307.7154214  +6.4669710     45491.07     67149.61     71261.63     77.40614      154.383     308.8274      1.642     3.56      827.301     54.43044     6272.213        72     1.547     1.274  51.04   0
       318    611.8550    541.9229 307.6530314  +6.4726632     992.6292     1509.818     1672.773     77.52852     154.4444     308.7967      1.533     3.89     827.8679     54.43044     147.3032        11     1.219     0.655  71.09   0
       319    621.3956    538.6737 307.6491774  +6.4743228     3222.298     4379.493     4786.626     77.03783     154.0141     308.6739      1.463     3.36     827.8795     54.43044     522.1607        18     1.315     0.766  65.25   0
       320    173.7261    539.8510 307.8350720  +6.4588762     2013.802     2842.952     2973.948     77.40614     154.5058     308.8274      1.543     3.57      827.481     54.43044     286.2673        18     1.253     0.896  68.92   0
       321      9.4994    540.3925 307.9032601  +6.4531475     1412.236     1830.253     1806.332      77.1608     154.0757     308.6125      1.380     3.97     827.8872     54.43044     186.8999        12     1.147     0.699  61.62   0
       322    631.7133    538.6706 307.6448921  +6.4746681     1653.448     2291.324     3145.779     77.52852     154.6897     308.8274      1.386     3.58     827.9352     54.43044     244.8987        13     1.132     0.724  69.17   0
       323    221.6860    539.8807 307.8151520  +6.4604699     537.5237     687.3821     794.1109      77.1608      154.751     308.9195      1.294     3.86     827.0217     54.43044     109.7919         6     0.942     0.453  52.26   0
       324    683.7794    537.7073 307.6232986  +6.4768013     1395.461     1907.501     1988.208     77.28356     154.2601     308.6432      1.504     3.57     828.1801     54.43044     237.4764        13     1.138     0.730  56.36   0
       325     40.6071    535.8032 307.8904951  +6.4560857     699.0331     1047.278     1413.697     76.79131     154.1372     308.6432      1.476     3.82      827.813     54.43044     107.3054         5     0.970     0.431  74.61   0
       326    359.0664    534.1854 307.7582846  +6.4674174     2108.931       2957.4     2853.463     76.91467     154.3216     308.7353      1.441     3.17     826.3165     54.43044     346.0879        15     1.100     0.821  66.06   0
       327    290.6335    532.5056 307.7867636  +6.4658223      4532.17      6004.18     6000.721     77.52852     154.3216     308.8888      1.469     3.29      826.607     54.43044     706.4764        24     1.302     0.870  65.15   0
       328   1009.0739    531.6906 307.4883849  +6.4901071     1287.124     1911.774     2148.425     77.40614     154.6897     308.8274      1.841     4.17     824.2103     54.43044     180.5524        14     1.301     0.723  75.47   0
       329    470.5482    531.8538 307.7120598  +6.4721050     2386.862     3423.773     4004.962     77.52852      154.383     308.8274      1.605     3.29     827.0681     54.43044     338.6549        19     1.250     0.860  64.37   0
       330    105.8214    531.1991 307.8635652  +6.4601731     28493.89     40078.71     41056.26     77.03783     154.1372     308.5203      1.504     3.38     827.6402     54.43044     3797.445        42     1.372     1.019  62.66   0
       331    833.8457    531.0495 307.5611898  +6.4845469     1666.687     2263.619      2338.38     77.40614     154.3216     308.8274      1.465     3.93     827.9788     54.43044     235.6832        13     1.192     0.682  73.48   0
       332     71.0027    529.5198 307.8780826  +6.4596992     2998.764     4087.417     3965.562     76.79131     153.9525      308.551      1.460     3.62     827.7327     54.43044     434.8202        21     1.258     0.901  63.07   0
       333    307.7876    527.8431 307.7797954  +6.4683212     1047.807     1372.462     1361.749     76.91467     154.2601      308.551      1.357     3.86     826.3131     54.43044     180.3854         9     0.997     0.621  56.16   0
       334    931.3499    525.4898 307.5208756  +6.4900849      5679.22     7874.306     8332.778     77.40614     154.2601     308.9195      1.514     3.46     826.1639     54.43044     858.6131        27     1.395     0.903  66.42   0
       335    504.4701    518.3109 307.6984241  +6.4788291     1635.327     2160.592     2198.652     77.40614     154.6897     308.7967      1.483     3.23     827.0632     54.43044     265.1271        17     1.167     0.900  54.69   0
       336    402.8462    512.2688 307.7408359  +6.4779294     47661.51     65274.66     67452.71     77.40614      154.383     308.7967      1.467     3.39       825.71     54.43044     6481.972        54     1.404     1.022  63.64   0
       337    610.8661    511.8736 307.6544475  +6.4850369     13761.26     18536.32     18697.04     77.52852     154.5058     308.7967      1.427     3.34     827.5251     54.43044      1908.06        32     1.316     0.926  55.68   0
       338    250.7860    512.5605 307.8039832  +6.4727236     996.6992      1322.46     1364.492     76.91467     154.2601      308.551      1.497     3.58      825.877     54.43044     183.5991         8     0.985     0.560  68.39   0
       339    168.0144    509.9035 307.8384505  +6.4710491     21263.88     31368.18     32692.62      77.1608     154.1987     308.5817      1.537     3.49     826.6411     54.43044     3073.226        48     1.519     1.065  52.85   0
       340    133.7928    510.9572 307.8526285  +6.4694676     1800.829     2483.903     2364.823     76.91467     154.1987     308.5203      1.392     3.67     827.1221     54.43044     274.2623        14     1.261     0.694  60.06   0
       341    944.6842    510.3617 307.5158414  +6.4967742     1134.128     1807.222     2278.112     77.40614      154.383     308.7353      1.557     4.88     825.4217     54.43044     182.4428        11     1.267     0.634  47.82   0
       342    784.7056    509.5464 307.5823189  +6.4917897     992.4947     1288.553     859.8399     77.28356      154.383     309.0422      1.322     3.98     827.8323     54.43044     186.9079        12     1.349     0.592  65.97   0
       343    873.4951    509.7029 307.5454333  +6.4946794     941.6597     1337.578     1571.678     77.40614     154.9959     308.6432      1.580     4.29     827.0251     54.43044     132.1324        11     1.120     0.795  56.79   0
       344    532.5795    508.8021 307.6870671  +6.4836933     3212.914     4399.631     4490.696     77.03783     154.1372      308.551      1.398     3.26     827.0364     54.43044     541.0548        19     1.192     0.905  62.75   0
       345    906.5176    505.7409 307.5318489  +6.4974133     5190.017     7242.139     7853.902     77.52852     154.5058     308.8274      1.524     3.18     826.0825     54.43044     790.7166        26     1.283     0.935  60.87   0
       346    579.6563    504.2395 307.6676662  +6.4871478     7310.472     9976.155     10417.22     77.40614     154.5058      308.766      1.462     3.36     827.2167     54.43044     1074.215        26     1.318     0.867  64.28   0
       347     67.3009    504.7523 307.8804532  +6.4698006     1382.489      1766.18     1826.222     77.40614     154.3216     308.9809      1.380     3.65     827.6363     54.43044     209.3145        10     0.958     0.704  45.47   0
       348    178.8896    503.8980 307.8341355  +6.4738928     664.6766      908.155     948.7063     77.40614     154.8735     308.7967      1.393     4.55     826.2892     54.43044     95.57819         7     1.105     0.533  49.22   0
       349    479.4594    502.9279 307.7093276  +6.4843453     618.2137      1074.13     946.1248     77.52852     154.4444      308.766      1.902     7.00     826.5376     54.43044     73.50745         9     1.584     0.868   6.06   0
       350    929.1328    498.0074 307.5227131  +6.5013582     3671.628     5291.547     5484.577     76.91467     154.1987     308.6432      1.499     3.72       825.25     54.43044     544.7002        23     1.334     0.898  60.63   0
       351    367.8345    497.1602 307.7558846  +6.4829971      821.517     966.4501     1218.673      77.1608     154.3216     308.6125      1.407     4.10     825.0197     54.43044     132.0737         7     1.093     0.440  57.16   0
       352    707.6346    496.1193 307.6147802  +6.4947669     622.1817     788.1872     836.0424     77.28356     154.5058     308.8274      1.505     5.11     827.4978     54.43044     108.8273         6     1.226     0.601  54.69   0
       353    491.9553    495.4400 307.7043882  +6.4878541     8301.056      11460.4     11348.44      77.1608     154.4444     308.7046      1.491     4.01     826.4586     54.43044     1176.941        32     1.357     1.036  57.26   0
       354    337.7819    495.6785 307.7684167  +6.4826040     2995.212     4090.041     4583.893     76.91467     154.1372     308.7353      1.488     3.50     824.9832     54.43044      423.251        19     1.284     0.828  71.02   0
       355    959.4178    494.3484 307.5102553  +6.5038754     483.4683      850.063       661.48     76.91467     154.5058      308.551      1.752     5.46     824.8922     54.43044     93.55682         5     1.240     0.679  39.20   0
       356    848.3191    491.3787 307.5565022  +6.5014077     3502.336     4733.235     5367.802      77.1608     154.1372      308.766      1.445     3.72     826.9575     54.43044      532.522        20     1.329     0.775  64.43   0
       357    195.9857    490.8069 307.8274747  +6.4798702     791.3492     1133.335     639.1548     77.03783     154.1987     308.6432      1.533     4.95     825.5723     54.43044     136.6531         8     1.003     0.690  63.80   0
       358    501.0941    492.4179 307.7006936  +6.4894069     814.9711     972.1086     1069.608     77.28356     154.2601     308.6739      1.458     4.74      826.425     54.43044     111.8539         9     1.124     0.567  61.75   0
       359    855.7352    485.6539 307.5536129  +6.5040180     2435.784     3365.729     3303.559     77.40614      154.383      308.766      1.480     3.46     826.7664     54.43044     342.9401        18     1.204     0.851  62.78   0
       360    895.2012    485.0606 307.5372393  +6.5055756     1430.098     1883.549     2422.018     76.79131     154.2601     308.5203      1.450     3.92     825.7787     54.43044     196.2714        14     1.139     0.803  59.35   0
       361     74.2147    484.7733 307.8782537  +6.4782809     846.0835      1385.11     1588.982     77.03783     154.3216     308.7353      1.746     5.32      827.538     54.43044     134.9387        10     1.264     0.633  53.37   0
       362    233.9955    483.6211 307.8119289  +6.4841096     464.2536     569.3081     598.0805     77.03783     154.1987     308.6125      1.229     3.89     824.7564     54.43044     73.76294         5     1.317     0.329  49.23   0
       363    679.6958    481.7713 307.6268648  +6.4997599     3483.723     4589.553     4241.629     77.52852     154.1987      308.766      1.422     3.53      827.235     54.43044     538.2454        15     1.165     0.760  61.62   0
       364     41.4482    480.7625 307.8919977  +6.4788380     2194.653      3185.67     3105.122     77.28356     154.4444     308.7046      1.571     3.40     827.5931     54.43044     319.4602        17     1.171     0.858  69.60   0
       365    390.7789    480.2180 307.7469227  +6.4907589     1201.315     1552.963     1951.301      77.1608     154.3216     308.7046      1.218     3.37     824.4371     54.43044     207.7118        10     1.163     0.525  63.41   0
       366    350.5085    479.9149 307.7636595  +6.4895379     3998.749     5525.167     5694.328      77.1608     154.8735     308.8888      1.470     3.26     824.3835     54.43044     566.3827        20     1.245     0.853  65.66   0
       367    578.3511    476.4596 307.6691381  +6.4985739     11527.14     15188.72     15852.23     77.40614     154.4444     308.8581      1.442     3.31     826.3835     54.43044     1782.851        29     1.285     0.903  59.57   0
       368    741.0388    473.0345 307.6016766  +6.5054107     18247.75     24793.72     25359.87      77.1608     154.3216     308.6125      1.426     3.39      826.774     54.43044     2814.426        38     1.337     0.960  61.84   2
       369    744.9221    468.2411 307.6002237  +6.5075191     1662.837      2424.09     2859.357     77.28356     154.4444     308.8274      1.469     3.73     826.5092     54.43044     227.3525        13     1.144     0.778  68.89   3
       370    260.6340    473.4281 307.8012069  +6.4892096     3033.407     4154.923     4189.092     76.91467     154.1987     308.5817      1.501     3.58     824.3344     54.43044      393.951        19     1.277     0.794  60.79   0
       371    384.3835    472.9358 307.7498233  +6.4935518      702.138     1057.788     583.1045     76.91467      154.383     308.6739      1.591     4.39     824.1926     54.43044     133.9377         7     1.106     0.496  62.54   0
       372    692.0204    471.1864 307.6220994  +6.5045408     454.3908      592.689     233.0726      77.1608     154.1372     308.7046      1.245     5.08     826.6513     54.43044     72.60754         5     1.181     0.618  78.53   0
       373    870.5904    470.0905 307.5479617  +6.5109380     534.7322     569.7919     406.1788     77.16079     154.1372      308.551      1.126     5.20     825.9036     54.43044     115.7969         6     1.295     0.644  75.26   0
       374    770.0317    469.9779 307.5897357  +6.5076382     1342.767     1977.466     2158.462     76.91467     154.2601     308.6125      1.505     3.79     826.6452     54.43044     198.7499        12     1.161     0.636  66.67   0
       375    343.7674    469.9181 307.7667948  +6.4934398     1814.802     2466.774     2801.086     77.28356      154.383     308.7353      1.473     3.61     824.0672     54.43044      262.718        15     1.234     0.713  62.18   0
       376    359.1219    469.8796 307.7604185  +6.4939691      528.635     818.9587     917.0384     77.65071     154.6897     308.9502      1.564     3.99     824.0609     54.43044     87.92145         6     0.982     0.463  38.86   0
       377    926.1224    467.9193 307.5249670  +6.5136809     2006.129     2778.819     2733.271     77.65071     154.6897     308.9502      1.440     3.49     824.2592     54.43044     309.8586        14     1.242     0.687  55.27   0
       378    674.4594    466.9665 307.6295349  +6.5056979     677.1519     730.4495     1270.414     77.28356     154.5058     308.7353      1.017     3.17     826.4181     54.43044     135.3728         8     0.920     0.717  64.25   0
       379     78.3763    465.0921 307.8771872  +6.4865460     4845.164     6941.807     7246.905     77.40614     154.2601     308.6432      1.523     3.13     827.1504     54.43044      767.244        26     1.302     0.968  60.32   0
       380    332.0833    465.7929 307.7717863  +6.4947522     806.5005     922.7389     1001.237     77.03783     154.1372     308.6739      1.359     3.43     823.9551     54.43044     140.0562         8     0.974     0.565  60.72   0
       381    980.2764    462.6641 307.5026474  +6.5176503      4438.77     7176.218     7614.184     77.65071     154.4444      308.766      1.759     4.05     823.9285     54.43044      536.017        31     1.536     1.044  50.43   0
       382    716.5805    463.9143 307.6121408  +6.5083616     2497.328     3506.643     3362.692     77.03783     154.1987     308.7353      1.451     3.43     826.2695     54.43044     365.5947        19     1.368     0.790  61.19   0
       383    236.2388    462.0200 307.8117226  +6.4931031     1589.913     2162.034     2250.703     77.03783     154.2601      308.551      1.451     3.68     824.1037     54.43044     234.7209        15     1.307     0.757  55.44   0
       384    989.9285    462.4604 307.4986448  +6.5180551      409.762     641.9487     855.6066     77.52852     154.4444     308.8581      1.749     3.97     823.8752     54.43044     81.96057         5     0.905     0.498  -2.06   0
       385    314.5173    459.7967 307.7792837  +6.4966404     3485.295     4863.314     4438.341     76.79131     154.0757     308.4895      1.453     3.42     823.7858     54.43044     534.0338        18     1.268     0.775  65.34   0
       386    670.3188    457.4723 307.6315723  +6.5094799     1842.796      2616.19     2435.892     77.65071      154.751     308.8274      1.523     3.23     825.8235     54.43044     316.8574        13     1.098     0.717  61.42   0
       387    943.9251    456.2778 307.5179602  +6.5190792     782.4107     985.2886     1202.828     77.65071     154.6897     308.8581      1.231     4.31     823.7141     54.43044     129.1303         9     1.033     0.590  53.37   0
       388    202.2767    455.3804 307.8260519  +6.4947072     805.9913      1138.49     826.2121     77.03783     154.1372      308.766      1.469     5.69      824.478     54.43044     137.2144         9     1.448     0.655  64.52   0
       389    374.2459    455.8996 307.7546054  +6.5002466     772.0988     1047.714     891.2181     77.40614     154.3216     309.0115      1.503     5.05     823.6146     54.43044     113.6986         7     1.363     0.529  50.83   0
       390    412.7646    451.3633 307.7387582  +6.5034069     618.9457      722.955     447.3288      77.1608     154.2601     308.5817      1.253     3.43     823.4799     54.43044     99.46149         5     0.914     0.411  82.56   0
       391    511.7449    450.3817 307.6976775  +6.5071181     974.8645     1326.488     1255.924     76.91467     154.4444     308.5817      1.321     4.35     824.3143     54.43044     151.5114        10     1.209     0.551  51.98   0
       392    796.6478    447.5829 307.5794278  +6.5177706     1571.877      2073.51      1827.14     76.91467      154.383     308.5817      1.372     3.66     825.6155     54.43044     271.5818        11     1.166     0.618  62.92   0
       393    433.9831    448.4228 307.7300433  +6.5053299     1571.208     2162.591     1799.021     77.03783     154.3216     308.7353      1.470     3.66     823.5889     54.43044     229.7806        13     1.107     0.738  47.44   0
       394    782.1928    446.4572 307.5854698  +6.5177542     2258.673     3025.001     2922.596     76.79131     154.3216     308.5203      1.453     4.88     825.4642     54.43044      299.626        14     1.171     0.772  73.44   0
       395    679.5280    444.7654 307.6281719  +6.5150332     16764.59     22189.94     22922.85     77.28356      154.383     308.7967      1.423     3.26     825.1666     54.43044     2656.733        34     1.317     0.914  62.83   0
       396    600.5669    440.6888 307.6611073  +6.5140838     2996.346     3946.398     3603.709     77.52852     154.3216     308.7967      1.485     3.41     824.1561     54.43044      480.912        17     1.192     0.802  55.42   0
       397    969.0141    441.0096 307.5080476  +6.5262169     455.1837     658.0076      712.547      77.1608     154.1987     308.7353      1.265     3.57     823.0851     54.43044     92.78168         5     0.968     0.381  60.06   0
       398    595.1703    439.9865 307.6633725  +6.5141937     625.6335     1046.993     953.2665     77.03783     154.2601     308.7046      1.295     2.76     824.0462     54.43044     151.0639         6     0.895     0.430  52.19   0
       399    575.5718    437.7857 307.6715870  +6.5144486     6387.947     9177.721     9889.799     77.03783     154.2601     308.7046      1.531     3.65     823.7928     54.43044     939.0557        22     1.328     0.852  70.54   3
       400    571.9614    435.2732 307.6731708  +6.5153655     16272.16     22706.07     23489.26     77.28356     154.4444     308.8581      1.491     3.55     823.5695     54.43044     2254.132        36     1.428     0.958  62.57   3
       401    581.9478    446.7862 307.6686373  +6.5109452     806.4903     973.9119       1060.8     76.79131      154.383      308.551      1.464     5.27     824.4459     54.43044     114.9788        10     1.211     0.671  44.81   0
       402    904.7396    434.5930 307.5349610  +6.5267298     4195.241       5840.2     5580.318     76.79131     154.2601      308.551      1.459     3.38     823.5584     54.43044      609.061        23     1.299     0.884  64.63   0
       403    343.9017    430.6220 307.7680574  +6.5096684     32411.12     44217.74     45324.53     77.28356     154.1987     308.5817      1.452     3.42     822.7921     54.43044     4523.928        45     1.368     1.000  62.86   0
       404     33.0058    432.5525 307.8971265  +6.4984587     477.6667     656.0463     806.1231     76.79131     154.2601     308.4588      1.661     4.70     826.9885     54.43044     71.10974         5     1.065     0.589  74.63   0
       405    381.0743    432.1504 307.7525656  +6.5102802     707.4365     919.3481     597.5945     77.40614     154.5058     308.8274      1.293     2.91     822.8199     54.43044     126.3744         6     0.748     0.559  44.02   0
       406    859.5861    429.3885 307.5538912  +6.5273770     1525.866     2845.356     3420.903     77.28356     154.1372     308.7353      2.353     6.82     824.2892     54.43044      299.183        24     2.077     0.833  49.83   0
       407     89.9924    430.1925 307.8735364  +6.5013441     2544.128     3463.179     3105.652     76.79131     154.2601     308.6739      1.468     4.06     826.2007     54.43044     354.1609        18     1.260     0.793  65.47   0
       408    873.6616    425.0643 307.5481886  +6.5296306     5737.503     7887.948      7631.33     77.40614     154.4444     308.8274      1.459     3.59     823.8703     54.43044     774.9986        25     1.322     0.875  62.85   0
       409    555.3914    426.6196 307.6803434  +6.5183855     666.4728     1026.284     1230.715      77.1608     154.1987     308.6125      1.826     3.38     822.9754     54.43044     112.6069         5     0.977     0.339  67.45   0
       410     23.2497    425.7017 307.9014093  +6.5009598     1577.321     2284.429     2724.535     77.40614      154.383     308.9809      1.598     3.97     827.0378     54.43044     225.3506        16     1.272     0.849  39.49   0
       411    201.4097    421.2133 307.8275600  +6.5087845     15673.18     21925.78     22315.58      77.1608     154.1987     308.7353      1.500     3.29     823.6801     54.43044     2318.382        41     1.402     1.020  65.29   0
       412    929.2808    422.6648 307.5251645  +6.5324706     563.6043     732.0481     743.3011     77.65071     154.5058      308.766      1.315     4.10     822.5483     54.43044     112.3121         6     1.068     0.450  56.54   0
       413    696.3569    414.6658 307.6221877  +6.5280213      821.527     1165.235     1417.563     77.40614      154.383     308.8274      1.762     3.46     823.5696     54.43044     162.9434        10     1.245     0.622  51.10   0
       414    664.3319    414.2268 307.6355054  +6.5271353      804.744     1187.771     789.6014     77.03783     154.3216     308.7046      1.420     4.51      823.322     54.43044     137.2423         7     1.151     0.502  70.02   0
       415     36.9095    414.9579 307.8960972  +6.5058537     962.3246     1275.681     1210.389     77.40614     154.4444     308.8581      1.404     4.31     826.6735     54.43044     138.1892        10     1.036     0.758  51.24   0
       416   1006.2565    411.7137 307.4935536  +6.5395499     9591.978     13508.19     13682.87     77.40614     154.4444     308.9502      1.524     3.27     821.7861     54.43044     1350.357        32     1.372     0.979  62.53   0
       417    973.8813    413.9903 307.5069265  +6.5375344     598.1524     919.7719     1627.786     77.03783     154.0757     308.6432      1.539     3.85      822.027     54.43044      108.384         5     0.841     0.506  24.72   0
       418    924.9178    413.5039 307.5272824  +6.5361079     1140.038      1592.62     1616.043     77.28356     154.8123     308.8888      1.543     3.24     822.3422     54.43044     176.8151        10     1.000     0.630  66.83   0
       419    314.5347    410.9841 307.7809146  +6.5167941     1425.025     1929.957     1511.913     76.91467     154.3216     308.7046      1.494     3.33     822.1354     54.43044       220.58        14     1.187     0.733  61.82   0
       420    206.4599    409.0179 307.8258720  +6.5139887     1563.503     2179.207     2176.113     77.03783      154.383      308.551      1.480     3.76     823.2028     54.43044     239.5278        16     1.228     0.947  71.39   0
       421    147.2451    411.1384 307.8503966  +6.5111297     922.1479     1281.956     1242.732     77.28356      154.383     308.8888      1.580     3.93     824.7485     54.43044     158.1195         8     1.029     0.615  41.92   0
       422    101.6609    409.8696 307.8693733  +6.5101258     5620.316     7891.989     8174.348     77.52852     154.4444     308.8274      1.474     3.36     825.5165     54.43044     838.0588        25     1.325     0.902  64.43   0
       423    341.4978    410.3100 307.7697374  +6.5179742     632.0049     821.9606     966.0745     77.40614     154.8735     308.7967      1.310     4.01     821.9796     54.43044      113.173         7     0.970     0.528  29.33   0
       424    399.0508    408.7341 307.7458839  +6.5205489     835.8828     1125.456     1343.869     77.28356      154.383     308.7967      1.479     4.28     821.9173     54.43044      129.675         8     0.992     0.585  67.62   0
       425    594.4360    408.1927 307.6647415  +6.5272961      444.216     643.0209      926.849     76.79131     154.2601      308.551      1.427     3.46     822.0763     54.43044     79.94714         5     0.756     0.458  71.58   0
       426    787.7856    406.3519 307.5844862  +6.5344990     900.3254     1119.371     652.0757     76.79131      154.383     308.5203      1.404     5.26     823.7812     54.43044     148.0609        11     1.144     0.683  52.19   0
       427    123.7722    405.7280 307.8603283  +6.5125768     2725.761     4250.618     4056.029      77.1608      154.383     308.7046      1.664     3.68     825.0331     54.43044     346.8097        22     1.446     0.889  74.98   0
       428    519.2261    404.4833 307.6961072  +6.5263180     1163.056     1577.739     1283.926     77.28356     154.1987     308.7353      1.470     4.14     821.8339     54.43044     165.6223        12     1.080     0.748  61.31   0
       429    347.1923    400.5260 307.7677003  +6.5222041     2362.257       3167.5     3004.962     77.03783     154.0141     308.6739      1.452     3.29     821.4694     54.43044      402.116        19     1.267     0.831  61.32   0
       430    235.3867    401.0928 307.8141228  +6.5182292     892.9606     1112.928     1244.806      77.1608     154.1987     308.6125      1.335     5.09     822.3372     54.43044     140.3831         9     1.276     0.573  45.34   0
       431    935.6159    399.5172 307.5233049  +6.5422384     997.6446      1441.61     1472.489     77.03783     154.1372     308.6739      1.488     4.02     821.8492     54.43044       145.83         9     0.951     0.731  67.64   0
       432    554.9445    396.7344 307.6815296  +6.5307094     483.5867     687.8539     536.5803     77.52852     154.3216     308.7967      1.463     3.79     821.5934     54.43044     82.60443         5     0.841     0.490  50.49   0
       433    401.0210    393.9322 307.7455619  +6.5267260     8049.104     11002.72     11070.51     77.03783      154.383     308.6739      1.432     3.48     821.1696     54.43044     1186.311        25     1.276     0.878  61.81   0
       434    733.7019    392.9587 307.6074003  +6.5382278     2147.332     3143.997     3732.398     77.40614     154.3216     309.0115      1.429     3.41     823.2275     54.43044     347.9141        13     1.208     0.641  65.05   0
       435    161.6204    393.8644 307.8450062  +6.5187431     733.0629     1019.642     1055.328     77.03783     154.4444     308.6739      1.403     3.57     824.0322     54.43044     128.2029         6     0.833     0.606  57.14   0
       436    741.6766    391.3040 307.6041429  +6.5391766     14512.36     19552.55      20186.2     77.03783     154.5671     308.8888      1.442     3.30     823.2174     54.43044     2254.459        35     1.320     0.932  64.05   0
       437    305.2265    390.1572 307.7854800  +6.5250814      1348.97     1786.291     1904.563     77.03783     154.4444     308.6739      1.475     4.34       821.39     54.43044     171.8044        14     1.188     0.796  60.19   0
       438    985.6021    386.4373 307.5029762  +6.5492999     3887.744     5521.812     5706.126     76.54399     154.2601     308.6125      1.500     3.50     820.9714     54.43044     580.1185        20     1.286     0.836  60.73   0
       439    916.4212    383.2253 307.5318221  +6.5483269     831.6091     1054.901      1569.77     77.03783     154.2601     308.7353      1.068     4.91     821.7421     54.43044      122.143         9     1.261     0.540  55.59   0
       440    150.1384    382.3916 307.8501612  +6.5230950     964.6613     1371.564     1717.757     76.79131     154.2601     308.5817      1.423     4.06     823.9612     54.43044     170.1383        11     1.190     0.680  76.66   0
       441    866.3912    381.5972 307.5526595  +6.5473354     516.0279     803.6967     437.4435     76.79131     154.1372     308.6432      1.677     3.36     822.7482     54.43044     97.80298         5     1.112     0.293  68.68   0
       442    421.3408    378.1568 307.7376502  +6.5339182      2611.43     3389.805     3049.916     77.28356     154.4444     308.8888      1.356     3.08     820.4742     54.43044     392.4618        18     1.251     0.818  73.66   0
       443    489.3838    379.2174 307.7093499  +6.5357532     582.3011     862.6528     495.5926      77.1608     154.1372     308.7353      1.316     2.75      820.889     54.43044     104.8185         5     0.723     0.450  70.97   0
       444    449.1998    377.6334 307.7260953  +6.5350651     3472.771      4384.66     4292.203     76.42004     154.2601      308.551      1.358     3.41       820.65     54.43044     520.8812        16     1.168     0.755  59.40   0
       445    807.0362    374.2480 307.5775617  +6.5483948     36419.18     51830.09      53735.7     77.16079      154.383     308.7046      1.524     3.83     822.9553     54.43044     5021.529        55     1.502     1.048  73.87   0
       446    877.5377    376.9260 307.5481850  +6.5496347     653.2981     1006.259     638.1961     77.65071     154.4444     308.7967      1.536     3.72     822.3668     54.43044     101.7225         6     0.812     0.490  81.87   0
       447    299.2041    370.0642 307.7886561  +6.5331756     1082.797     1478.185     1062.329     76.66775     154.1987     308.5817      1.405     3.90     820.7617     54.43044     168.2595        11     1.123     0.764  49.23   0
       448    578.6318    366.4673 307.6727032  +6.5439962     2959.834      4174.31     4136.119     77.28356     154.4444      308.766      1.521     4.02     820.5022     54.43044     476.7499        24     1.477     0.860  55.11   0
       449    109.8685    364.7127 307.8674828  +6.5290443     604.9055     712.8757     558.8873     77.52852     154.6897     308.8274      1.319     4.61      824.335     54.43044     102.3625         7     1.211     0.498  74.52   0
       450    663.4575    360.2232 307.6376748  +6.5494029     90503.64     120824.3     124288.6     77.03783     154.4444     308.6125      1.435     3.25     821.9923     54.43044     14445.39        76     1.400     1.053  64.41   0
       451    821.7018    361.6875 307.5718889  +6.5540688       1429.4     1704.396     1925.178     77.40614     154.8735     308.8274      1.309     3.54     822.5283     54.43044     215.6337        13     1.117     0.737  63.60   0
       452     42.4949    360.0741 307.8956243  +6.5287002     1514.515     2149.864      2075.19     77.16079     154.6284     308.7967      1.454     4.04     825.3835     54.43044     232.2048        14     1.155     0.974  49.55   0
       453     29.4035    358.4125 307.9011181  +6.5289470     538.5859     587.8921     470.9972     77.03783     154.1372     308.6739      1.480     5.17     825.5522     54.43044     77.75262         7     1.028     0.734  51.95   0
       454    904.8666    357.3659 307.5374849  +6.5586195     922.2349      1098.56      1304.44     77.28356     154.5058     308.8581      1.440     4.74     821.2946     54.43044     152.9756         9     1.145     0.558  61.16   0
       455    525.8997    357.0141 307.6949250  +6.5461394       2951.4      4286.14     4266.507     77.40614     154.1987     308.5203      1.494     3.49     820.0607     54.43044     432.3645        18     1.213     0.850  61.90   0
       456    352.9676    356.9609 307.7667629  +6.5403838     637.3756     840.4392     776.3903     77.03783     154.2601     308.6125      1.540     4.21     818.9547     54.43044     86.23267         7     0.924     0.546  41.19   0
       457     63.1492    355.8182 307.8871882  +6.5311500     6997.046     9805.696     10578.77     76.91467     154.5058      308.551      1.470     3.22     824.9516     54.43044     1010.795        26     1.285     0.954  63.11   0
       458    509.2111    353.1472 307.7019870  +6.5471788     8216.671     11130.74     11396.29     76.79131      154.383      308.551      1.436     3.32     819.9097     54.43044     1264.344        26     1.272     0.897  63.16   0
       459    733.2088    354.2117 307.6089002  +6.5542091     424.3732      485.323     269.3794     76.91467     154.1987     308.7046      1.229     3.77     822.4367     54.43044     79.52063         5     0.990     0.412  45.06   0
       460    238.1515    350.9297 307.8146593  +6.5390323     2968.854     4023.557     3923.597     77.40614      154.383     308.8274      1.446     3.33     820.7391     54.43044     451.0436        18     1.253     0.791  55.48   0
       461    372.0919    348.3345 307.7591081  +6.5445848     29616.47     40340.39     41419.48     77.28356     154.6284     308.7967      1.454     3.45     818.7487     54.43044     4427.374        43     1.351     0.997  63.24   0
       462    550.7939    348.0190 307.6848849  +6.5506841     776.9526     903.4367     714.1221     77.03783     154.1372     308.6125      1.360     4.43     819.6896     54.43044     128.6691        10     1.125     0.618  68.14   0
       463    479.6722    346.9447 307.7144655  +6.5487533     1516.555      2068.03     1865.881     77.28356     154.3216      308.766      1.503     4.02     819.5812     54.43044     216.1934        13     1.171     0.711  64.45   0
       464    351.9220    346.4128 307.7675512  +6.5447038     1356.784     1928.838     2678.214     77.03783     154.0757     308.6125      1.543     5.26     818.5993     54.43044     185.9735        13     1.438     0.662  48.21   0
       465    638.7983    346.5378 307.6483764  +6.5542312     557.4033     767.4282     495.8165     76.79131     154.2601     308.5203      1.403     4.21     820.7338     54.43044     93.73303         6     1.061     0.477  57.90   0
       466    451.4034    343.5751 307.7263214  +6.5492003     1329.331     1532.033     1550.431     77.03783     154.1372     308.6432      1.304     2.86     819.1836     54.43044     247.6044        11     1.013     0.702  48.84   0
       467    766.8682    340.8330 307.5953645  +6.5608538     960.1855       1562.6     1315.967     77.28356     154.4444     308.8274      1.725     4.36     821.8074     54.43044     131.6892         8     1.063     0.597  67.72   0
       468    602.9169    340.7540 307.6634756  +6.5554226     748.3924     888.5024     975.3962     77.40614     154.4444     308.7967      1.249     3.84     819.6041     54.43044     124.2866         6     0.942     0.448  35.29   0
       469    348.8651    340.9188 307.7690054  +6.5468698     833.9781     1353.438     1953.044     77.65071     154.5671     308.7967      1.381     3.16     818.5641     54.43044     141.0604         7     0.860     0.527  47.74   0
       470    461.2133    338.7682 307.7224075  +6.5515126     9948.891     13374.96     13345.94     76.91467     154.1987     308.7353      1.422     3.31     819.0226     54.43044      1480.36        29     1.300     0.936  58.11   0
       471    730.5713    337.5515 307.6105527  +6.5609998      3588.82     4996.998     5003.894     77.03783     154.5058     308.7046      1.502     3.77     821.5222     54.43044     572.1977        23     1.471     0.953  42.64   0
       472    885.6514    337.2122 307.5461399  +6.5663016     838.7659     1208.214     1514.537     76.79131      154.383     308.5203      1.462     3.51     820.9496     54.43044     157.4578         8     1.106     0.537  56.75   0
       473    677.9521    337.2207 307.6324229  +6.5593832     988.6799     1261.867     1818.405     77.03783     154.4444     308.6125      1.410     4.69     821.0222     54.43044     154.8572         9     1.080     0.577  52.99   0
       474    287.5730    335.5326 307.7946469  +6.5470433      1403.64     1781.395      1610.91     77.03783     154.3216     308.7046      1.366     3.24     819.9922     54.43044     229.3792        11     1.081     0.680  46.48   0
       475   1014.9671    335.2242 307.4924845  +6.5714202     530.6933     721.8614     591.7601     76.79131     154.2601     308.6125      1.648     4.05     818.3923     54.43044     85.56818         5     1.016     0.517  34.73   0
       476    399.6120    329.0527 307.7483229  +6.5534656     576.3563     756.4316     1010.456     76.79131      154.383     308.5203      1.344     3.87     818.2908     54.43044      100.418         6     0.992     0.433  75.45   0
       477    222.9592    329.3915 307.8216936  +6.5474159     734.6138     1155.984     920.9764     76.79131     154.2601     308.5203      1.815     5.49     820.8414     54.43044      99.3136         9     1.178     0.721  48.60   0
       478    123.3365    329.2452 307.8630812  +6.5441388     1262.767     1756.619     1618.183     77.40614      154.383     308.8274      1.556     5.44     823.3568     54.43044     169.0219        14     1.158     0.961  48.35   0
       479    206.9728    323.6832 307.8285261  +6.5492373     2555.522     3619.658     4225.068     77.28356     154.1987     308.7353      1.511     3.74     821.2438     54.43044     360.5071        19     1.202     0.900  59.68   0
       480    351.0202    322.9346 307.7687136  +6.5543670     8519.078      11631.8      11768.2     77.03783     154.4444     308.6739      1.440     3.36     818.1059     54.43044     1260.217        24     1.276     0.889  61.94   0
       481    704.5775    322.5855 307.6218515  +6.5663129     1026.269     1522.784      1813.25      77.1608     154.2601     308.7046      1.598     3.26     820.3375     54.43044     213.1053         9     1.067     0.529  50.84   0
       482    718.9641    318.7666 307.6160026  +6.5683690     61570.79     81922.16     84332.96     77.03783     154.1987      308.551      1.411     3.37     820.2518     54.43044     9013.228        58     1.376     0.982  59.49   0
       483    390.5808    318.3529 307.7524334  +6.5575813      2585.29     3614.311      3930.29     76.91467     154.4444     308.6432      1.485     3.44     817.9201     54.43044      358.458        17     1.226     0.774  66.21   0
       484    953.6187    315.7101 307.5186214  +6.5774390     1822.111     2616.511     2716.736      77.1608     154.1987     308.7046      1.530     3.67     819.0891     54.43044     237.6255        16     1.229     0.792  59.78   0
       485    894.6400    314.9224 307.5431496  +6.5758035     2590.292     3553.585     4413.731     77.28356     154.4444     308.8274      1.455     3.37     820.0292     54.43044     374.4664        15     1.194     0.799  64.85   0
       486    536.7428    315.5847 307.6918082  +6.5636063     1366.811     1785.037     1186.631     76.79131      154.383     308.5203      1.301     3.13      818.084     54.43044     209.9805        12     1.047     0.702  63.68   0
       487    427.6089    314.7825 307.7371712  +6.5602929     1357.152     2025.403     2277.362      77.1608     154.1987     308.6432      1.597     3.54     817.8049     54.43044     236.9859        12     1.163     0.672  63.33   0
       488    377.1105    313.9627 307.7581764  +6.5589435     2265.875     3182.399     3421.728     77.40614      154.383     308.8274      1.534     3.41     817.8151     54.43044     333.2965        15     1.156     0.764  61.53   0
       489    256.8519    313.3892 307.8081521  +6.5551574     807.8713     852.2615     737.9257     76.79131     154.3216      308.551      1.384     4.62     820.0614     54.43044     125.0685        10     1.113     0.839  63.49   0
       490    798.4597    308.4914 307.5833210  +6.5752587     1300.482     1765.555     1503.996     77.28357     154.4444     308.9195      1.421     4.20     820.3283     54.43044     195.4971        13     1.228     0.716  40.27   0
       491    427.3260    308.8188 307.7374886  +6.5627457     778.0992     1135.033     1312.725     76.91467      154.383     308.7046      1.470     4.19     817.5586     54.43044     127.0579         7     0.899     0.557  58.48   0
       492    930.7577    306.4448 307.5284278  +6.5805046     555.7872     754.8234     704.3657     77.28356     154.4444     308.6432      1.295     3.45      819.467     54.43044     91.97748         5     0.733     0.469 -16.93   0
       493    407.7325    305.3450 307.7457446  +6.5635251     1385.069     1707.053     2198.906     77.40614     154.3216     308.7353      1.368     3.49     817.4384     54.43044     241.8611        13     1.133     0.711  55.88   0
       494    153.5298    305.1723 307.8513485  +6.5550895     2621.966     3555.521      3739.44      77.1608      154.383     308.7353      1.450     3.13     822.2278     54.43044     390.9407        16     1.157     0.774  65.15   0
       495    717.4299    303.3785 307.6171544  +6.5746712     7023.388     9318.573     10008.45     76.91467     154.2601     308.6739      1.417     3.16     819.2316     54.43044     1168.866        26     1.297     0.874  59.40   0
       496    188.8534    303.3912 307.8367349  +6.5570082      852.533     1113.822     774.5197     76.91467     154.3216     308.5203      1.326     3.75     821.4641     54.43044     141.4381         9     1.091     0.572  60.76   0
       497    307.7256    302.7030 307.7873776  +6.5612718     646.4536     723.1094     635.6837      77.1608     154.6284     308.8274      1.270     4.64     818.6586     54.43044     102.4428         8     1.186     0.516  43.23   0
       498     49.8359    302.6477 307.8945076  +6.5526553     1128.828      1532.59     1196.976      77.1608     154.4444     308.7046      1.456     4.01     823.8848     54.43044     189.1141         9     1.103     0.588  46.39   0
       499    733.6636    301.2478 307.6104816  +6.5760918     3160.376      4057.87     4566.272     77.28356     154.3216     308.8274      1.400     3.27     819.3887     54.43044     482.5478        19     1.178     0.827  67.11   0
       500    856.3997    300.8227 307.5595067  +6.5803530     404.3937     410.3448     186.2492     77.03783     154.1372     308.5817      1.125     3.47     819.6942     54.43044      64.7052         5     0.777     0.448 -71.83   0
       501    323.1316    296.0844 307.7811999  +6.5645198     1812.528     3432.121     4084.662     77.65071     154.6897     308.8274      2.093     5.83     818.1375     54.43044     249.9662        24     1.672     0.990   8.34   0
       502     37.2262    296.5470 307.8999510  +6.5547510     1374.888     2141.607     2366.983     77.03783     154.5671     308.7046      1.697     4.71     823.8397     54.43044      181.474        13     1.183     0.764  48.47   0
       503    971.9828    292.1622 307.5117775  +6.5877717     6462.091     8797.643     8868.053     77.03783     154.3216      308.551      1.435     3.46     817.6606     54.43044     943.1823        26     1.290     0.888  68.50   0
       504    450.0061    292.0867 307.7286278  +6.5704116     2245.607      3075.91     2607.922     76.91467     154.1372     308.5203      1.363     3.26     816.7778     54.43044     383.5745        16     1.251     0.738  61.93   0
       505    212.6144    287.7472 307.8273901  +6.5642628     6673.574     9276.828     9755.853     76.79131      154.383      308.551      1.483     3.37     820.8914     54.43044     897.3175        28     1.366     0.921  64.48   0
       506    880.2970    286.7603 307.5500482  +6.5869540     610.8931     988.1289     629.8628     77.40614     154.3216     308.9809      1.626     3.85      819.007     54.43044     103.5719         6     1.048     0.405  77.34   0
       507    777.0706    286.2318 307.5929505  +6.5837370     719.5254     1231.646     851.1165     77.28356     154.4444     308.7967      1.639     4.78     819.1116     54.43044     105.3222         9     1.171     0.845  53.54   0
       508    903.4736    282.4991 307.5405618  +6.5894841     539.1406     493.4908     222.4162     77.03783     154.5671      308.766      1.141     3.65     818.7767     54.43044     94.34412         6     0.939     0.409  70.16   0
       509    731.9717    281.1366 307.6118567  +6.5843388     878.1627       1065.9     1066.349     77.03783     154.4444     308.7353      1.329     4.51     818.4778     54.43044     150.8062         8     1.010     0.573  65.55   0
       510     84.6404    281.7719 307.8807523  +6.5624413     509.6031     736.2073     720.3472     77.03783     154.2601     308.6432      1.762     4.13     823.1868     54.43044     86.80908         6     1.205     0.404  58.41   0
       511    189.5572    280.2113 307.8372216  +6.5666019     735.2872     1118.313     1011.382     76.91467     154.2601     308.5203      1.557     5.12     821.1541     54.43044     143.1591        10     1.134     0.731  76.27   0
       512    346.7621    278.6102 307.7719698  +6.5725246     1924.805     2679.474     2372.653     76.79131     154.2601     308.5203      1.491     3.61     817.2651     54.43044     276.7853        16     1.239     0.790  69.86   0
       513    752.4219    278.9904 307.6034326  +6.5859060     430.9242     554.6168     877.2924     77.03783     154.1987     308.6432      1.302     3.70      818.665     54.43044     91.62885         6     1.196     0.329  39.07   0
       514    933.6396    277.0962 307.5282096  +6.5927178     1197.399     1526.302     1663.303     77.40614     154.3216     308.9502      1.474     3.59     818.3776     54.43044     175.6816        12     1.018     0.863  57.83   0
       515    116.4941    274.3038 307.8677713  +6.5665925     2066.355     2867.917     2890.618     77.40614     154.9959     308.7046      1.487     3.59     822.5134     54.43044     334.1584        17     1.236     0.842  70.63   0
       516    268.8626    274.4338 307.8044710  +6.5716426      1490.25     1836.458     1789.197     77.28356     154.5058     308.7353      1.423     4.12     819.1824     54.43044     204.4796        14     1.206     0.791  47.37   0
       517    526.1664    269.9180 307.6977315  +6.5821077     2539.482     3235.869      2958.39     77.40614      154.383      308.766      1.406     3.78     816.1448     54.43044     371.4672        16     1.182     0.796  63.58   0
       518    870.0847    269.2080 307.5548768  +6.5938613     1979.328     2847.847      3204.08     77.03783     154.1372     308.6432      1.658     3.66     818.1781     54.43044     268.0594        18     1.181     0.976  52.05   2
       519    689.7664    267.4379 307.6298487  +6.5885884     5930.475     7801.338     8082.918      77.1608     154.2601     308.5817      1.407     3.32      817.546     54.43044     874.9481        24     1.276     0.860  63.90   0
       520    630.6665    267.4157 307.6544020  +6.5866274     2546.721     3228.553     3168.911     76.91467     154.3216     308.7046      1.294     3.13     816.8311     54.43044     432.4131        14     1.121     0.692  49.55   0
       521    153.0708    275.6618 307.8525314  +6.5672577     568.2484     857.4902     1013.947     77.52852     154.4444     308.8274      1.541     4.58     821.7253     54.43044     95.02594         6     0.882     0.674  40.29   0
       522    345.5662    261.7174 307.7730335  +6.5794591     688.0366     972.9944     271.2016     77.40614     154.4444     308.7353      1.435     4.28     817.0139     54.43044     125.2538         7     1.210     0.432  51.21   0
       523    885.8146    259.6381 307.5486612  +6.5983357     1236.815     1598.896     1992.718      77.1608     154.2601     308.5203      1.369     3.96     817.7636     54.43044     179.7348         9     1.057     0.577  63.18   0
       524    189.2920    252.8322 307.8382520  +6.5778967     2700.126     3842.872      4070.23     77.52852     154.2601     308.8274      1.503     3.35     820.7814     54.43044     391.5528        21     1.308     0.830  59.87   0
       525    832.1589    251.8326 307.5712133  +6.5997733     1992.565     2592.608     2437.675      77.1608     154.4444     308.6739      1.390     3.46     817.8201     54.43044     293.6383        15     1.250     0.708  66.20   0
       526    722.5793    251.1628 307.6167608  +6.5964013     1734.158     2392.013     2164.407     77.03783     154.1987      308.551      1.443     3.67     817.7242     54.43044      268.416        14     1.237     0.723  60.64   0
       527   1022.5312    248.5079 307.4922324  +6.6074748     682.0766     862.7756     1104.196     77.40614      138.249     250.0295      1.534     5.49     814.5997     54.43044     82.85687        10     1.268     0.670  45.12  24
       528    211.1914    246.2861 307.8293745  +6.5813329     649.9225     732.3218      332.576     77.03783     154.1372     308.6432      1.228     3.59     820.3887     54.43044     94.27136         5     0.956     0.388 -85.88   0
       529    423.2260    242.6936 307.7414092  +6.5899096     26316.69     35396.23     36776.18     77.52852     154.1987     308.6432      1.452     3.27     815.5258     54.43044     3845.339        44     1.375     0.989  63.57   0
       530    284.0949    244.0860 307.7991623  +6.5846819     794.3329     957.3734     871.2578     77.40614     154.8123     308.8581      1.404     5.12     818.3989     54.43044     125.0673        10     1.139     0.790 -88.77   0
       531    749.2761    241.8047 307.6059824  +6.6011543     14902.39     20341.77     21401.37     77.03783     153.9525     308.6432      1.464     3.44     817.7237     54.43044     2206.102        42     1.336     1.169  46.16   0
       532    687.8138    237.6342 307.6316566  +6.6008285     754.2088     987.6169     334.3787     77.03783     154.1987     308.6739      1.211     4.62     817.1403     54.43044     150.5181         9     1.471     0.412  66.61   0
       533    428.8097    237.4300 307.7392660  +6.5922693     1575.435     1986.461     2537.599     76.91467     154.2601     308.6125      1.380     3.74     815.3413     54.43044     231.6216        13     1.146     0.759  56.88   0
       534    111.2933    235.9518 307.8712219  +6.5822521     2719.169     3641.112     3851.445     77.28356     154.3216     308.9195      1.422     3.17     821.8861     54.43044     422.0243        18     1.201     0.846  57.67   0
       535    138.0631    234.6203 307.8601459  +6.5836991     774.1472     1050.267     917.1332     77.03783     154.4444     308.6739      1.540     5.27      821.329     54.43044     111.3403        11     1.275     0.616  64.37   0
       536     86.1178    235.0694 307.8817100  +6.5817722     1429.879     1897.422     1986.259     77.65071     154.6897     308.8274      1.467     3.50     822.2963     54.43044     200.3378        11     1.091     0.649  70.16   0
       537    742.4594    233.9897 307.6090757  +6.6041539     769.6017     1307.455      1400.18     76.79131     154.3216     308.5203      1.773     7.32     817.5153     54.43044     91.88306        13     1.427     1.052 -10.11   0
       538    885.6149    232.1528 307.5496616  +6.6096770     1699.884     2350.905     2707.407     76.79131     154.2601      308.551      1.438     3.31     816.4742     54.43044     265.6254        15     1.137     0.813  66.52   0
       539    547.2057    228.4193 307.6903809  +6.5999436     5431.493      7478.84     7253.594     77.03783     154.0757     308.6125      1.445     3.35      814.918     54.43044     807.7468        26     1.306     0.922  68.51   0
       540    509.8890    228.4106 307.7058844  +6.5987014     2462.322     3380.435     3158.767      77.1608     154.1987     308.6125      1.422     3.50     814.9091     54.43044     348.2668        17     1.247     0.793  72.61   0
       541    267.5499    229.2342 307.8065344  +6.5902599     1258.804     1490.553      1457.97     77.28356     154.4444     308.7046      1.260     2.91     818.7161     54.43044     224.1816         9     0.928     0.645  53.00   0
       542    351.6900    227.6129 307.7716339  +6.5937444     1738.009      2158.34     1243.764      77.1608     154.1987     308.6432      1.364     3.33     816.2947     54.43044     250.9177        15     1.151     0.799  73.34   0
       543    908.2415    225.5062 307.5404829  +6.6131737     2971.102     4029.721     3667.711     77.52852      154.383     308.8888      1.480     3.62     816.1979     54.43044     402.1948        18     1.292     0.782  63.57   0
       544    854.3239    225.0206 307.5629000  +6.6115808     12679.87     17246.98     17694.15     77.03783     154.1987     308.7353      1.437     3.30     816.3499     54.43044     1875.917        31     1.327     0.916  64.40   0
       545    529.3484    225.0044 307.6979141  +6.6007574     1031.233     1207.632     1347.262     76.79131     154.2601     308.3973      1.247     3.06     814.8244     54.43044     176.1083        10     0.953     0.690  54.85   0
       546    282.0688    225.5754 307.8006256  +6.5922564     1012.528     1481.823     1436.053     77.03783     154.3216     308.7353      1.531     5.02     818.2643     54.43044     141.6567        10     1.271     0.562  54.30   0
       547    173.4100    225.2216 307.8457779  +6.5887639        924.6     1163.864     1198.083     77.03783     154.1987     308.6125      1.458     4.15     820.5657     54.43044     153.8879        10     1.126     0.617  48.31   0
       548    940.9254    222.7991 307.5269942  +6.6153780     10604.05     14911.25     14885.86     76.66775     153.8909     308.6125      1.470     3.50     815.7902     54.43044     1481.673        30     1.301     0.958  62.90   0
       549    652.3664    222.8269 307.6468788  +6.6057604      3205.61     4305.583     5117.036     76.91467     154.1987     308.5817      1.402     3.17     816.1295     54.43044     498.1155        17     1.291     0.704  61.06   0
       550    226.6584    222.5533 307.8237465  +6.5916491     1314.868     1979.987     1935.957     77.40614     154.4444     308.9195      1.636     4.17      819.881     54.43044     163.3865        13     1.262     0.697  65.04   0
       551    460.7864    217.7130 307.7266425  +6.6014782     2303.323     3083.253       3021.6     77.03783     154.2601     308.7046      1.360     3.70     814.7731     54.43044      358.947        15     1.205     0.698  54.87   0
       552    472.9399    213.7640 307.7217257  +6.6035146      3100.42     4365.253      4170.37     77.40614     154.4444      308.766      1.470     3.34     814.6128     54.43044     438.3883        19     1.230     0.824  70.54   0
       553    845.1421    213.4779 307.5671002  +6.6160411     2348.419     3203.432     3273.101     77.40614     154.4444     308.7353      1.479     3.78     815.9177     54.43044     331.0991        13     1.136     0.751  70.37   0
       554    792.8028    214.3176 307.5888174  +6.6139524     2249.165     2789.213     2531.647     76.79131     154.0757     308.4895      1.369     3.68     816.6967     54.43044     315.1323        15     1.149     0.753  67.82   0
       555    704.4795    210.9162 307.6256263  +6.6124150     45518.17     60724.12     62158.86     77.28356      154.751     308.8888      1.417     3.24     816.3647     54.43044     6729.865        50     1.376     0.960  66.78   0
       556    307.5779    210.3779 307.7905385  +6.5993844     6546.658     12467.41     12796.59      77.1608     154.2601     308.7967      1.988     6.45     817.4677     54.43044     768.6331        39     1.854     1.090 -87.41   0
       557    938.2203    209.7548 307.5285532  +6.6206738     3190.985     4393.296     4423.802     77.03783     154.3216     308.6125      1.480     3.44     815.3186     54.43044     441.8914        18     1.246     0.793  58.67   0
       558    872.4429    208.0435 307.5559390  +6.6191931     8250.341     11399.78     11747.33      77.1608     154.4444     308.6432      1.438     3.46     815.3546     54.43044     1255.821        29     1.347     0.889  64.00   0
       559    976.5755    208.2920 307.5126664  +6.6225524     1889.249     2348.391     2461.267     77.52852     154.2601     308.6432      1.378     3.70     814.7205     54.43044     265.7006        13     1.205     0.675  56.17   0
       560    415.8464    207.1388 307.7456674  +6.6043423     5860.197      8054.07     8058.054     77.28356     154.3216     308.8274      1.456     3.32     815.0123     54.43044     858.7644        26     1.282     0.957  66.90   0
       561    190.3600    204.1954 307.8394431  +6.5980126     781.4185     1204.534       831.36     76.66775     154.1987     308.5203      1.431     4.18      820.126     54.43044      115.971         7     1.235     0.404  64.64   0
       562    892.4683    197.4149 307.5479738  +6.6242474     1031.623     1434.544     2124.751     76.91467     154.3216     308.7046      1.491     4.43     814.8388     54.43044      164.809         9     1.142     0.596  60.60   0
       563    243.5414    195.1895 307.8176521  +6.6035119      38598.7     53305.83      55031.8     76.79131     154.3216     308.5203      1.465     3.17      819.238     54.43044     5761.506        52     1.394     1.027  62.21   0
       564    218.8769    196.2290 307.8278638  +6.6022568     7584.165     10394.32     10641.56     77.28356     154.5058     308.8274      1.454     3.50     819.7668     54.43044       1040.7        26     1.301     0.914  66.14   0
       565    569.9408    196.5893 307.6820015  +6.6138439     729.0654      1134.11     863.2289     76.79131     154.3216     308.5203      1.711     5.54     814.2767     54.43044     109.0961         8     1.195     0.723  88.06   0
       566    672.6767    194.2538 307.6393966  +6.6182345     996.1065     1211.036     1314.902     77.52852     154.4444     308.7967      1.291     4.58     815.3932     54.43044     172.3301         9     1.206     0.548  77.24   0
       567    384.8871    191.2039 307.7590640  +6.6098864     1749.576     2447.385     2639.949     76.91467     154.1372     308.5203      1.488     3.82     815.3231     54.43044     230.8141        17     1.425     0.716  61.86   0
       568    367.6384    190.6231 307.7662495  +6.6095494     58214.65      79108.8     81808.02     77.03783     154.1987     308.6125      1.459     3.19     815.5281     54.43044     8918.438        61     1.398     1.042  63.30   0
       569    123.5256    191.9574 307.8676201  +6.6008255     4648.211     6369.388     6317.971     77.28356     154.5058     308.8274      1.443     3.36      820.635     54.43044     620.0996        18     1.211     0.811  62.01   0
       570    706.9198    186.8323 307.6254178  +6.6224399     37488.53     50442.29     51566.71     77.28356      154.383      308.766      1.405     3.40     815.1452     54.43044     5550.718        48     1.364     0.965  63.96   0
       571    538.4468    189.6628 307.6953180  +6.6156525     586.6315     769.7597     714.8126     77.28356     154.3216     308.8581      1.353     4.19     814.0367     54.43044     98.08533         5     1.000     0.502  50.59   0
       572    278.9983    188.4314 307.8031486  +6.6074890     2528.056     3763.708     4587.499     76.79131     154.2601     308.5817      1.542     3.46     818.3904     54.43044     399.1905        22     1.512     0.809  67.41   2
       573    280.3307    184.6243 307.8027230  +6.6091053      627.554      1085.17     1842.366     77.03783     154.3216     308.7353      1.981     3.70     818.3716     54.43044     128.7744         5     0.902     0.437  50.13   3
       574    271.6567    188.3699 307.8062007  +6.6072686      21307.8     28950.14     29580.77     77.28356     154.5058     308.7046      1.464     3.16     818.5529     54.43044     3238.672        38     1.331     0.993  62.14   0
       575     73.2733    198.4532 307.8882780  +6.5964587     5560.984     7665.652     7779.915     77.28356     154.5058     308.7967      1.496     3.31     821.6279     54.43044     810.4381        26     1.293     0.926  72.28   0
       576    655.0013    188.6221 307.6469285  +6.6199704     1201.335     1558.527     883.4872     77.03783     154.1372     308.5203      1.356     3.57     814.9052     54.43044     188.2004        10     1.036     0.613  60.11   0
       577    755.2421    187.2467 307.6053274  +6.6238785     1283.348     1521.467     1807.977     77.40614     154.4444     308.7046      1.372     3.87     815.2156     54.43044     191.7274        13     1.179     0.773  61.47   0
       578     23.6915    184.1487 307.9093574  +6.6007009     10364.59     14216.92     15114.25     77.28356     154.2601     308.9809      1.460     3.25     822.5164     54.43044     1464.106        30     1.318     0.951  63.38   0
       579     57.5804    182.1347 307.8953466  +6.6026694     1756.465     2766.368     3156.712     77.03783     154.4444     308.6739      1.692     3.79     821.6142     54.43044     259.5101        18     1.331     0.820  60.70   0
       580    965.4258    180.9445 307.5182110  +6.6334731     1200.054     1860.669     2343.736     77.03783     154.4444     308.6432      1.483     4.24     814.2035     54.43044     178.8967        14     1.343     0.711  69.10   0
       581    933.1738    180.3256 307.5316318  +6.6326566     554.5963     647.3787     895.1484     77.03783      154.383      308.766      1.345     4.46     814.0568     54.43044     91.34003         5     1.158     0.489  56.31   0
       582    691.7294    174.9651 307.6321259  +6.6268333      675.925     985.2929     769.4487     77.28356      154.383     308.7967      1.569     4.81     814.5101     54.43044     125.5477         6     1.275     0.514  67.30   0
       583    966.4129    167.7373 307.5182414  +6.6389588     2204.523     3319.633     3658.569     76.91467     154.2601     308.5817      1.867     4.52     813.8893     54.43044     348.6558        23     1.989     0.797  67.22   0
       584    540.9905    171.8131 307.6948592  +6.6231070     899.1347     1200.824     776.0156      77.1608     154.1987     308.7353      1.420     4.54     813.6373     54.43044      156.431        10     1.056     0.676  73.43   0
       585    549.2648    164.9658 307.6916508  +6.6262102     1058.064     1503.833     1640.283     77.28356     154.4444     308.7967      1.416     5.36      813.514     54.43044     143.1058        13     1.446     0.642  48.35   0
       586    557.7603    163.2142 307.6881799  +6.6272169     2237.453     3109.234       2746.6     76.91467     154.2601      308.551      1.437     3.29     813.5276     54.43044      325.186        15     1.175     0.744  68.12   0
       587    301.8382    163.2227 307.7945063  +6.6186610     1152.282     1732.499     1957.133     77.03783     154.1987     308.6125      1.638     3.47     817.6374     54.43044     176.9081        10     1.004     0.671  73.68   0
       588    242.4468    161.4230 307.8192413  +6.6174160     35629.57     48249.98     50134.82     77.03783     154.4444     308.6739      1.478     3.22     819.1034     54.43044      5518.35        54     1.417     1.037  62.51   0
       589    674.1887    158.0208 307.6399805  +6.6332445     9293.988     12375.52      13104.1     77.03783     154.1372     308.7046      1.400     3.47     813.7068     54.43044      1440.99        30     1.319     0.882  64.60   0
       590    151.0353    159.3406 307.8572884  +6.6152136     960.3372     1238.947     1542.404     77.40614     154.4444      308.766      1.518     3.83     819.8121     54.43044     142.3817        10     1.067     0.674  70.67   0
       591    228.2810    156.3613 307.8252966  +6.6190315     956.0675      1307.33     1207.067     77.40614     154.5058     308.7353      1.248     3.02     819.3264     54.43044     188.4233         7     0.905     0.527  62.23   0
       592     84.8838    155.1410 307.8849121  +6.6147297     5580.123     7889.797     8600.653     77.52852     154.5058     308.8581      1.488     3.31     820.2713     54.43044     790.0312        26     1.257     0.967  65.21   0
       593    546.7236    153.2172 307.6931002  +6.6309760     788.1648     1086.321     1099.227     76.91467     154.1987     308.7353      1.418     4.52     813.1248     54.43044     122.8024         8     1.039     0.655  58.74   0
       594    423.9440    152.1407 307.7441477  +6.6273197     1495.683     2160.341     1626.315     77.52852     154.4444     308.8274      1.479     4.20     814.3901     54.43044     231.3281        13     1.251     0.708  75.40   0
       595    355.6418    151.0927 307.7725602  +6.6254689     4493.434     7132.307     7728.378     77.40614      154.383     308.8888      1.695     3.61     815.4885     54.43044     716.9997        28     1.496     0.974  73.18   0
       596    612.6683    151.7259 307.6657516  +6.6337921      1158.26     1567.484     1802.432     77.52852     154.5671      308.766      1.402     3.81     813.4797     54.43044     173.6451        11     1.077     0.677  61.64   0
       597    532.0284    150.2363 307.6993055  +6.6317162     731.8376      1059.79      1280.31     77.03783     154.1987     308.6125      1.640     6.29     812.9892     54.43044     92.54523        10     1.308     0.849 -74.12   0
       598    319.9946    149.9596 307.7874084  +6.6247443     3705.081     4965.928     5115.634     76.66775     154.1372     308.5203      1.408     3.17     816.9724     54.43044     513.1136        21     1.209     0.923  62.72   0
       599     74.3740    150.1109 307.8894476  +6.6164539     2053.073     2976.512     2781.501     77.52852     154.1987     308.6432      1.493     3.57     820.5056     54.43044     308.7679        16     1.264     0.753  58.32   0
       600    902.4621    149.2361 307.5454297  +6.6444716     534.5974      671.598     218.4878     77.40614     154.4444      308.766      1.342     3.50     812.8292     54.43044       90.633         5     0.788     0.449  70.38   0
       601    710.3434    147.6118 307.6253071  +6.6387470     647.8575     982.8214     633.8204     76.79131      154.383     308.4895      1.583     5.20     813.2966     54.43044     96.80261         8     1.316     0.581  74.03   0
       602    635.8775    148.0328 307.6562323  +6.6360909     831.6968     926.3138     901.6703     77.28356     154.4444      308.766      1.269     4.12      813.328     54.43044     138.8172         7     0.930     0.522  48.40   0
       603    124.3545    145.7167 307.8688311  +6.6199440     602.4149     812.0991     396.2372     77.40614     154.4444     308.7967      1.477     5.46     819.7774     54.43044     101.6253         7     1.268     0.663 -88.43   0
       604    966.7712    144.0177 307.5188838  +6.6487640     1717.619     2243.926      1511.25     77.03783     154.2601     308.7353      1.430     3.37     812.6776     54.43044     248.1007        14     1.155     0.744  65.86   0
       605    692.4464    144.0934 307.6328607  +6.6396032     684.8451      915.803     1137.247     77.28356      154.383     308.9195      1.475     4.71     813.1576     54.43044     119.8022         7     1.036     0.608  66.63   0
       606    633.6788    137.7756 307.6574891  +6.6402524     7232.325     9633.462      9931.95     77.03783     154.2601     308.7967      1.383     3.12     812.9487     54.43044     1094.405        26     1.273     0.862  66.11   0
       607    171.8637    138.9564 307.8493206  +6.6243274     6493.837     8852.574     9158.557     77.40614      154.383     308.7967      1.428     3.23     819.4709     54.43044     959.2353        21     1.209     0.889  59.48   0
       608     54.4860    138.8326 307.8980897  +6.6204430     2460.979     3380.511      3192.42     77.40614     154.2601     308.7967      1.485     3.69     820.7476     54.43044     330.0092        17     1.284     0.776  64.87   0
       609    781.6800    137.3896 307.5960093  +6.6453436     1292.215     1711.899     1525.081     77.03783     154.1987     308.6432      1.360     3.55     812.8196     54.43044     199.1682        13     1.112     0.771  69.11   0
       610    585.8398    135.0416 307.6774569  +6.6397855     10882.69     14715.92     15561.08      77.1608     154.4444     308.6739      1.412     3.13     812.7015     54.43044     1610.668        29     1.308     0.890  59.54   0
       611    220.3453    135.7328 307.8292868  +6.6272824     890.2298     1096.611     663.7004     77.40614      154.383     308.7353      1.326     4.19     819.2513     54.43044     140.1841         8     1.065     0.617  72.78   0
       612    523.9411    134.3171 307.7031990  +6.6380187     826.0605     1031.256     977.8902     77.52852     154.5058     308.8581      1.425     5.28     812.4397     54.43044     121.3876        10     1.251     0.629  71.92   0
       613   1008.8705    131.7086 307.5018021  +6.6552448     749.9825     964.2065     803.4866     77.28356     154.5671     308.7967      1.160     3.67     811.4438     54.43044     148.7506         8     0.957     0.579  60.85   0
       614    313.0791    130.6852 307.7909286  +6.6324706     4197.734     6548.725     7357.758     77.28356      154.751     308.8888      1.706     3.64     817.5258     54.43044     600.1348        31     1.454     1.186 -68.04   0
       615    494.8217    130.1414 307.7154375  +6.6387703     1976.401     2502.074     2663.236     77.03783      154.383     308.6432      1.326     3.35     812.3336     54.43044     301.4105        12     1.117     0.646  65.94   0
       616    959.2897    129.6567 307.5224714  +6.6544447     900.9151      1378.57     1758.557     77.28356      154.383     308.9195      1.843     6.04     811.9157     54.43044     125.2702        12     1.279     0.803  41.83   0
       617    589.3829    126.5335 307.6762698  +6.6434164     62336.86     82460.87     84605.83     76.91467      154.383     308.6739      1.427     3.21     812.4203     54.43044     9912.887        53     1.360     0.994  65.20   0
       618    655.6841    127.6585 307.6486848  +6.6451632     505.5601     559.2031     416.7072     77.40614     154.4444     308.8581      1.168     4.48     812.5695     54.43044     88.41168         6     1.058     0.540  56.19   0
       619    268.4049    120.2832 307.8098388  +6.6352700     3968.146     5312.627     5377.898     76.91467     154.0757     308.5203      1.453     3.20     818.6656     54.43044      594.332        20     1.193     0.903  70.66   0
       620    463.7909    117.2455 307.7287625  +6.6430581     575.8241     509.4152    -92.40436     76.91467     154.3216     308.4895      1.092     3.37     812.3864     54.43044     86.36176         5     0.934     0.352  45.09   0
       621    668.3514    114.8121 307.6438515  +6.6508894     1071.943     1470.722     1607.937     76.79131      154.383     308.4895      1.478     3.90     812.0765     54.43044     175.5251        12     1.089     0.813  32.64   0
       622    639.7674    113.8260 307.6557609  +6.6503435     1672.365     2017.556     1953.044     76.91467     154.1987     308.6432      1.340     3.42     812.0385     54.43044     259.3645        13     1.108     0.704  62.93   0
       623    653.7350    110.4237 307.6500713  +6.6522139     3762.983     4814.041     5147.053     77.03783     154.4444     308.7046      1.342     3.29     811.8868     54.43044     587.4659        20     1.254     0.803  72.50   0
       624     25.9371    109.0215 307.9109541  +6.6317927     560.4966     709.3853     846.0507     77.03783     154.4444     308.6739      1.363     3.69     820.1691     54.43044     102.0562         5     1.036     0.377  56.79   0
       625    395.4877    101.6243 307.7576652  +6.6472249     4863.121     6087.444     6121.982     77.40614     154.2601     308.6739      1.405     3.06      814.402     54.43044     758.9827        22     1.291     0.818  66.58   0
       626    850.0419     97.6410 307.5689330  +6.6640301      2285.87     3021.758     2734.818     77.16079     154.4444     308.6739      1.426     3.56     811.4176     54.43044      339.322        13     1.174     0.675  70.46   0
       627    868.0518     96.8893 307.5614748  +6.6649397     4296.619     5903.381     6005.603     77.40614     154.2601     308.8888      1.446     3.54     811.4363     54.43044     660.8297        20     1.221     0.827  59.48   0
       628    560.1656     95.6548 307.6894434  +6.6551903     2010.622     2898.126     3339.335     77.28356     154.4444     308.7967      1.643     3.66     811.1503     54.43044     280.9492        17     1.282     0.817  68.81   0
       629    548.0515     97.4096 307.6944179  +6.6540614     1012.173     1283.909     1345.144     76.91467     154.3216     308.5203      1.407     4.66      811.109     54.43044     142.1495         9     1.088     0.576  61.59   0
       630    579.7511     95.2173 307.6813203  +6.6560245     426.7569     485.0679      579.033     76.91467     154.5058     308.5817      1.133     4.29     811.2195     54.43044     80.76343         5     0.742     0.706  26.25   0
       631    205.9871     94.9411 307.8366232  +6.6436426     926.2535     1170.258     694.8328     76.79131      154.383     308.4895      1.477     4.45     818.9251     54.43044     146.2267         8     1.006     0.559  59.66   0
       632     49.6345     94.6239 307.9015935  +6.6385319     569.8032     760.4042     853.6955     76.91467     154.2601     308.5817      1.236     4.08     819.6133     54.43044     112.8548         7     1.089     0.438  58.92   0
       633    358.9222     93.1921 307.7731406  +6.6494835     2238.663     2897.278     2655.508     77.03783     153.9525     308.6125      1.388     3.49     816.7084     54.43044     310.6591        17     1.196     0.810  73.64   0
       634    106.8008     90.4064 307.8779848  +6.6421906     3733.024     5074.945     5191.027     76.79131     154.1372     308.6125      1.429     3.30      819.259     54.43044     550.8776        21     1.279     0.826  61.23   0
       635    255.1010     88.8266 307.8164230  +6.6478117     1427.309     2009.812     2397.583     77.52852     154.1987     308.7353      1.463     3.76     818.7887     54.43044     221.1224        15     1.290     0.755  57.45   0
       636    528.2171     87.7634 307.7029822  +6.6573819     859.3545       1031.6     1068.661     76.91467     154.3216     308.5817      1.297     4.04       811.06     54.43044     125.6006         8     1.113     0.576  44.41   0
       637    515.5134     87.7874 307.7082598  +6.6569478     910.3557     1110.783     984.8715     77.03783     154.3216     308.6739      1.337     4.22     811.1068     54.43044      132.824         9     1.044     0.680  59.15   0
       638    911.1345     87.5660 307.5438848  +6.6702220     1180.501     1586.041     1978.959     77.28356     154.4444     308.7967      1.422     0.00     811.0334     54.43044     711.2861         7     1.249     0.390  28.44   0
       639    723.5524     86.9942 307.6218460  +6.6642143     786.0801     955.4161     1011.577     76.79131     154.2601     308.4588      1.274     3.77     810.8793     54.43044     131.8879         6     0.830     0.492  83.78   0
       640    118.0441     86.6144 307.8734412  +6.6441331     545.6107     749.3619     901.5692     76.79131     154.2601      308.551      1.378     3.89     819.0063     54.43044     100.0162         5     0.926     0.694  87.41   0
       641    946.7107     85.9994 307.5291547  +6.6720515     501.7313     770.9428       543.43     76.66775     153.9525     308.4895      1.552     4.55     810.1932     54.43044     69.94696         6     0.908     0.648 -51.42   0
       642    735.5745     82.9705 307.6169853  +6.6662761     3812.852      5216.46     5396.319     76.91467     154.2601     308.6739      1.441     3.40      810.676     54.43044     573.3531        23     1.275     0.884  68.49   0
       643    380.5534     83.8352 307.7644671  +6.6540700     1308.003     1454.514     1491.529     77.03783      154.383     308.6739      1.295     3.93     815.3222     54.43044     210.5919        11     1.147     0.660  61.41   0
       644    857.0533     83.9076 307.5664783  +6.6699335     731.9102     1024.246     971.0952     77.28356      154.383     308.9502      1.321     3.94     810.8365     54.43044     127.3086         7     0.911     0.501  46.45   0
       645    790.4308     82.5941 307.5942046  +6.6682585      7102.22     9344.365     9900.992     76.79131     154.1987     308.5817      1.390     3.18     810.6719     54.43044     1145.758        25     1.273     0.847  65.60   0
       646    881.3845     83.0951 307.5563955  +6.6710784     485.3943      506.771     362.7856      77.1608     154.2601     308.6432      1.164     3.90     810.8096     54.43044     89.33832         5     0.894     0.486 -89.52   0
       647    497.7690     81.2268 307.7158524  +6.6590639     1191.147     1370.729     1689.657     76.91467     154.1987     308.6432      1.274     4.54     811.0749     54.43044     197.8834         9     1.087     0.603  60.34   0
       648     13.7435     81.0857 307.9169609  +6.6429167     1135.153     1714.945     1736.819     77.40614     154.4444     308.9502      1.523     5.40     818.9503     54.43044     192.8041        11     1.314     0.626  60.19   0
       649     28.9223     80.0226 307.9106904  +6.6438650     3615.417     4997.513     5307.784     77.03783     154.2601     308.7353      1.436     3.34     818.8974     54.43044     568.6894        23     1.296     0.878  60.51   0
       650    390.1851     79.3574 307.7606155  +6.6562408     986.9802     1273.398     1109.187     76.91467     154.1987      308.551      1.454     5.12     814.6936     54.43044     132.6017        10     1.104     0.671  65.33   0
       651    552.7514     76.6715 307.6931599  +6.6627803     1434.712     1754.516     1501.505     77.40614     154.4444     308.8274      1.394     3.80     810.8701     54.43044     222.6735        12     1.179     0.662  64.33   0
       652    223.7876     76.1577 307.8298589  +6.6519936     484.6875     753.0972     921.5518     76.79131     154.2601      308.551      1.426     3.37      818.935     54.43044      86.0069         5     0.962     0.341  46.33   0
       653    730.1710     70.5077 307.6196472  +6.6712416     2262.927     2963.408     3499.451     77.52852     154.1987     308.7046      1.397     3.40     810.2329     54.43044     324.8963        16     1.216     0.739  59.45   0
       654    370.7565     70.6282 307.7689808  +6.6591951     1391.186     1847.395     1890.836     77.03783     154.5058     308.7046      1.361     3.59     816.1812     54.43044     226.0819        12     1.141     0.700  63.57   0
       655     43.8647     71.2223 307.9047786  +6.6479997     991.7881     1201.417     1238.915     77.03783     154.4444     308.6739      1.294     3.65     818.4591     54.43044     131.1715        10     1.105     0.729  60.44   0
       656    971.8973     71.5320 307.5191719  +6.6788618     2035.091     1881.042     1624.751     77.40614     154.5058      308.766      0.672    -0.10     808.6588     54.43044     1213.725         5     0.643     0.263  74.99   0
       657    621.6238     70.4700 307.6647508  +6.6676387     428.3766     670.9117     1679.499     77.03783     154.3216     308.7353      1.956     4.23     810.6514     54.43044     74.19324         6     1.121     0.455  54.93   0
       658     67.9848     69.6665 307.8948097  +6.6494512     1153.194     1588.776     1536.603     76.91467     154.3216     308.7046      1.418     3.48     818.3972     54.43044      192.556        13     1.129     0.753  73.34   0
       659     56.7217     64.3379 307.8996686  +6.6512733     10951.07     14972.93     15500.01     77.65071     154.5058     308.8274      1.477     3.18     818.1133     54.43044     1520.508        31     1.312     0.969  63.44   0
       660    385.7506     64.0437 307.7629718  +6.6624149     2969.496     4101.745     4364.038     77.40614      154.383     308.7967      1.436     3.27     815.0395     54.43044     419.0664        20     1.266     0.823  55.45   0
       661    206.9940     63.8437 307.8372502  +6.6565150     631.5388     896.3653     1062.507     76.79131     154.1372     308.4895      1.367     3.84      818.601     54.43044     113.5978         6     0.917     0.462  38.87   0
       662    223.4084     58.3172 307.8306160  +6.6593465     1556.324     2144.064      2591.82     77.03783     154.1372     308.6432      1.443     3.55     818.9018     54.43044     227.9464        14     1.099     0.757  68.74   0
       663    599.5408     56.2275 307.6744033  +6.6727823     21662.63     28906.26     30029.23     77.03783     154.5058     308.6739      1.421     3.18     810.3635     54.43044     3401.255        38     1.334     0.947  68.84   0
       664    654.9894     56.3949 307.6513582  +6.6745625     538.8217     763.0167     786.4221     77.03783     154.1987     308.7046      1.496     5.42     810.1329     54.43044     107.6069         8     1.244     0.667 -86.81   0
       665    628.8321     57.1359 307.6622021  +6.6733843     583.8051     658.6783     932.1769     77.16079     154.5058      308.766      1.130     3.60     810.2664     54.43044     104.1284         6     0.908     0.588  69.91   0
       666    908.5034     55.7633 307.5460396  +6.6832649     551.0961     762.9288     398.1034     77.40614     154.3216     308.9502      1.275     3.42     809.6008     54.43044     144.3918         5     0.836     0.406  66.43   0
       667    499.3135     52.4006 307.7161768  +6.6710168      6042.12     7750.182     7881.779     76.66775     153.9525     308.4895      1.371     3.02     810.6511     54.43044     1025.784        22     1.250     0.810  59.97   0
       668    217.4249     52.5998 307.8332943  +6.6615065     2093.098     2712.424     3246.499     77.03783     154.1372     308.6125      1.461     3.22     818.7421     54.43044     337.3239        17     1.208     0.792  67.43   0
       669    585.8776     46.7552 307.6803978  +6.6762372     3566.489      5710.52     6743.399     77.28356     154.4444     308.7967      1.824     4.75     810.2449     54.43044     547.7439        28     1.922     0.797  67.63   0
       670    404.8475     47.9827 307.7555760  +6.6696843     26482.03     35744.32     36925.41     76.91467      154.383     308.5817      1.416     3.20     813.3766     54.43044     3881.343        43     1.336     0.974  64.15   0
       671    225.4383     48.3946 307.8301061  +6.6635111     10757.68     14501.61     14588.56     76.54399     154.1987      308.551      1.433     3.24     818.9473     54.43044     1701.031        31     1.283     0.945  63.31   0
       672    882.5142     47.8799 307.5571020  +6.6856554     2163.229     2835.329     2835.158     77.16079      154.751     308.8888      1.407     3.36     809.2426     54.43044     337.6968        15     1.186     0.718  67.86   0
       673    470.9922     49.1485 307.7280535  +6.6714135     525.1492       627.94     533.6838     76.91467     154.2601     308.4588      1.338     3.80       810.89     54.43044     86.81305         5     0.821     0.504  64.44   0
       674    285.1566     48.4776 307.8052908  +6.6654763     1227.656     1745.828     2231.507     77.28356     154.4444     308.8274      1.529     3.71     818.8623     54.43044     201.6072        13     1.148     0.787  51.44   0
       675    518.0378     47.7756 307.7085517  +6.6735515     743.7651     935.4569     962.2658     77.03783     154.2601     308.6125      1.243     3.77      810.573     54.43044     132.4974         7     1.092     0.434  54.38   0
       676    213.4162     45.0334 307.8352142  +6.6644961      3553.88     4789.332     5114.342     77.03783     154.1987     308.6739      1.430     3.17     818.5835     54.43044     558.9265        19     1.209     0.854  60.43   0
       677    266.2829     43.2012 307.8133100  +6.6670229      1187.18     1749.049     2282.021     76.66775     154.0141     308.5203      1.671     3.76     818.9086     54.43044     200.1678        14     1.304     0.716  36.09   0
       678    903.2742     38.0553 307.5488037  +6.6904022      1184.55     1575.125     1725.578     77.28356      154.383     308.7353      1.425     4.22     808.7949     54.43044     186.6996        14     1.384     0.668  50.54   0
       679    654.6454     37.5444 307.6521320  +6.6823338     2168.668     2871.852     2778.401     77.40614     154.4444     308.7967      1.444     3.23     809.5793     54.43044     316.1815        18     1.250     0.783  64.13   0
       680     59.4812     37.8292 307.8994146  +6.6623100     755.8522     1246.066     972.1654     77.28356     154.3216     308.7967      1.662     5.38      816.853     54.43044     87.19269        11     1.072     0.763  42.64   0
       681    165.6661     33.2858 307.8554489  +6.6677463     824.1957      1127.04     909.9889     77.52852     154.6284     308.8581      1.357     4.45     816.7458     54.43044     124.7644         7     1.059     0.531  62.14   0
       682    220.2933     32.5622 307.8327760  +6.6698752     848.2387     1098.479     992.7527     77.52852     154.3216     308.8581      1.365     4.40     818.7607     54.43044     122.2856         8     0.987     0.566  68.39   0
       683    142.9123     30.4075 307.8649998  +6.6681719      12451.4     16860.94     16976.01     76.91467     154.1372      308.551      1.446     3.35     816.4373     54.43044     1739.898        32     1.325     0.931  64.13   0
       684    888.5613     27.9880 307.5552534  +6.6940693     4432.516     6010.593     6831.176     76.91467     154.2601      308.551      1.433     3.18     808.3472     54.43044     702.8439        20     1.273     0.800  64.04   0
       685    487.0697     28.6308 307.7220610  +6.6804215     3494.231     4668.271     4312.942     77.28356     154.4444      308.766      1.456     3.35     810.3143     54.43044     497.0399        22     1.216     0.929  55.17   0
       686    689.4082     26.8930 307.6380438  +6.6878903     2273.142     2777.283     3062.751     77.03783     154.1372     308.6125      1.314     3.42     808.9481     54.43044     335.4102        15     1.124     0.766  65.39   0
       687    425.2907     26.9400 307.7477877  +6.6790554     2200.412     3077.667     3161.302     77.28356     154.4444     308.8581      1.436     3.35     811.7889     54.43044     349.3781        17     1.236     0.834  60.21   0
       688     31.3730     26.5430 307.9114731  +6.6660263     448.1061     664.2335     436.9917     77.03783     154.5058     308.6432      1.430     3.49      816.362     54.43044     69.76965         5     1.096     0.320  69.78   0
       689    953.4423     24.2735 307.5284172  +6.6977602     2285.742     3234.204     3374.711     77.28356     154.5058     308.8274      1.542     4.08      807.501     54.43044      294.688        18     1.292     0.898  75.96   0
       690    748.2670     23.5640 307.6136978  +6.6912260     649.8865     784.8836     605.8867     77.28356     154.5671     308.8581      1.156     4.30     808.3232     54.43044     126.1558         8     1.139     0.568  45.39   0
       691    174.9780   1021.1833 307.8183852  +6.2601934     499.2931     637.3842     233.5464     77.03783      151.156     268.4254      1.312     4.22     839.6249     54.43044     70.61841         5     1.406     0.361   5.85  16
       692    592.9601     20.1321 307.6783465  +6.6874653     4192.224     5615.956     5616.672     77.28356      154.383     308.8888      1.406     3.42     809.5891     54.43044     617.6136        21     1.264     0.813  51.13   0
       693    294.8876     19.6640 307.8022154  +6.6776979     1055.304     1662.335     2077.106     77.40614     154.6284     308.8274      1.691     4.42     818.9944     54.43044     165.1978        11     1.145     0.661  67.91   0
       694    348.7476     18.6675 307.7798697  +6.6799114     781.9963     1136.537     875.6703     77.28356      154.383     308.7353      1.528     4.46     818.7324     54.43044     144.0677         8     1.187     0.477  45.83   0
       695    938.0554   1019.2383 307.5016321  +6.2864476      656.539      1128.46      990.645     77.40614     154.5058     290.7054      1.795     3.93      836.458     54.43044     100.4745         6     0.860     0.770  66.11  16
       696    639.9016     15.0664 307.6590108  +6.6911226     1000.973     1209.572     1344.756     77.40614     154.5671     308.7967      1.286     3.25     808.9935     54.43044     159.5361         8     0.845     0.635  45.51   0
       697    578.6974   1016.8183 307.6509166  +6.2754847     594.9584     1038.082     718.7687     77.28356     154.3216     307.8127      1.776     5.56     842.4217     54.43044     88.36932         7     1.408     0.619  58.30  16
       698    714.4214   1011.7030 307.5947360  +6.2821196      7824.34     12371.59     13118.68     77.28356     154.2601     308.6125      1.752     3.75     839.5784     54.43044     901.5244        40     1.576     1.139  68.86   0
       699    552.3654   1015.4446 307.6618953  +6.2751737     639.8064     1125.358     1620.001      77.1608      154.383     308.6739      2.659     6.27     842.5674     54.43044     101.6279         9     1.120     0.987 -60.91   0
       700    260.0980   1011.1051 307.7833843  +6.2672028     15358.39     23698.16     25670.69     77.40614     154.9959     308.6432      1.711     3.54     841.1207     54.43044     1971.752        59     1.635     1.392 -55.65   0
       701    509.9010   1012.4146 307.6796273  +6.2750080     4264.315     6534.812     7416.604     77.40614     154.1987      308.551      1.718     3.53     842.5399     54.43044     562.3259        29     1.430     1.055  74.64   3
       702    507.0513   1004.5784 307.6810727  +6.2781482     8568.155     12786.89     13438.29     76.91467     154.5058     308.6739      1.615     3.36     842.3569     54.43044      1149.46        33     1.399     1.063  66.06   2
       703    480.1135   1013.7411 307.6919502  +6.2734662     1118.368     1658.514     1729.548     77.40614     154.4444     308.9195      1.611     4.13        842.6     54.43044     149.0695        12     1.047     0.814  59.35   0
       704    775.4437   1011.0398 307.5694219  +6.2844250     1169.084     1785.824     1830.969      77.1608     154.4444     308.6739      1.645     4.94     839.1414     54.43044     137.2427        13     1.163     0.828  42.86   0
       705    384.6950   1011.6136 307.7316375  +6.2711581     977.9343     1352.177     1263.575      77.1608     154.1987     308.6432      1.484     4.48     842.4055     54.43044     130.9927        10     1.095     0.637  72.34   0
       706    231.4301   1008.7688 307.7953648  +6.2672083      942.377     1274.333     1234.869     76.91467     154.1987      308.551      1.557     4.36     840.5652     54.43044     155.7615        13     1.234     0.835  45.69   0
       707    875.7892   1005.2256 307.5279523  +6.2901636      8003.48     13792.88     13978.39     77.03783     154.2601     308.6739      1.821     4.06     837.7676     54.43044     1024.466        43     1.654     1.213  54.51   0
       708    849.3833   1001.3823 307.5390443  +6.2908723     11491.53      19604.6     21257.09      77.1608     154.1372     308.7353      1.864     3.88     838.2242     54.43044     1340.853        52     1.596     1.363  55.59   0
       709    561.9124   1002.0945 307.6583780  +6.2810040     1468.279     2392.297     1666.427     77.40614     154.8735     308.8581      1.768     4.68     842.1601     54.43044     210.0377        15     1.388     0.838  82.30   0
       710    971.0583   1000.7005 307.4885467  +6.2951980     4289.134     7759.887     7712.142      77.1608     154.4444     308.9195      1.902     4.40     834.8569     54.43044     462.7328        34     1.559     1.220  65.14   0
       711    493.4064   1000.3301 307.6868801  +6.2794469     4368.152     6697.481      7442.38     76.91467     154.0757     308.6739      1.683     3.70     842.2261     54.43044     530.9991        30     1.345     1.168  63.15   0
       712    602.9990    999.7128 307.6413988  +6.2833574     1365.889     2030.989     2109.155     76.66775     154.0141     308.5203      1.663     4.40     841.8253     54.43044     174.3642        15     1.235     0.806  30.57   0
       713    446.5796    996.9999 307.7064335  +6.2792587     2062.937     3303.797     2977.409     77.03783     154.1372     308.4895      1.653     4.28     842.2531     54.43044     261.7792        21     1.440     0.960  77.98   0
       714     28.3012    999.3803 307.8800126  +6.2642810     858.0114     1340.867     934.5424     77.40614     154.3216     308.5817      1.692     5.32     837.4962     54.43044     99.23346        10     0.928     0.862  21.31   0
       715    758.1340    997.7205 307.5770535  +6.2893481     698.5403     809.5302     354.1035     77.52852     154.5671      308.766      1.385     4.92     838.9464     54.43044     85.25079         9     1.048     0.654  52.56   0
       716    881.0956    988.9027 307.5262932  +6.2970794     40865.94     69298.21     73352.91     77.40614     154.9959     308.6432      1.813     3.85     837.2233     54.43044      4914.11        71     1.672     1.312  63.96   0
