#   1 NUMBER                 Running object number                                     
#   2 X_IMAGE                Object position along x                                    [pixel]
#   3 Y_IMAGE                Object position along y                                    [pixel]
#   4 ALPHA_J2000            Right ascension of barycenter (J2000)                      [deg]
#   5 DELTA_J2000            Declination of barycenter (J2000)                          [deg]
#   6 FLUX_APER              Flux vector within fixed circular aperture(s)              [count]
#   9 FLUXERR_APER           RMS error vector for aperture flux(es)                     [count]
#  12 FLUX_RADIUS            Fraction-of-light radii                                    [pixel]
#  13 FWHM_IMAGE             FWHM assuming a gaussian core                              [pixel]
#  14 BACKGROUND             Background at centroid position                            [count]
#  15 THRESHOLD              Detection threshold above background                       [count]
#  16 FLUX_MAX               Peak flux above background                                 [count]
#  17 ISOAREA_IMAGE          Isophotal area above Analysis threshold                    [pixel**2]
#  18 A_IMAGE                Profile RMS along major axis                               [pixel]
#  19 B_IMAGE                Profile RMS along minor axis                               [pixel]
#  20 THETA_IMAGE            Position angle (CCW/x)                                     [deg]
#  21 FLAGS                  Extraction flags                                          
         1    187.4233     14.0471 307.8650993  +6.6682309     10955.76     16562.23     17465.49      77.9034     156.1797      312.142      1.612     3.71      829.559       55.042     1635.839        39     1.558     0.975  47.65   0
         2    531.7518     12.2039 307.7220979  +6.6805555     3060.725     4428.191     4242.332     77.65411     155.9312     311.9246      1.526     3.71     828.2539       55.042     490.4022        20     1.472     0.745  45.84   0
         3    933.1068     11.7521 307.5553477  +6.6941684     4276.499     6353.574     7034.522     78.15189     156.0555     312.3904      1.584     3.61     825.3652       55.042     647.4686        25     1.452     0.847  51.60   0
         4    733.8816     10.4173 307.6381726  +6.6880621     2094.279     3125.148     3317.119      77.9034      155.869      312.142      1.589     3.81     826.2798       55.042     353.0586        16     1.322     0.699  45.75   0
         5    469.8657     10.5690 307.7478662  +6.6791553     1941.021     2922.936     2599.147     78.02775     156.2418     312.2042      1.558     4.07     828.5134       55.042     291.3478        15     1.335     0.700  36.20   0
         6    997.8770      8.1846 307.5285541  +6.6978031     1970.589     3370.328     3346.235      77.9034      155.869     311.4269      1.700     4.38     821.1176       55.042     270.3332        22     1.494     0.997  56.20  16
         7    717.2687      4.4883 307.6452745  +6.6899547     7859.483     11204.38     11651.23      78.3996     156.4278      279.882      1.515     3.84     826.0609       55.042      1312.19        28     1.491     0.824  50.54  24
         8    637.5084      3.7720 307.6784395  +6.6875807     3922.403     5711.027     5980.118      78.3996     152.2824     270.7619      1.521     3.73     826.4321       55.042     656.1542        23     1.486     0.778  51.40  24
         9    339.3948      3.1114 307.8023269  +6.6778554     1086.859      1569.28     1376.031     77.77885     146.4407     261.8056      1.472     3.83     834.1432       55.042      159.104        11     1.246     0.670  69.16  24
        10    438.2472      1.4213 307.7613115  +6.6818720     3337.058     3765.119     4185.315     69.06401     125.5537     236.3912      1.000     1.95     828.9898       55.042     891.2296        11     0.915     0.589   3.60  24
        11    393.0025      2.0451 307.7800893  +6.6800959     958.3815     1160.755     1228.171     75.37339      133.923     245.9583      1.353     4.54     831.1677       55.042     142.1135         8     0.930     0.629  43.03  24
        12     39.1829      1.2626 307.9271207  +6.6685190      3134.92     3624.433     3785.154     66.92529     122.9792     233.6272      0.923     1.86     828.6801       55.042     993.8629         9     0.982     0.436   3.79  24
        13    598.0242    998.5872 307.6614272  +6.2754461     496.5402     663.2578     240.1467     78.02775     155.9934     312.2042      1.373     4.06     859.5832       55.042     89.94397         5     1.054     0.447  64.99   0
        14    899.3768   1023.8165 307.5354684  +6.2751004     443.1823     616.1808      264.213      65.7562     121.7113     232.5041      1.367     3.65     856.4734       55.042     105.5792         5     1.008     0.380   4.56  24
        15    760.0815   1023.1525 307.5933221  +6.2707223     772.8139     1195.651     1706.525       73.945     131.6597     243.3828      1.951     6.20     857.0242       55.042      115.196        12     1.303     0.830  11.95  24
        16    726.0125   1020.9163 307.6075414  +6.2705069     6750.219     11078.88     11573.32      77.9034     154.4946     274.7076      1.722     3.95     857.2121       55.042     834.1821        38     1.653     1.073  45.85  24
        17    592.5795   1023.1973 307.6628616  +6.2651010     47459.61     61346.83     64209.93     73.28653     130.7731     242.3049      1.341     4.20     860.1141       55.042     8998.575        53     1.553     0.889  13.79  24
        18    440.6904   1020.9369 307.7259956  +6.2609459     3651.998     5756.095     6178.593     78.27585     154.6827     274.7782      1.712     4.21     860.4515       55.042     477.0912        28     1.641     0.947  46.23  24
        19    222.5734   1023.1721 307.8164711  +6.2527025     1758.381     2205.937     2275.585     73.55062      131.291     242.8245      1.373     3.29     858.8245       55.042     319.2849        12     1.043     0.736  17.46  24
        20    524.8863    997.6422 307.6918235  +6.2733871     1215.156     1720.232     2077.943     78.27585     156.0555     312.2663      1.608     5.12     859.9688       55.042     161.8921        13     1.275     0.722  63.81   0
        21    758.8941    995.5768 307.5947391  +6.2820702     7536.779      12044.1     12483.27     78.27585     155.9934      312.142      1.703     3.75     856.9196       55.042     965.8959        40     1.611     1.099  49.33   0
        22    554.2983    995.9695 307.6796688  +6.2750630     4098.817     6910.433     7450.706     78.27585     155.9312     312.2973      1.823     4.42     859.5168       55.042     490.2789        32     1.628     1.053  53.24   3
        23    551.4550    988.3282 307.6811058  +6.2781233     8329.465     12924.85     13933.56      78.1519     156.0555     312.2352      1.697     3.83     859.3398       55.042     1098.012        34     1.540     1.004  48.96   3
        24    304.6124    994.7009 307.7833716  +6.2672147     14752.18     23529.96     26101.87     78.02775     155.9312     312.0489      1.798     3.89     858.2913       55.042      2012.19        62     1.804     1.567 -31.06   0
        25    819.7911    994.8685 307.5694797  +6.2843975     1093.002     1831.076     1701.869     77.77885     155.9312     312.1731      1.759     5.14     856.8091       55.042     159.7883        16     1.318     0.904  61.53   0
        26    428.8243    995.1122 307.7317901  +6.2712123     1170.247     1758.157     1932.328     78.27585     155.9934      312.142      1.646     4.02     859.2419       55.042     143.6127        14     1.179     0.794  48.42   0
        27      2.0622    996.4036 307.9089165  +6.2563397     588.0846     613.7045     750.7435     75.37339     134.3566     246.1947      1.324     5.28     851.1813       55.042     99.03418         5     1.215     0.647  25.44  24
        28    275.9257    992.8135 307.7953446  +6.2670309     866.8164     1445.763       1770.3     77.77885     155.9312     312.0799      1.913     4.27     858.0076       55.042     137.1497         8     1.133     0.572  47.73   0
        29    920.1208    989.0021 307.5280208  +6.2901697     7677.028     13404.33     14566.85     77.65411     155.6823     312.0489      1.846     3.99     855.2742       55.042     914.0416        43     1.744     1.161  50.63   0
        30   1015.4867    984.5739 307.4885740  +6.2951793     4096.318     7068.167     7305.511      78.3996     155.9934     312.1731      1.880     4.49     853.7728       55.042     474.2325        36     1.700     1.165  50.17  16
        31    893.7444    985.1620 307.5391004  +6.2908752     11281.94     19391.73     21187.03     78.27585     156.2418     312.2973      1.870     4.03     855.7209       55.042     1465.166        56     1.790     1.284  45.98   0
        32     50.1860    987.5430 307.8892376  +6.2616185     556.6787     735.1735     500.5676     77.65411     156.0555     311.9556      1.263     4.09     852.6093       55.042     80.16809         6     1.044     0.458  58.02   0
        33      3.4581    987.3527 307.9086426  +6.2601241     602.1855     846.2522     942.5565     78.27585     150.1023     266.9395      1.894     4.45     851.2959       55.042     90.31995         8     1.133     0.497  88.03  16
        34    606.5510    985.3922 307.6583300  +6.2811804     1348.349     2108.627     1917.719     77.77885     155.9934     311.9246      1.539     3.91     859.2734       55.042     223.3036        14     1.358     0.680  43.45   0
        35    538.0630    984.2111 307.6868040  +6.2793749      3991.64     6324.137     6953.495     77.77885     155.9934      312.142      1.759     4.17     859.3505       55.042     573.4946        33     1.720     1.053  32.39   0
        36    647.5676    983.5023 307.6413643  +6.2833336     1466.885     2096.356     1792.884     78.27585     156.0555     312.3904      1.648     3.96     858.5928       55.042     209.4064        14     1.135     0.854  59.42   0
        37     72.4401    982.7154 307.8801618  +6.2643609     844.1362     1202.046     840.4866     78.27585     156.1176     312.2352      1.550     4.78     853.1172       55.042     130.9667         8     1.199     0.540  66.43   0
        38    491.1133    980.5993 307.7064176  +6.2792935     1972.197     3121.429     2825.944     77.52916     155.6823     311.9556      1.581     4.16     859.8773       55.042      255.551        19     1.481     0.822  51.88   0
        39    399.9932    979.3294 307.7442905  +6.2767630       523.28     849.8312     832.2925     77.77885     155.7446     312.1731      1.459     4.17     858.5031       55.042     90.30634         6     1.111     0.447  72.69   0
        40    925.4822    972.7010 307.5263402  +6.2970803     39877.88     67707.64     73358.48     78.27585     156.6136     312.3594      1.856     4.00     854.9399       55.042     4803.306        79     1.852     1.298  48.83   0
        41    331.2132    973.8921 307.7730285  +6.2767006     560.7831     654.9264     533.1259     78.02775     155.9312     312.0489      1.297     3.37     858.0744       55.042     90.93793         5     0.999     0.330  46.01   0
        42    232.8877    971.1343 307.8139422  +6.2745377     1610.241     2711.986     2537.704     78.27585     156.3658     312.2973      1.743     4.08     857.1192       55.042     228.2799        17     1.320     0.912  51.58   0
        43    631.6523    968.9212 307.6484612  +6.2888224     989.0851     1405.512     1170.209     78.27585     156.1797     312.2663      1.558     4.34     858.6035       55.042     145.8033        13     1.121     0.821  50.15   0
        44    121.2016    970.2087 307.8603405  +6.2711657     525.7965     723.5578     814.3528     77.65411      155.869     312.0489      1.543     3.78     853.6816       55.042     86.90637         5     0.900     0.455  45.20   0
        45    771.6066    964.4628 307.5905038  +6.2953439      6316.17      10187.9        11352     77.65411     155.9934     312.0489      1.791     3.89     856.7385       55.042     877.2742        39     1.722     1.185  65.59   0
        46    823.6331    966.4330 307.5688369  +6.2962685     2209.531      3561.44     3276.484     77.77885     155.9312     312.0178      1.723     3.75      856.287       55.042     306.4084        23     1.412     1.015  38.26   0
        47    241.1079    963.5727 307.8107843  +6.2779363     1471.719     2225.971     2424.861      78.3996     155.9312      312.142      1.547     4.48     856.9688       55.042     200.7747        14     1.308     0.724  50.56   0
        48    558.8242    963.4902 307.6788804  +6.2886271     755.1701     1276.365     1614.537      78.3996     155.9934      312.111      1.947     4.25     858.7868       55.042     128.9271        10     1.177     0.624  47.31   0
        49    205.5524    962.6307 307.8255773  +6.2771307     762.3135     1250.623     1546.539      77.9034     156.1797     312.1731      1.783     5.20     856.0049       55.042     126.4409        10     1.388     0.627   1.98   0
        50     66.0002    961.4785 307.8835520  +6.2729137     2509.143     4245.789     4591.099     77.52916     155.5577     311.9867      1.780     4.33     852.5331       55.042     338.8781        23     1.492     0.975  43.33   0
        51    959.9135    959.5019 307.5124860  +6.3036798     6207.886     10688.03     11077.78     78.27585     156.6136     312.3283      1.848     4.17     854.1125       55.042     746.1992        37     1.641     1.154  50.73   0
        52    215.5652    955.6418 307.8216558  +6.2803532     605.5445     893.0174     753.9524     78.02775     156.1797     312.0799      1.775     4.69       856.17       55.042     77.11328         6     1.052     0.593  28.08   0
        53    933.6411    951.3055 307.5236685  +6.3061881     2045.985     3265.153     3075.466      78.3996     156.1176     312.3904      1.710     3.90       854.48       55.042     284.1874        21     1.386     0.952  58.64   0
        54    642.2590    953.5264 307.6445741  +6.2955347      771.902     1170.857     1068.266      78.3996     156.1797     312.2663      1.612     5.04     858.2382       55.042     120.8266        10     1.264     0.569  51.65   0
        55    793.2971    947.7722 307.5820573  +6.3029612      1132.73     1880.769     2219.967      78.3996     155.9312     312.2352      1.821     5.41     856.5059       55.042      155.301        16     1.431     0.827  48.51   0
        56    654.3701    947.1353 307.6397601  +6.2985792     4513.401     6861.322     7153.165     78.02775     156.3038     312.2042      1.635     3.88     858.0224       55.042      609.738        27     1.485     0.953  41.76   0
        57    266.5512    947.2828 307.8007698  +6.2855178     4726.274     7146.329     7149.833     78.27585     156.1797     312.2973      1.667     3.90     856.8482       55.042     638.7206        33     1.542     1.101  45.23   0
        58    476.6843    945.6071 307.7135841  +6.2932600     1223.705     1792.929     1602.787      77.9034      155.869      312.111      1.580     5.29     858.2049       55.042     170.5284        15     1.352     0.810  57.10   0
        59     35.2115    944.7774 307.8968976  +6.2787740     1981.376     3357.502     2849.128      77.9034     155.9934     312.1731      1.761     3.86     851.9561       55.042      277.498        21     1.297     1.005  53.90   0
        60    886.6724    943.6013 307.5434277  +6.3078021     839.0458     1297.595     986.1754     77.77885     155.7446      312.111      1.700     4.97      854.824       55.042     117.8677         9     1.077     0.730  38.43   0
        61    578.9937    939.5397 307.6713105  +6.2991929     1726.299     2816.298     3084.897     77.65411     156.0555     312.0489      1.800     4.25      858.278       55.042     225.8414        21     1.416     0.924  56.00   0
        62   1010.5073    939.2821 307.4921555  +6.3137171     739.8605     1589.458     1864.244     78.02775     156.4898     312.3594      2.256     6.36     852.5627       55.042     112.9001        11     1.159     0.980 -77.88   0
        63    957.3639    940.5212 307.5141795  +6.3114331     628.1623     1121.422     767.0945      78.1519     156.2418     312.2663      1.555     4.14     853.8246       55.042     105.6389         7     1.238     0.396  15.05   0
        64     67.6707    936.7924 307.8836915  +6.2831638     716.1208     1146.231     1735.773     77.77885     155.8068     312.1731      2.324     5.78     852.0751       55.042     107.6028        11     1.268     0.743  67.81   0
        65    618.0145    935.5031 307.6552450  +6.3021662     1140.648     1749.509     1586.335     78.15189     155.9312     312.0489      1.564     5.66     858.1282       55.042     177.1926        16     1.599     0.769  55.22   0
        66    298.1094    933.7548 307.7881232  +6.2921639     1560.175     2275.029     2279.745     78.27585     156.1176     312.3904      1.495     3.45     856.9824       55.042      245.713        14     1.236     0.699  47.89   0
        67    302.5896    940.8019 307.7860259  +6.2894043     871.0862     1291.734     1045.984      77.9034      155.869     312.0799      1.538     4.09      857.134       55.042     142.8712        10     1.056     0.740  53.66   0
        68    765.2211    930.1920 307.5943035  +6.3092829      813.035     1150.585     1106.595     77.77885     155.9934     312.0489      1.446     3.64     856.6162       55.042     127.5042         9     0.939     0.757  52.00   0
        69    902.5482    926.4232 307.5374109  +6.3154260     6800.801     11125.76     11458.71     77.77885     156.1797      312.142      1.752     3.91      854.358       55.042     822.2589        40     1.631     1.164  54.04   0
        70    438.5078    923.6498 307.7301725  +6.3010475     2102.729     3181.077     3624.515      78.1519     156.0555     312.4214      1.725     3.55     857.2744       55.042     297.6212        21     1.375     0.882  69.53   0
        71    340.0946    921.8750 307.7710918  +6.2984790     9699.865      14680.6      15410.1     78.02775     156.3658     312.2663      1.589     3.73     856.7687       55.042     1364.145        35     1.506     0.992  52.25   0
        72    260.1055    920.8320 307.8043367  +6.2962241     7116.051     11004.19     11542.13      78.3996     155.9934     312.3594      1.641     3.82     856.1818       55.042      932.748        35     1.594     1.006  48.29   0
        73    588.2193    915.2439 307.6682958  +6.3095349     1242.152     1830.368     1717.819     77.77885     156.0555     312.0489      1.485     3.87      857.598       55.042     214.5397        15     1.387     0.702  54.52   0
        74    772.6803    915.0206 307.5917148  +6.3157974     658.6533     877.0391     745.2876     78.02775      155.869     312.2352      1.584     4.11     856.2241       55.042     153.3351         5     1.104     0.506  40.40   0
        75    918.2592    911.6572 307.5313817  +6.3220481      985.778     1645.155     1662.812      78.3996     156.1176     312.2973      1.847     5.89      854.128       55.042     126.7522        13     1.320     0.796  45.86   0
        76    151.0635    911.3549 307.8499276  +6.2964731     575.2165     824.8583     860.9732     78.27585     156.1176     312.2973      1.421     4.21     853.2021       55.042     104.8924         7     1.111     0.455  50.07   0
        77    417.3984    910.4163 307.7393818  +6.3058044     556.0271     726.9724     623.8969      77.9034     155.7446     312.0489      1.393     3.72      857.054       55.042     97.88007         6     0.962     0.414  72.51   0
        78    754.5985    904.4218 307.5995777  +6.3195699     1776.894     2890.563     3233.558      77.9034      155.869     311.9867      1.749     4.39     856.2394       55.042     259.4969        19     1.558     0.755  40.17   0
        79    578.1042    905.0969 307.6728363  +6.3133864     740.9257       938.98     819.8275     78.27585     156.7374      312.111      1.461     3.57     857.3086       55.042     141.2258         7     1.006     0.528  67.77   0
        80      5.4709    902.0291 307.9106880  +6.2954252     914.7869     1520.202     1373.517     78.15189     156.1797     290.9219      1.768     5.41     850.8073       55.042      133.534         9     1.204     0.710  55.71  16
        81    985.9078    900.1179 307.5036790  +6.3290702     1146.669     2006.046     2381.247     78.02775     156.4898     312.3283      1.887     5.72     852.1559       55.042     151.0637        18     1.420     0.984  47.46   0
        82    631.0405    900.7185 307.6510040  +6.3169666     654.8271     873.8624      1282.35     78.27585     156.1797     312.2042      1.240     4.33     857.0511       55.042     106.4546         6     0.871     0.612  88.30   0
        83    618.7712    901.0521 307.6560871  +6.3164182     833.7357     1422.089     1142.093     78.02775     156.3038     312.1731      1.766     3.07      857.081       55.042       144.14         8     0.940     0.594  26.85   0
        84    539.8882    900.1514 307.6888696  +6.3141488     1088.315     1469.146     1009.614     78.27585     156.0555     312.3594      1.516     4.35     857.1992       55.042      177.325        14     1.347     0.746  48.97   0
        85    673.3337    897.8065 307.6335413  +6.3195843     2649.718     4138.851     3975.251     77.77885     155.9312     312.0799      1.623     4.21     856.8663       55.042     354.3284        21     1.491     0.821  58.13   0
        86    834.0327    894.3279 307.5669339  +6.3263924     823.4351     1124.288     729.2416     78.15189     156.1797     312.2663      1.503     4.96     854.8356       55.042     140.9031        10     1.313     0.530  64.12   0
        87     87.3226    893.4700 307.8769945  +6.3017146     1877.093     2939.763     2790.113     78.52317     156.4278     312.2352      1.724     4.13     851.2045       55.042     238.6862        18     1.317     0.881  55.45   0
        88     69.7712    893.9163 307.8842663  +6.3009397     2936.392     4712.015     5031.845     78.27585     155.9312      312.142      1.730     3.72     851.0753       55.042     433.4708        29     1.644     1.006  42.34   0
        89    213.3916    892.9580 307.8246705  +6.3061651     2183.194     3394.251     3643.243     77.65411     155.9934     312.0178      1.649     3.75     855.0049       55.042     287.9926        20     1.351     0.863  50.59   0
        90    951.1675    892.8868 307.5183457  +6.3308976     688.0876     965.6591     945.2307     78.27585     155.9934     312.2663      1.769     4.22     853.0944       55.042      112.922         6     1.232     0.413  61.80   0
        91    352.4410    889.1204 307.7670680  +6.3124194     933.2646     1433.662     1938.297     78.15189     156.1797     312.2663      1.844     4.89     856.2313       55.042     154.7513        10     1.375     0.558  53.00   0
        92    247.3543    889.5641 307.8106841  +6.3087077     792.7773     904.5822     853.9669     78.02775     156.1176     312.1731      1.388     4.49     855.7524       55.042     121.3897         8     1.223     0.592  77.46   0
        93    806.2184    888.4545 307.5786795  +6.3278888     634.7742     1126.672     1092.467     77.77885     156.1797     312.0489      1.837     5.63     855.0697       55.042     98.13007         8     1.224     0.730  56.19   0
        94    667.8236    886.9152 307.6361945  +6.3238976     7045.295     10857.33     11178.36     78.15189     155.9312     312.1731      1.618     3.81     856.5785       55.042      1001.96        35     1.554     1.014  47.12   0
        95     28.0945    885.3062 307.9018600  +6.3030924     1086.568     1716.545     1605.118     78.27585     156.7374     312.2352      1.679     4.47     850.4088       55.042     153.4586        11     1.289     0.598  51.15   0
        96    905.5060    883.1664 307.5376305  +6.3333881     2632.289     4157.049     4183.092      78.3996     156.0555     312.3594      1.673     4.14     853.9132       55.042     324.9943        22     1.445     0.964  44.66   0
        97     40.7026    883.6345 307.8966819  +6.3042071      1242.73     1766.835     1456.349     78.27585     156.0555     312.4214      1.663     4.53     850.5181       55.042     167.8875        14     1.274     0.754  52.72   0
        98    350.7656    880.0919 307.7680675  +6.3160915     16669.57     25088.83     27040.01      78.3996     156.0555     312.3283      1.609     3.67     856.0848       55.042     2498.181        48     1.598     1.055  47.75   0
        99     85.6781    881.2017 307.8780912  +6.3067253     1246.941      1864.69     1678.855     77.65411       155.62     312.0489      1.567     3.38     850.9491       55.042     181.2516        12     1.000     0.819  35.93   0
       100    221.5446    879.3536 307.8217440  +6.3120569     1288.172     1875.886     1181.367     78.27585     156.1797     312.3283      1.565     4.69     855.3489       55.042     204.5983        15     1.470     0.734  47.59   0
       101    680.6617    872.0681 307.6313620  +6.3304583     646.2442     1195.525     1750.141     78.27585     156.1176     312.2663      1.725     5.23     856.1538       55.042     95.37317         8     1.144     0.675  70.73   0
       102    428.6114    871.1012 307.7360484  +6.3224157     1022.291     1338.335     1623.992     78.02775     155.9312     312.0489      1.403     3.90     856.3024       55.042     177.4852        11     1.249     0.693  57.39   0
       103    114.1109    870.8193 307.8666367  +6.3119692     1694.312     2566.527     2759.945     78.02775     155.9312     312.1731      1.602     3.75     851.2284       55.042     290.7959        15     1.365     0.695  48.18   0
       104    682.0755    867.1962 307.6309384  +6.3325174     793.3669     1263.708     1377.161     77.77885     155.6823     312.1731      1.404     4.05     856.0262       55.042     120.5005         8     0.961     0.602  61.85   0
       105    509.0944    867.6374 307.7027477  +6.3265439     635.6408     703.6623     717.6256      78.3996     156.0555     312.3904      1.401     4.63     856.0594       55.042     106.2449         7     1.147     0.530  29.42   0
       106    895.9440    864.8422 307.5422142  +6.3406361     1857.605     3023.449     2589.438     78.15189     156.1176     312.2663      1.687     3.91     853.8712       55.042     231.4485        21     1.350     0.958  51.68   0
       107    866.6598    864.4005 307.5543886  +6.3398409     1962.592     3006.176     3055.203     77.52917     155.9934     311.9556      1.666     4.30     854.2599       55.042     297.8162        20     1.515     0.803  48.92   0
       108     97.7357    864.4560 307.8736501  +6.3140460     2573.348     3794.243     4423.873      78.3996     156.1176     312.2663      1.624     3.80     850.7891       55.042     387.2682        19     1.307     0.888  50.72   0
       109    830.0350    863.7981 307.5696163  +6.3388665     3036.926      4608.66     5177.967     77.40401     155.9934      312.111      1.625     3.42     854.3948       55.042     474.5297        22     1.387     0.887  47.94   0
       110    565.8865    855.3023 307.6795813  +6.3335402       344885     513627.7       539605     78.27585     156.6136     312.3283      1.607     3.78     855.8491       55.042     48811.97       170     1.738     1.226  49.89   0
       111    410.1229    857.8714 307.7441698  +6.3272589     7918.831     11988.58     12920.19     78.52316     156.4278     312.2663      1.614     3.76     855.9346       55.042     1097.943        33     1.497     1.006  51.41   0
       112    653.7542    858.1645 307.6430009  +6.3352997     1201.813      1707.15     1742.669     78.02775     156.1176      312.142      1.506     4.24     855.8289       55.042     176.0398        13     1.169     0.819  42.80   0
       113    353.3398    856.2886 307.7677998  +6.3260074     13004.42     19777.51     20976.37      78.1519     156.3038     312.3594      1.629     3.68      855.512       55.042     1878.349        43     1.544     1.063  53.21   0
       114    671.8746    852.5961 307.6356638  +6.3382054     3655.164     5338.332     5527.229     77.77885     155.6823     312.1731      1.539     3.58       855.75       55.042     543.4481        24     1.395     0.935  53.36   0
       115    903.9350    851.3555 307.5393476  +6.3464723     4807.276     8024.095     9522.357     78.27585     156.1176     312.2663      1.908     4.42     853.4554       55.042      611.013        37     1.834     1.192  31.73   0
       116    743.2328    848.6325 307.6061671  +6.3422287     763.1627     1061.873     765.4169     77.77885     155.9312     312.0178      1.367     4.52     855.4252       55.042      141.536         8     1.490     0.390  56.77   0
       117    646.5853    846.6677 307.6463634  +6.3398075     3612.708      5301.63     5224.207     77.77885     156.0555     312.1731      1.613     3.76     855.6095       55.042     542.7624        26     1.595     0.896  60.34   0
       118    835.1738    845.8121 307.5680850  +6.3464657      1605.15     2474.745     2516.717      77.9034     155.9934     312.2042      1.625     3.71     854.2168       55.042     220.3837        16     1.171     0.909  56.47   0
       119    636.7979    845.7036 307.6504597  +6.3398780     933.7374     1517.064     1828.824     77.77885     155.9312     311.9556      1.614     5.83     855.5813       55.042     129.0456        11     1.262     0.759  59.12   2
       120    639.5219    841.2430 307.6494784  +6.3418113     2200.657     3142.932     3801.715      78.1519     156.1797     312.2973      1.613     3.95     855.4882       55.042     335.9302        19     1.452     0.812  53.01   2
       121    460.0610    861.4182 307.7233159  +6.3274688     585.5467     906.2904     1419.445      77.9034     156.1176     312.0799      2.027     7.02       855.76       55.042     82.78986        11     2.226     0.621  46.89   0
       122    962.1296    844.6497 307.5154076  +6.3511834     808.7817     1375.366     1827.582     78.27585     156.1176     312.2973      1.910     2.87     851.7454       55.042     138.4424         7     0.796     0.635 -76.66   0
       123    184.1516    841.6308 307.8385407  +6.3263776     417.8003      608.331     768.0808      77.9034     156.1797     312.1731      1.427     4.59     852.5911       55.042     77.19855         5     0.849     0.704  67.85   0
       124    923.2043    839.2787 307.5317504  +6.3521027     3203.286     5162.475      5439.12      77.9034     155.6823     312.0178      1.708     3.83     852.8306       55.042     426.9574        25     1.545     0.874  44.50   0
       125    333.3250    839.9927 307.7766586  +6.3320650     869.1007     1328.372     1582.645      77.9034     155.6823      312.142      1.604     4.26     854.9277       55.042     169.8149         9     1.207     0.532  59.83   0
       126    381.1683    835.2026 307.7569547  +6.3356486     2622.234     3993.161     3961.865     77.65411     155.9934     312.0489      1.573     4.10     854.8249       55.042     410.4543        21     1.557     0.750  49.80   0
       127    349.4724    827.8486 307.7703627  +6.3376219     610.4653     699.2761     302.3086     78.27585     156.2418     312.2973      1.374     4.08     854.4896       55.042     95.90485         6     1.051     0.452  29.55   0
       128    517.4453    824.9968 307.7007131  +6.3444324     3211.695     4738.264     4574.795     77.65411      155.869     311.9246      1.526     3.74     854.5345       55.042     480.4059        20     1.365     0.841  49.63   0
       129    862.0856    823.7282 307.5576499  +6.3564842     1006.096     1370.048     1790.491      78.3996     156.4278     312.2973      1.481     4.19     853.7608       55.042     133.3519        11     0.972     0.860  46.95   0
       130    564.3388    821.1068 307.6813724  +6.3476096     6387.228      9578.68     10224.79     78.15189     156.1797     312.3283      1.560     3.65     854.7402       55.042     877.7891        32     1.531     0.979  56.55   0
       131    582.5432    822.7231 307.6737591  +6.3475518     854.9855     1200.409     1051.856     78.27585     156.1176     312.2352      1.513     5.11     854.9409       55.042      118.907        11     1.234     0.630  47.46   0
       132    276.2409    821.5864 307.8009802  +6.3377491     761.6627     912.3525     373.3721     77.77885     155.9934     312.0178      1.439     4.70     854.1346       55.042     134.2007         8     1.178     0.533  64.70   0
       133    482.2462    820.0764 307.7154940  +6.3452846      1669.84     2583.659     2769.277     78.15189     156.2418     312.2973      1.647     4.25      854.083       55.042     269.0325        18     1.423     0.842  58.27   0
       134    900.3110    819.3960 307.5419221  +6.3595495     1351.495     2054.568     1322.059     77.77885      155.869     311.9556      1.596     3.95     852.8518       55.042     194.4587        15     1.253     0.803  69.09   0
       135    571.0195    820.4503 307.6786204  +6.3481045     1300.172     2157.181     2030.085     77.77885     156.2418      312.111      1.863     4.34     854.7637       55.042      182.278        13     1.138     0.792  49.16   0
       136    123.5799    819.2411 307.8644451  +6.3335865     1321.341     1951.913     1581.006      77.9034     155.9934     312.0489      1.603     4.62     850.5241       55.042     205.7374        15     1.414     0.799  58.52   0
       137    700.2285    818.1211 307.6250469  +6.3533906     774.5334     1034.725     1342.959     78.15189     156.1176     312.2663      1.436     3.91     854.9457       55.042     116.6953         6     0.791     0.554  50.44   0
       138    534.9794    814.9972 307.6937685  +6.3491492      20455.2     30306.83     31530.72      77.9034      155.869     312.0178      1.539     3.62     854.2874       55.042     3028.552        46     1.607     0.973  49.32   0
       139    376.4068    816.5737 307.7595586  +6.3431817      711.286     1064.042     652.7484     77.77885     156.0555     312.0799      1.528     4.54     854.0942       55.042     114.2631         8     1.274     0.460  81.61   0
       140    948.6301    813.3475 307.5220603  +6.3636598     3813.692     5883.759     6122.529     78.02775     156.3038     312.2042      1.675     3.72     851.4448       55.042     520.8406        27     1.467     0.966  44.47   0
       141     69.3530    811.1943 307.8872317  +6.3350848     519.9421     799.5615     558.0838     77.65411     155.9934     311.9246      1.248     3.44     849.7678       55.042     96.16595         5     0.742     0.461  77.51   0
       142     45.1844    805.3475 307.8974639  +6.3366857     1437.047     2140.316      2167.55     77.65411     156.2418     311.9867      1.546     4.23      849.545       55.042     220.9675        14     1.431     0.659  43.03   0
       143    327.6504    803.7647 307.7802343  +6.3468348     3434.413     5062.622     4888.164      78.1519     156.1797     312.2042      1.573     3.78     853.6132       55.042     529.9263        25     1.533     0.845  45.24   0
       144    793.1507    799.5313 307.5870851  +6.3641739     56523.71     84499.98     88390.41     78.15189     156.1176     312.2663      1.611     3.68     854.2359       55.042     7715.818        66     1.639     1.068  48.93   0
       145     27.6190    801.8972 307.9048736  +6.3375192     2097.993     3099.918     2835.262     78.15189     156.0555     312.0178      1.592     4.24     849.4185       55.042     290.9323        21     1.407     0.973  36.79   0
       146    731.7305    801.2941 307.6125304  +6.3613929     679.5243      1103.12      1723.93      78.1519     156.2418     312.2663      2.068     4.01     854.4042       55.042     105.8259         7     1.324     0.348  47.11   0
       147    436.4034    797.9745 307.7352722  +6.3528747     922.9014     1530.699     1170.132     77.77885      155.869      312.111      1.675     5.41     853.2995       55.042     122.9657        11     1.205     0.686  58.52   0
       148    250.0956    797.2481 307.8126560  +6.3469213     5253.396     8781.512     10640.13     78.15189     156.0555     312.4214      1.931     4.32     852.8764       55.042     810.6073        39     1.886     1.116  40.49   0
       149    721.5444    794.2720 307.6169955  +6.3639522     22397.15     33521.28     36150.96      78.1519     156.1176     312.2352      1.619     3.97     854.2607       55.042     3213.239        46     1.671     0.993  55.26   3
       150    715.1028    790.6434 307.6197921  +6.3652352     90461.29     135106.1     142033.8     78.27585     156.1176     312.4525      1.596     3.65     854.1884       55.042     12714.63        74     1.645     1.085  49.91   3
       151    918.4597    794.8495 307.5352075  +6.3702920     8446.807     13075.69     13231.25     78.27585     156.1797     312.3283      1.647     3.80     851.8323       55.042     1190.895        34     1.563     0.981  53.39   2
       152    915.3307    786.2252 307.5367955  +6.3737491     6708.042     10391.85     10811.19      77.9034     156.0555     312.2042      1.684     3.70     851.6727       55.042     875.2392        37     1.606     1.029  53.59   2
       153    359.9513    791.5038 307.7672349  +6.3529821     21340.58     31763.49     33293.14     78.15189     156.0555     312.4214      1.603     3.67     853.2463       55.042     2874.425        46     1.553     1.021  48.81   0
       154    409.3163    791.6946 307.7467308  +6.3545596     1618.006     2580.055     2474.703      78.1519     156.5517     312.3904      1.723     4.26     853.1618       55.042     238.3781        15     1.378     0.722  53.08   0
       155    648.7819    791.0341 307.6473183  +6.3628553     820.5264     1237.888     1455.914     77.77885     155.9934     312.0799      1.506     6.27     854.2606       55.042       140.93        11     1.239     0.891  38.62   0
       156    421.8591    789.3750 307.7416007  +6.3559381     23168.65     34072.88     35867.32      77.9034     156.1797      312.111      1.567     3.52     853.0724       55.042     3408.846        51     1.576     1.019  46.87   0
       157    249.7584    775.7827 307.8135193  +6.3557741     749267.3      1696103      1887329     77.77885     155.9934     312.0489      2.270     8.23     852.2252       55.042     63787.97       608     2.533     2.027  47.74   4
       158    444.7241    783.1155 307.7323169  +6.3592898     1788.712     2495.901     2614.225      78.3996     156.4898     312.3283      1.511     3.91     852.9218       55.042      291.662        17     1.432     0.778  55.04   0
       159    169.7986    782.4801 307.8464945  +6.3503210     1091.539     1545.539     1163.962     77.52917       155.62     312.0489      1.453     4.30     850.4327       55.042     148.0452        11     1.155     0.643  53.59   0
       160    609.0792    777.2916 307.6642658  +6.3672014     1062.948     1219.268     1032.099     78.02775     156.4278     312.3283      1.322     3.85     853.6091       55.042     181.2144         9     1.055     0.551  57.81   0
       161    227.6761    777.1172 307.8226434  +6.3544810     902.6235     1747.391     3934.059      78.3996     156.4898     312.3904      4.294     5.87     851.7836       55.042     126.7498        12     1.197     0.842  16.54   1
       162    884.4526    777.0394 307.5499253  +6.3765117     690.6091     1165.634     1463.153     78.15189     156.1797     312.2352      1.961     4.86     852.2615       55.042     109.6048         7     0.979     0.685  28.38   0
       163    691.1126    775.5184 307.6302613  +6.3706788     2451.899     3519.292     3674.521     78.02775     156.3658     312.3594      1.576     3.93     853.6346       55.042     324.4647        19     1.375     0.817  52.36   0
       164    160.5251    776.4352 307.8505489  +6.3525054     1048.731     1289.314     943.8782      78.1519     156.2418     312.2663      1.333     3.15     850.0011       55.042     156.4114        10     0.974     0.700  67.20   0
       165    135.1978    776.0408 307.8610785  +6.3518165     1124.469      1671.59     1300.951     77.52916     155.9312     312.0178      1.507     4.29     849.6001       55.042      180.696        12     1.262     0.663  55.15   0
       166    424.7687    771.9995 307.7409769  +6.3632110      54804.8     82222.73     85742.62     77.65411     155.9934     312.0799      1.563     3.74     852.6436       55.042     8542.254        70     1.601     1.096  46.99   0
       167    967.8607    774.0476 307.5153896  +6.3805307     559.0465      729.496     587.2939     78.27585     156.1176     312.3283      1.378     2.58     850.2246       55.042      128.095         5     0.793     0.466 -30.50   0
       168    542.5175    770.9789 307.6921172  +6.3675793     7410.001     10847.41     11397.06     78.02775      155.869     312.2042      1.557     3.64     852.8499       55.042      1148.69        29     1.450     0.906  51.00   0
       169    959.1174    788.2657 307.5185446  +6.3743675     1934.286     2951.031     2933.015     78.52317     156.4278     312.3283      1.580     3.95      850.658       55.042     243.8721        18     1.305     0.866  47.12   0
       170    459.3199    769.5839 307.7267112  +6.3653671     4692.366     6883.433     7905.863      77.9034     155.9312      312.111      1.574     3.73     852.5953       55.042     722.0296        24     1.448     0.827  53.57   0
       171    787.7076    767.6848 307.5904126  +6.3771434     11743.66      17446.1     17958.95     78.02775     156.6136     312.3594      1.570     3.69     853.0499       55.042     1773.184        39     1.550     0.984  45.78   0
       172    211.8953    768.9028 307.8294728  +6.3573428     635.1216     927.7626      2015.99     78.27585     156.7374      312.111      1.331     3.88     851.0708       55.042     112.2418         5     0.880     0.491  29.29   0
       173    888.1058    787.3804 307.5480621  +6.3723633     793.7228     1169.284     1022.299     78.15189     155.9934      312.111      1.500     6.24     852.4219       55.042      109.249        11     1.595     0.686  78.56   0
       174    455.9658    762.9888 307.7283257  +6.3679781     2378.559     3642.625       4178.2     77.77885     155.9934     312.0799      1.624     3.95     852.4189       55.042      325.463        20     1.393     0.879  60.26   1
       175     17.2940    763.9464 307.9104421  +6.3528429     1152.704     1589.228     1645.997     78.15189     156.1176     312.4835      1.569     4.45     848.4244       55.042     167.2822        11     1.121     0.683  43.16   0
       176    809.5933    761.7393 307.5815237  +6.3803299     1242.594     1860.797     2076.311     77.65411     155.9934     312.0489      1.585     3.56     852.6163       55.042     209.3269        13     1.181     0.744  54.30   0
       177    977.1511    761.1489 307.5119631  +6.3861673     662.6934     1150.624     1490.453      78.3996     156.0555     312.2042      1.903     4.78      849.873       55.042     91.90253         8     1.227     0.528  59.50   0
       178    145.4926    759.6323 307.8573574  +6.3589385      12006.4     17760.56     18898.64      78.3996     156.0555     312.2973      1.629     3.67      849.248       55.042     1752.518        40     1.540     1.023  46.27   3
       179    137.8101    757.1697 307.8606304  +6.3596970     2949.633     4848.568     5220.059     77.77885     155.9934      312.111      1.689     3.91      849.043       55.042     420.2048        25     1.574     0.927  39.95   3
       180    153.6598    759.9330 307.8539560  +6.3590890     3099.342     4334.572     4330.874      78.3996     156.1176     312.2663      1.484     3.72      849.389       55.042     500.1232        21     1.433     0.796  47.05   0
       181    655.7928    785.1208 307.6446055  +6.3655318     6560.862     9949.261     10152.92      77.9034     155.6823     312.0489      1.590     3.99     853.9836       55.042     991.5728        31     1.547     0.919  50.19   0
       182    933.3550    756.2471 307.5303141  +6.3867305     6290.146     9791.769      10413.1     78.27585     156.1176     312.2663      1.673     3.78     850.4415       55.042     826.1931        34     1.552     0.981  49.19   0
       183    982.5309    756.1703 307.5098956  +6.3884027     1517.757     2234.795     2420.544     78.02775     156.1797     312.2042      1.616     4.54     849.7178       55.042     203.4275        16     1.393     0.785  54.88   0
       184    688.7622    753.9215 307.6319618  +6.3795188     1731.518     2506.292     2484.482     78.15189     156.2418     312.2663      1.505     4.02     852.7348       55.042     269.3334        14     1.334     0.660  37.43   0
       185    575.5752    753.0068 307.6789938  +6.3761082     2309.067     3198.916     3298.594     77.77885     156.0555      312.111      1.497     3.71     852.3889       55.042     376.9792        18     1.302     0.831  40.12   0
       186    423.7077    752.8505 307.7420616  +6.3710830     1207.919     1671.245       1474.8     78.15189     156.0555     312.4525      1.587     3.26     852.1643       55.042     232.0581        10     1.081     0.605  47.37   0
       187    137.9182    750.5442 307.8608090  +6.3624366     2063.817     3067.876     4086.061     78.27585     156.1797     312.2973      1.794     3.71     848.8525       55.042     284.4142        16     1.291     0.807  59.92   0
       188    987.9199    747.6977 307.5079411  +6.3920814      1856.43     2669.228     2189.155     78.15189     156.4898     312.3283      1.493     3.95     849.5599       55.042     282.4449        17     1.328     0.810  54.18   0
       189    927.4752    748.1953 307.5330252  +6.3898593     2933.304     4460.993      5161.66      77.9034     155.6823     312.1731      1.715     4.14     850.3397       55.042     407.4625        21     1.470     0.834  49.35   0
       190    957.1477    747.6898 307.5207201  +6.3910582     2985.151     4642.018     4920.756     78.27585     155.9934     312.3904      1.698     3.98     849.9416       55.042     425.8499        27     1.444     1.081  47.29   0
       191    679.9655    747.5142 307.6358297  +6.3818705      1565.91     2331.895     2767.133     78.27585     156.0555     312.2663      1.640     3.98     852.3647       55.042     214.0927        17     1.350     0.827  38.93   0
       192    440.0894    747.4648 307.7354403  +6.3738564     483.8885      676.659     499.6958     78.15189     156.3658     312.2973      1.565     4.38     852.0146       55.042     101.8737         5     1.009     0.606  65.16   0
       193    827.0281    745.8264 307.5748168  +6.3874838     1121.239     1640.996     1947.361     77.77885     155.9934      312.111      1.612     4.05     851.9747       55.042     171.5216        11     1.084     0.763  61.15   0
       194    902.5886    743.6473 307.5435121  +6.3909069     765.6635     1085.301     1626.357     77.77885     156.0555     311.9556      1.551     5.31     850.8726       55.042      112.363         8     0.992     0.804 -61.52   0
       195    252.4118    742.5906 307.8135358  +6.3695698     1893.269     3100.703      3375.99     78.02775     155.9934     312.2042      1.760     4.60     851.2693       55.042     255.3029        21     1.582     0.846  48.39   0
       196    689.4615    739.5160 307.6321547  +6.3854911     665.8786     955.4453     1318.814      78.3996     156.1797     312.2973      1.507     4.43     852.1669       55.042     106.4636         8     1.302     0.428  54.67   0
       197    945.6921    738.2273 307.5257939  +6.3945836     1112.077     1569.514     1529.655      78.3996     155.9312      312.142      1.573     4.60     849.8567       55.042     152.8455        13     1.213     0.781  37.35   0
       198    919.2414    736.5436 307.5368345  +6.3943962         1019      1524.88     1922.492      78.1519     156.1797     312.2973      1.668     4.63     850.2597       55.042     166.5214        12     1.322     0.731  50.36   0
       199    168.0558    737.3730 307.8487392  +6.3688891      846.334     1210.628     760.2125      77.9034     156.2418      312.111      1.527     4.37     848.9237       55.042     122.7534        11     1.150     0.835  71.58   0
       200    971.9819    735.4924 307.5149680  +6.3965901     2343.945     3677.973      4072.23     78.15189     155.9312      312.142      1.630     4.11     849.5532       55.042     346.4669        20     1.435     0.879  51.64   0
       201    691.6365    734.8007 307.6314097  +6.3875111      960.261     1400.436      1465.71     77.40401     155.9934     312.0799      1.514     3.55     852.0696       55.042     147.8372        10     1.059     0.621  53.78   0
       202    482.5859    730.1638 307.7183754  +6.3824257     644.0413     979.0879     1175.734      77.9034     155.9934     312.0489      1.520     4.86      851.463       55.042     116.3363         8     1.272     0.675  64.65   0
       203   1013.6428    728.8491 307.4978895  +6.4007230     1595.126     2466.765     2236.046     78.27585     156.1176     312.2042      1.622     3.96     848.9818       55.042     198.8583        16     1.280     0.778  58.25   0
       204    639.7428    728.6986 307.6531640  +6.3882947     672.9515     1095.042     1530.765     78.02775     156.1797     312.4525      1.802     5.06     851.6653       55.042     89.54761         8     1.290     0.561  43.76   0
       205    814.9785    727.5052 307.5804345  +6.3946472     1269.534     1780.189     1385.167     78.15189     155.9934      312.111      1.510     3.67     851.4363       55.042     188.6688        14     1.188     0.784  42.52   0
       206    901.0974    724.7333 307.5447645  +6.3986679     1401.781     2346.017     2757.899     78.27585     156.2418     312.3283      1.935     4.56     850.4656       55.042     205.5035        17     1.402     0.761  44.24   0
       207    875.3126    719.6729 307.5556418  +6.3998968     883.3726     1348.638     2186.985      78.3996     156.4278     312.2663      1.834     4.88     850.8615       55.042     153.6409        11     1.438     0.632  39.55   0
       208    858.1321    716.2467 307.5628911  +6.4007380     1437.773     1972.665     1660.421     78.27585     156.1176     312.2663      1.466     5.19     850.9422       55.042      196.306        13     1.426     0.620  45.84   0
       209     57.0204    715.0450 307.8955981  +6.3743736     2535.045     3787.172     4081.662      77.9034     156.0555     312.0799      1.587     4.08     847.1696       55.042     354.5887        22     1.493     0.914  39.39   0
       210    121.2639    713.6782 307.8689681  +6.3770999     994.7639     1952.706     1923.301     78.52317     156.2418     312.2663      1.975     6.90     847.5146       55.042     138.8466        18     2.020     0.662  69.14   0
       211    574.3070    709.9051 307.6809681  +6.3938648     556.9824     907.7856     311.9395     78.27585     156.7374     312.2042      1.576     3.47     851.0529       55.042     97.95923         5     1.013     0.343  48.12   0
       212    712.6357    706.7438 307.6236305  +6.3997998     471.9068     799.2339     672.5753      78.1519     156.1797     312.2973      1.389     2.99     851.8903       55.042     102.4871         5     0.741     0.438  70.54   0
       213    669.8377    703.5377 307.6415110  +6.3996922     6587.347     9792.291     10355.93     78.27585     156.2418     312.2663      1.593     3.96      851.395       55.042     944.6097        32     1.510     0.928  52.59   0
       214    616.5213    702.9316 307.6636721  +6.3981580     1423.627     2291.501     2518.939      78.3996     156.3658     312.2663      1.875     4.61     851.3278       55.042     239.6778        13     1.339     0.706  48.14   0
       215    538.6956    703.1696 307.6959826  +6.3954534      789.189     1060.504     1268.049      78.3996     155.9312     312.3283      1.405     3.84     850.4733       55.042     123.4995         7     0.846     0.614  59.20   0
       216    527.6233    702.9392 307.7005883  +6.3951776     912.1317     1275.373     1793.613      77.9034     156.1176     312.1731      1.627     4.11     850.4367       55.042     147.1515         7     1.094     0.449  36.38   0
       217    132.7910    699.4796 307.8646606  +6.3833509     3861.605      5794.39     5805.912      77.9034     155.8068      312.111      1.629     3.66     847.2913       55.042     569.1315        25     1.381     0.998  61.26   0
       218   1006.9344    698.7701 307.5016812  +6.4129208     2461.704     3899.207     4249.684     78.02775     156.1797     312.2042      1.756     4.70     848.2809       55.042     278.6149        27     1.709     0.903  46.65   0
       219    643.6672    699.2313 307.6525234  +6.4005948     2334.177     3287.342     4127.768      78.1519     156.1797     312.2352      1.526     3.53     851.3089       55.042     400.3789        19     1.395     0.810  48.36   0
       220    319.1725    699.2984 307.7872720  +6.3896894     764.3099      934.128     993.0659      78.3996     155.9312     312.2352      1.383     4.56     849.6216       55.042     155.4424         7     1.081     0.547  63.19   0
       221    255.2341    699.2495 307.8138243  +6.3875622      765.638     1119.469     927.9295      78.1519     156.1797     312.2042      1.461     4.40     848.8196       55.042     125.5075         7     1.002     0.550  66.78   0
       222    786.7524    695.6740 307.5932228  +6.4068491     20915.55     30549.79     31759.21      78.1519     156.2418     312.2663      1.558     3.55     851.0769       55.042     3345.423        47     1.549     1.001  50.46   0
       223    916.8206    695.3403 307.5392190  +6.4113309     3758.867      5589.13     6124.964      77.9034     156.0555      312.142      1.575     3.71     849.6337       55.042     585.2282        26     1.574     0.827  51.29   0
       224    485.8544    695.8105 307.7181731  +6.3967216     1434.391      2153.61     2260.184     77.65411     156.1176     311.9556      1.620     3.95      849.994       55.042     197.0643        16     1.336     0.784  49.57   0
       225    469.1812    696.6042 307.7250701  +6.3958349     481.0604     839.7361     468.1814      77.9034     155.8068     312.0799      1.647     4.46     849.9957       55.042     79.57263         5     1.103     0.513  56.10   0
       226    514.2587    695.6770 307.7063822  +6.3977287     898.3732     1526.693     1629.644      78.3996     156.1797     312.2352      1.676     4.50     850.1064       55.042      144.226        10     1.248     0.668  39.75   0
       227    331.9079    695.7549 307.7821029  +6.3915803     743.6085     1070.172     1122.747     78.27585     156.1176     312.3904      1.333     3.72     849.4668       55.042     128.6568         6     0.926     0.429  36.45   0
       228    287.7117    695.6246 307.8004600  +6.3901500     738.6022     838.5588    -108.8149      78.3996     155.9934      312.142      1.349     5.49     849.3094       55.042     130.1993         9     0.980     0.866  88.87   0
       229    558.0914    694.8221 307.6882086  +6.3995503     527.7826     667.4142     435.0997     78.27585     155.9934      312.111      1.283     3.94     850.4007       55.042     87.97412         6     0.939     0.474  36.13   0
       230    650.1786    689.6706 307.6501402  +6.4047608     1034.627     1750.322     2610.314      77.9034     156.0555     312.2352      2.151     6.27     851.2111       55.042     165.7584        13     1.215     1.112  34.36   0
       231    260.2011    689.2478 307.8120987  +6.3918592     6339.019     9510.377      10258.3     77.65411     155.8068     311.8313      1.588     3.69     848.2842       55.042     944.3113        32     1.511     0.942  51.96   0
       232    667.2684    688.3792 307.6430866  +6.4058660     7229.525      10798.9     11171.82      77.9034     156.1176     312.1731      1.593     3.85     851.2153       55.042     1145.494        31     1.509     0.943  49.16   0
       233    362.4097    688.4879 307.7696814  +6.3956050     645.5187     1067.771     1069.715      77.9034      155.869     312.0489      1.733     4.44     849.1531       55.042     110.1064         6     1.190     0.470  60.05   0
       234    927.3001    681.1750 307.5353411  +6.4175304     1140.011     1450.636     1532.025     78.27585     155.9312      312.142      1.330     3.71     849.3723       55.042     185.9531        13     1.176     0.745  38.80   0
       235    738.9937    676.8714 307.6136866  +6.4130173     3832.881     6125.214     6287.418     77.77885     155.7446     312.1731      1.655     3.87     851.3875       55.042     549.8296        27     1.658     0.853  54.85   0
       236    694.3911    677.4036 307.6321914  +6.4113059     962.4185     1457.926     956.2117     77.65411      155.869      312.111      1.531     4.93     851.2079       55.042     144.2898        10     1.308     0.526  44.02   0
       237   1005.2548    673.4832 307.5032245  +6.4233074     8850.859      13710.5     13961.24     78.27585     156.1797     312.3904      1.670     3.66     847.6505       55.042     1212.766        39     1.582     1.046  48.10   0
       238    943.8380    674.0922 307.5287102  +6.4210072     2224.706     3483.334     3405.146      78.3996     156.1176     312.3283      1.625     3.94     848.9688       55.042     330.4301        21     1.521     0.804  54.58   0
       239     24.4264    673.2578 307.9105434  +6.3905318     1963.327     3301.484     3884.752      77.9034     156.2418     312.0799      1.893     4.43     846.0605       55.042      308.731        22     1.481     0.972  44.44   0
       240    543.9542    669.3233 307.6949361  +6.4096066     2074.268     3117.611     3191.609     78.15189     156.2418     312.2973      1.552     3.86     849.3255       55.042     338.1654        17     1.395     0.758  52.56   0
       241     82.6018    668.2896 307.8865540  +6.3945419     26260.94     39493.02     41239.06     77.52917     155.8068     312.0178      1.623     3.79     846.0243       55.042     3845.825        49     1.581     1.040  47.07   0
       242    933.8431    665.8466 307.5331369  +6.4240788     982.1881     1520.776     1069.765     78.27585     156.1797     312.2042      1.546     5.53     849.0178       55.042     143.8426        12     1.357     0.740  69.70   0
       243    512.6768    666.4265 307.7080223  +6.4097548     1468.845     2286.147     2263.892      78.1519     156.1176     312.2352      1.706     4.23     849.0781       55.042     233.6179        15     1.362     0.748  62.28   0
       244    553.3560    663.1761 307.6912383  +6.4124600      1007.28     1438.138     1683.347     77.77885     156.1176      312.111      1.414     4.46     849.4427       55.042     168.8168         9     1.311     0.489  59.90   0
       245    728.6999    660.4349 307.6185127  +6.4194607     3635.305     5327.343     5325.927     78.27585     156.0555     312.4214      1.542     4.10     850.8591       55.042      619.725        25     1.491     0.895  52.48   0
       246    750.5845    658.7553 307.6094806  +6.4208861     4295.709     6377.754     6488.881     77.77885     155.9934     312.0489      1.608     4.01     850.6964       55.042     696.1392        24     1.498     0.870  56.86   0
       247    582.1858    656.7720 307.6794809  +6.4160703     3349.738     4919.117     5162.343      77.9034     155.9934     312.1731      1.515     3.63     849.9066       55.042     500.8318        21     1.365     0.802  53.01   0
       248    418.1663    657.2095 307.7475801  +6.4103922     1412.153     1969.321     2166.425     77.77885     155.9934      312.111      1.521     4.17     848.2837       55.042     206.7059        14     1.199     0.809  51.11   0
       249   1023.0668    654.7635 307.4964532  +6.4316319      4247.97      5878.15     6264.799     74.59766     132.6866     244.5749      1.468     4.00     846.8276       55.042     720.1714        23     1.462     0.838  66.34  24
       250    326.2010    655.7949 307.7858183  +6.4078901     1507.921     2201.546      2284.39     77.65411      155.869     312.0489      1.601     4.82      847.351       55.042     209.1064        15     1.509     0.655  50.43   0
       251    242.6319    656.1666 307.8205093  +6.4049296     1687.839     2342.903      2256.02     77.77885     155.9312     312.0178      1.557     3.81     846.6568       55.042     249.9105        16     1.297     0.781  61.52   0
       252    988.9002    653.8093 307.5106746  +6.4308866     8086.322     12533.78     13110.65     78.02775     155.8068     312.0799      1.631     3.75     847.5505       55.042     1152.583        41     1.627     1.084  47.92   0
       253    542.7703    654.2984 307.6959326  +6.4157715     515.5598     802.3069     721.8172     78.27585     155.9312     312.2973      2.020     3.49     849.1783       55.042     120.0135         5     1.273     0.276  34.82   0
       254    708.8198    652.4459 307.6270367  +6.4220950      942.345      1272.57     1448.564      77.9034     156.1176      312.142      1.380     4.86     850.5439       55.042     145.0559         9     1.292     0.518  54.87   0
       255    100.2832    650.9032 307.8797985  +6.4023165     852.7446     1135.267     1514.034     78.27585     156.5517     312.3283      1.440     4.80     845.9277       55.042     128.3869         9     1.208     0.541  61.51   0
       256    147.3752    647.1802 307.8603688  +6.4054381     24728.76     37009.25     38771.93      77.9034     155.9934     312.2042      1.586     3.60     846.2999       55.042     3679.831        49     1.578     1.043  49.73   0
       257    434.1301    648.0691 307.7412582  +6.4147022     2835.657     4353.085     4654.654     78.27585     156.3038     312.2352      1.696     3.90     848.1406       55.042     426.0699        19     1.509     0.800  41.85   0
       258    815.7061    647.7095 307.5828062  +6.4276240     1372.882     2072.322     2152.291     78.27585     156.6755     312.2663      1.619     4.05     849.7315       55.042     207.2615        13     1.193     0.725  46.77   0
       259    651.5386    647.6995 307.6509843  +6.4221386     484.4912     573.1083      288.935     78.02775     156.0555     312.3904      1.427     4.19     850.2598       55.042     83.02148         6     1.099     0.456  78.37   0
       260    367.3767    642.2484 307.7691753  +6.4148663     720.5982      1025.06     815.9512      77.9034     156.1797     312.1731      1.415     3.15     847.1506       55.042     114.6494         7     0.804     0.627 -67.02   0
       261    983.7936    636.7452 307.5133663  +6.4377631     6793.657     10989.83     11728.78     77.77885     155.9312     311.9867      1.735     4.09     847.2676       55.042     967.2394        37     1.740     0.969  49.41   0
       262     28.6401    636.3162 307.9100413  +6.4059284     1305.388     2017.049     1708.859     78.27585     156.1176     312.2042      1.527     4.58     845.8049       55.042     171.4537        16     1.361     0.835  45.17   0
       263    577.3643    632.0463 307.6823138  +6.4261194     49427.54     73265.62     76832.02      77.9034     156.1797     312.1731      1.553     3.61     849.2954       55.042     7596.727        62     1.597     1.028  48.99   0
       264    942.2300    633.7626 307.5307277  +6.4376082     638.9686      880.467     345.9554      77.9034     155.9312      312.142      1.508     3.33     848.1477       55.042     118.8234         5     0.923     0.349  41.63   0
       265    220.7860    633.2781 307.8303527  +6.4136472     650.1488     778.6114      1276.16      77.9034     155.9312     312.0799      1.322     3.62     846.0472       55.042     113.7513         7     0.862     0.592  56.05   0
       266    802.2072    631.8253 307.5889447  +6.4337325     557.7241     876.8946     723.9279     77.77885     156.0555      312.111      1.606     4.17     849.6174       55.042     92.40698         6     1.152     0.431  59.97   0
       267    536.4915    632.0933 307.6992863  +6.4247309     785.5548     1105.045     1289.342     78.27585     156.6755     312.2663      1.363     3.96     848.8949       55.042     174.2935         7     1.084     0.458  42.11   0
       268    507.5979    629.1285 307.7113851  +6.4249869     697.6963     1054.825     664.2057     77.77885     155.8068      312.111      1.430     5.49     848.5449       55.042     140.0347        11     1.289     0.659  53.26   0
       269    185.0285    628.8355 307.8453515  +6.4142797     2790.019     4198.578     4232.827      77.9034     155.9312     312.0799      1.570     3.79     846.0035       55.042     419.0577        20     1.391     0.811  44.91   0
       270    988.8290    628.2788 307.5115583  +6.4414274     698.5951      815.239     928.4249     78.15189     156.1797     312.2663      1.327     4.28     846.9456       55.042     103.3865         7     0.890     0.586  31.46   0
       271     77.5776    622.8626 307.8901738  +6.4131314     1425.845     2222.184     2298.631      77.9034     156.1797     312.1731      1.663     3.49     845.6998       55.042     246.3768        16     1.255     0.840  42.47   0
       272    474.6209    615.8418 307.7255269  +6.4293683     64650.36     95642.09     99909.43      77.9034     155.9934      312.111      1.575     3.74     847.9229       55.042     10435.55        77     1.628     1.080  48.56   0
       273     18.2004    617.5092 307.9150117  +6.4133429     1798.362     2599.561     3073.285     77.52917     155.6823     312.0489      1.536     3.69     845.6844       55.042     249.8633        17     1.222     0.898  36.90   0
       274    660.7877    613.3082 307.6482975  +6.4366503     931.3618     1359.112     1214.535     78.02775     155.9312     312.0489      1.476     4.74     849.2454       55.042     138.7867        11     1.183     0.637  51.84   0
       275    149.2507    610.9039 307.8608138  +6.4204812     1682.016     2472.833     2170.048     78.15189     156.1176     312.4525      1.522     4.18     845.6295       55.042      254.017        15     1.270     0.894  59.67   0
       276    428.4761    608.4816 307.7449380  +6.4308603     964.8998     1264.728     1375.746     78.52317     156.4278     312.3904      1.376     4.25     846.9156       55.042     149.7029         9     1.075     0.652  47.00   0
       277    620.5793    607.7111 307.6651841  +6.4376158     861.7369     1524.068     1817.488      78.1519     155.9312      312.142      2.284     4.90     848.8783       55.042      151.026         9     1.337     0.665  43.87   0
       278    502.8176    607.5025 307.7140974  +6.4337573     602.5093     893.5782     1100.194      78.1519     155.9934     312.0489      1.789     4.59     848.1696       55.042     86.17389         5     1.143     0.523  60.52   0
       279    320.0122    605.2316 307.7900912  +6.4285623     2246.229     3734.551     4041.502     77.77885     155.9934     312.1731      1.684     4.58     845.4742       55.042     328.5669        21     1.551     0.852  58.97   0
       280     21.3797    606.8306 307.9140522  +6.4178596      731.757     1147.322     1929.805     77.77885     155.9934     312.1731      1.570     4.23     845.6171       55.042     110.9139         7     0.847     0.614  67.80   0
       281     28.5181    605.7497 307.9111243  +6.4185463     566.8984      797.972     969.0253     78.27585     156.2418     312.2973      1.444     3.70     845.6113       55.042     99.76062         5     0.827     0.595 -40.87   0
       282    472.3375    603.8066 307.7268799  +6.4342617     812.1592     1289.373      1611.97     77.65411     155.9934     312.0489      1.701     4.55     847.5759       55.042     159.0964        10     1.293     0.622  56.07   0
       283    746.7097    599.4257 307.6130794  +6.4452572     5539.303     8278.152     8616.203      78.3996     155.9312      312.111      1.617     3.89     848.8395       55.042     810.2816        27     1.446     0.920  49.17   0
       284    800.2225    594.6049 307.5910165  +6.4490367     14624.39     21405.46     22025.46      77.9034     155.9312     312.0799      1.565     3.69      848.843       55.042     2316.853        42     1.533     0.982  50.93   0
       285   1017.7504    595.1603 307.5006546  +6.4560686     1015.808      1456.85      1264.62     78.27585     156.1797     306.5637      1.617     4.81     845.8156       55.042     130.6847        12     1.274     0.631  55.83  16
       286    542.7048    594.9484 307.6979542  +6.4402782     1324.864     1991.319     2446.226     78.15189     156.1176     312.5145      1.705     3.85     848.1124       55.042     197.4594        14     1.203     0.797  60.77   0
       287    624.1948    592.5884 307.6641903  +6.4439819     2876.011     4328.125     4198.347      77.9034     155.9312     312.1731      1.572     3.77     848.3282       55.042     431.5479        22     1.432     0.859  50.38   0
       288    941.0392    588.4779 307.5327380  +6.4562694     1148.368      1771.78     2493.879     78.15189     156.2418     312.2663      1.823     5.08     847.1994       55.042     175.7718        12     1.246     0.719  42.56   0
       289    200.5499    587.3255 307.8403056  +6.4319428     696.0754     1123.727     1407.076     78.27585     156.2418     312.2973      1.801     4.07     845.0167       55.042     106.9788         7     1.051     0.449  77.01   0
       290    382.8838    586.5237 307.7646111  +6.4383982     1036.579     1308.222     1577.917      78.3996     156.4898     312.3594      1.506     3.94     845.4659       55.042     188.8051         9     1.112     0.519  60.81   0
       291    367.3706    587.1370 307.7710330  +6.4376243     492.9375     829.6722     907.1187     78.02775     156.1797     312.2042      1.564     3.43     845.2478       55.042     78.15314         5     0.776     0.438  71.51   0
       292    236.5978    586.4100 307.8253663  +6.4335326     1409.163     2105.467     2571.441     77.77885      155.869     312.0799      1.837     4.41     844.9055       55.042     228.3885        15     1.244     0.975  44.39   0
       293    171.9579    578.7953 307.8524671  +6.4345040     691.3859     1151.992     1132.412     77.65411      155.869     311.9867      1.674     5.43     844.9916       55.042     157.0156         9     1.332     0.884  79.38   0
       294    876.2166    577.7189 307.5600206  +6.4585486     2808.675     4128.673     4511.418      77.9034      155.869      312.111      1.566     3.98     848.0193       55.042      468.132        20     1.428     0.802  54.90   0
       295    834.9694    575.2896 307.5772328  +6.4581742     2585.134     3891.099     4329.046      78.3996     155.9934     312.2042      1.647     4.05     848.2412       55.042     400.6056        20     1.420     0.798  48.80   0
       296    805.8865    571.3500 307.5894436  +6.4588294     2597.812     3990.136     5442.907     78.27585     156.0555     312.3594      1.716     3.62     848.2423       55.042     404.8119        20     1.364     0.824  50.66   0
       297    815.6033    566.4835 307.5855711  +6.4611637     164219.7     237023.3       249079     77.65411     155.8068     311.9246      1.576     3.63      848.099       55.042     27105.54       122     1.684     1.139  50.04   0
       298    748.8345    571.8967 307.6131202  +6.4566966     766.1818     1123.972     1512.409     78.27585     156.0555     312.4214      1.540     3.35     847.9097       55.042     140.4437         9     0.995     0.614  58.95   0
       299    263.0027    570.2847 307.8149440  +6.4410787     7951.831     11893.86     11739.73     77.65411     155.8068     311.9867      1.564     3.77     844.5541       55.042     1140.305        36     1.521     0.993  48.54   0
       300    197.2016    564.8187 307.8424550  +6.4411243     59900.21      90139.7     95903.12      77.9034     155.7446     311.9867      1.603     3.63     844.4927       55.042     8413.749        83     1.664     1.156  48.47   0
       301    745.3816    567.1207 307.6147144  +6.4585535      700.267      949.702     1111.234      77.9034      155.869     312.2042      1.409     4.79     847.7043       55.042     113.0046         8     0.972     0.671  17.98   0
       302    121.1738    561.0463 307.8741559  +6.4401250     6429.654     9714.387     10071.49      77.9034     156.2418     312.1731      1.565     3.59      845.164       55.042     911.2795        33     1.431     1.036  46.85   0
       303    986.6262    558.4995 307.5148077  +6.4701702     1171.658     1768.881      1839.18     78.27585     155.9312     312.1731      1.584     5.12     846.1118       55.042     177.3218        13     1.421     0.688  53.80   0
       304   1007.4144    557.5909 307.5062041  +6.4712388     727.9661     979.0463     378.1029     78.02775     155.9312     312.1731      1.498     3.67     845.9041       55.042     116.7218         6     0.848     0.533  42.55   0
       305    235.7707    556.3478 307.8267231  +6.4459188     738.6447     1293.601     1311.872     78.02775     156.3038     312.1731      1.785     4.96     844.0371       55.042     109.3539         8     1.134     0.614  77.10   0
       306    852.2320    553.8862 307.5707804  +6.4675895     4616.419     6700.763     6946.293     78.27585     155.9934     312.2352      1.513     3.59     847.7885       55.042     659.7089        25     1.443     0.845  50.03   0
       307    370.6174    551.9711 307.7708685  +6.4522551     17720.48     26110.85     26897.72      77.9034     155.9934     312.2042      1.570     3.71     844.3499       55.042     2794.511        41     1.525     0.974  48.04   0
       308    460.8370    551.6769 307.7334093  +6.4554032     768.2034     1317.102     1204.709     78.15189     156.2418     312.2663      1.486     5.25     845.5948       55.042      125.112        11     1.682     0.462  50.83   0
       309    172.4556    550.9991 307.8531980  +6.4459989     1968.646     2781.138     2923.393     77.65411     155.9312     311.9556      1.505     4.12     844.4359       55.042     292.3985        16     1.358     0.741  51.45   0
       310    806.1139    547.0731 307.5901629  +6.4688624     6106.441     8569.768     8939.265      78.3996     156.4898     312.2663      1.489     3.63     847.6669       55.042     902.5693        24     1.475     0.819  45.72   0
       311    247.5157    548.4335 307.8221122  +6.4495817     927.4326     1361.886     1161.411     78.27585     156.0555     312.2352      1.658     4.86     843.8846       55.042     158.9719        10     1.297     0.516  46.49   0
       312    110.0454    548.0008 307.8792176  +6.4451376     922.7386      1525.65     890.5223     77.65411     155.9312     311.8624      1.641     4.17     845.1965       55.042     151.7237        10     1.052     0.751  67.79   0
       313    536.9077    546.8080 307.7019797  +6.4599637     6755.991     9755.311     9713.666      77.9034      155.869     312.0799      1.514     3.49     845.8998       55.042     1079.046        28     1.465     0.869  46.84   0
       314    178.5267    548.6533 307.8507558  +6.4471718     743.0974     904.9438     1438.214      78.1519     156.1797     312.2663      1.309     3.37     844.3127       55.042     114.5635         6     0.866     0.476  -0.65   0
       315    395.2879    543.6526 307.7609026  +6.4565181     1522.797     2250.494     2199.717     78.27585     156.0555     312.3904      1.563     3.88     844.2338       55.042     221.3511        12     1.152     0.652  62.98   0
       316    183.9782    539.9841 307.8487842  +6.4509350     6971.312     10223.83     10359.84     78.02775     155.9934     312.2042      1.536     3.71     843.9954       55.042     1013.781        29     1.480     0.895  49.64   0
       317    581.5862    539.9288 307.6836550  +6.4643012      2443.04     4035.443     3976.417     77.77885     156.0555      312.142      1.801     4.24     846.1517       55.042      327.979        25     1.409     1.216  -0.42   0
       318    499.8593    541.2209 307.7175544  +6.4610293     526.3324     805.3762     436.6569      77.9034     156.0555      312.111      1.594     3.40     845.6708       55.042     80.10724         5     0.987     0.340  44.45   0
       319     55.6583    538.7844 307.9021153  +6.4471128      5137.06     7799.184     8096.091     77.65411     156.1176     312.0178      1.583     3.65     845.3605       55.042     791.6031        31     1.477     0.979  48.71   0
       320    865.3696    540.2256 307.5657816  +6.4736696     538.5065     615.2192     745.8287     77.77885     155.9934      312.111      1.207     4.14     847.4559       55.042     82.53027         6     0.744     0.657 -29.49   0
       321    822.7326    539.5323 307.5835134  +6.4725317     1294.763     1825.217     2143.185     78.27585     156.1797     312.2973      1.313     3.34     847.4573       55.042     243.3228        11     1.171     0.568  43.51   0
       322    279.1895    536.4301 307.8093625  +6.4556027     89383.72     133045.8     139111.7     77.77885     155.9934      312.111      1.600     3.55     843.7106       55.042     12943.48        83     1.633     1.117  46.72   0
       323    262.9082    531.3800 307.8162944  +6.4571411      1527.34     2277.104     2354.219     78.15189     155.9934      312.111      1.547     4.50     843.4653       55.042     210.5429        14     1.348     0.713  41.82   0
       324    978.8446    530.4285 307.5189790  +6.4815030     1632.368     2163.882     2172.867      77.9034     156.2418     312.1731      1.435     3.44     845.6974       55.042     262.5833        13     1.130     0.711  60.99   0
       325    802.3620    528.8943 307.5923306  +6.4762441     16812.23     24264.25     24893.34      78.3996     156.0555     312.3904      1.498     3.43     847.1042       55.042     2796.336        42     1.511     0.968  48.21   0
       326    505.9554    527.2576 307.7154920  +6.4669998     41679.23     65868.42     70120.39     78.15189     156.1797     312.3283      1.689     4.12     845.1848       55.042     6074.609        70     1.720     1.187  40.69   0
       327    656.9201    526.0715 307.6528322  +6.4725459     1042.562     1745.508      1785.97     78.52317     156.4278     312.2663      1.616     3.39     845.7724       55.042     249.9585        12     1.358     0.640  54.84   0
       328    568.6805    533.9957 307.6892143  +6.4663191      942.362     1476.833     2225.384      77.9034     155.7446     312.0178      1.805     4.39       845.77       55.042     140.7205        11     1.168     0.756  51.19   0
       329    218.4991    523.7159 307.8349962  +6.4588134      1851.89     2919.838     3454.812     78.27585     156.6755     312.3594      1.765     3.78     843.1633       55.042     296.9962        19     1.235     1.060  64.18   0
       330     54.1295    523.9777 307.9032502  +6.4531756     1203.791     1843.472     1748.836      77.9034     156.1176     312.2352      1.488     5.38     845.2207       55.042     174.5895        13     1.397     0.658  51.81   0
       331    665.9527    522.2979 307.6492073  +6.4744065     3115.799     4585.296     4855.546     78.27585     156.1176     312.4525      1.528     3.47     845.6519       55.042     472.6649        22     1.388     0.892  46.87   0
       332    728.3319    521.4504 307.6233276  +6.4768433     1345.908     2093.571     2150.409      78.1519     156.0555     312.2352      1.856     4.78     846.2383       55.042     237.1525        16     1.563     0.724  47.37   0
       333    676.2473    522.5610 307.6449228  +6.4746423     1433.578     2150.877     2332.762      78.1519     156.1797     312.0799      1.537     4.50     845.6685       55.042     199.6656        12     1.245     0.662  46.22   0
       334     83.9947    519.7221 307.8909910  +6.4559383     703.0048     1257.422      1799.08      77.9034     155.6823     312.0489      2.006     6.85     844.8387       55.042     112.8881        13     1.653     0.796  25.98   0
       335    403.6277    517.9211 307.7583050  +6.4674237     1863.972     2747.358     2708.195     78.15189     156.1176     312.2663      1.536     3.58     843.6077       55.042     322.0167        15     1.288     0.700  54.26   0
       336    150.2593    514.8075 307.8636371  +6.4601975      26087.1     39254.06     40870.69     77.65411     156.0555     312.0178      1.588     3.54     843.5204       55.042     3977.048        56     1.592     1.082  45.12   0
       337    335.1295    516.2445 307.7868100  +6.4658170     4049.276     5893.513     6383.736     78.27585     156.1797     312.2663      1.531     3.54     843.0607       55.042     601.8141        22     1.406     0.809  50.38   0
       338    878.3558    514.9881 307.5612333  +6.4845254     1496.202     2228.695     2429.891     77.77885     156.0555     311.9867      1.624     3.77      846.478       55.042      229.124        13     1.257     0.648  41.69   0
       339    515.0905    515.6000 307.7120899  +6.4721200     2144.831     3151.593     3498.088     77.52916     155.6823     312.0178      1.523     4.04     844.8083       55.042     314.4366        16     1.267     0.775  40.67   0
       340    420.3990    514.3311 307.7514603  +6.4694689     496.9365     631.1799     174.7791     77.77885     155.7446     312.0799      1.563     4.58     843.6871       55.042      87.6886         6     1.119     0.532  31.49   0
       341    115.4044    512.9995 307.8781734  +6.4597714     2753.104     3835.998     3451.792     77.65411     155.7446     312.0178      1.503     3.70     844.1442       55.042     430.7965        18     1.385     0.767  51.68   0
       342    352.6576    511.8041 307.7796798  +6.4682391     1008.941     1461.743     1628.054     77.65411     156.0555     311.9556      1.509     3.96     842.9196       55.042     173.0376        11     1.236     0.614  61.13   0
       343    975.8426    509.3615 307.5209309  +6.4901027      5299.94      7862.77     8052.425     78.02775     156.1797      312.142      1.581     3.56     845.2263       55.042     792.7067        29     1.572     0.874  51.25   0
       344    549.0343    501.8702 307.6984535  +6.4789273     1632.633     2241.734     2148.544     78.15189     156.1797     312.3594      1.443     4.31     844.4094       55.042     236.3527        16     1.383     0.734  46.37   0
       345     14.5493    499.1303 307.9205271  +6.4621031     25800.69     38712.34     40688.92     78.15189     156.1176     312.2973      1.617     3.73     845.7435       55.042     3663.796        55     1.598     1.075  49.26   0
       346    447.2946    495.9175 307.7409094  +6.4779750      43862.1     64284.26      66899.9     78.02775     156.4898     312.3904      1.545     3.47     843.6232       55.042     6761.817        58     1.571     1.021  48.75   0
       347    655.3555    495.6581 307.6545031  +6.4850529     12879.65     18401.14     18790.63      78.1519     156.1797     312.3283      1.518     3.52     845.1833       55.042     2152.652        35     1.472     0.924  46.62   0
       348    423.8722    498.5797 307.7505479  +6.4760900     586.7599     919.4691     655.4642      77.9034     156.0555     312.2352      1.397     3.43     843.3873       55.042     98.75482         5     0.769     0.442  20.49   0
       349    295.3507    496.2912 307.8040030  +6.4727208     982.3925     1543.734     1008.129     78.27585     155.9934     312.4214      1.632     5.00     842.3555       55.042      137.418        14     1.344     0.901  34.53   0
       350      1.4746    493.9868 307.9261308  +6.4637866      2346.19     4155.003     5577.551     69.48386     126.0931     237.0464      2.204     4.70      846.075       55.042     512.4044        23     2.135     0.661 -89.62  24
       351    212.4629    493.5074 307.8385217  +6.4710850     19931.71     30485.52      31810.9     78.27585     156.2418     312.3283      1.699     4.00     842.3652       55.042     2953.808        49     1.661     1.039  46.53   0
       352    178.2491    494.6732 307.8526919  +6.4694532     1767.841     2313.622     2151.547     78.27585     156.2418     312.2973      1.489     4.11     842.4899       55.042     248.5516        16     1.261     0.838  47.38   0
       353    989.3032    493.8566 307.5158588  +6.4969546     1000.832     1347.896     1590.424     78.15189     156.1176     312.4835      1.391     3.77      844.715       55.042     182.0653        10     1.145     0.545  43.80   0
       354    917.7885    493.4220 307.5455773  +6.4947479     676.3535     1069.567     680.8569      77.9034     155.9312     312.1731      1.631     5.27     845.5057       55.042     118.4866         9     1.302     0.601  38.31   0
       355    829.5793    493.4838 307.5822130  +6.4917766      956.335     1145.545     718.3526     78.02775      155.869     312.2042      1.242     3.62     845.9365       55.042     156.3804        11     1.161     0.637  59.72   0
       356    577.2094    492.3920 307.6870699  +6.4837852     2821.494     4268.352     4361.139     77.77885     155.9934      312.142      1.599     3.89      844.467       55.042     433.1589        22     1.409     0.847  50.76   0
       357    951.0714    489.5752 307.5318819  +6.4974472     4813.331     6926.553       7203.1      77.9034     156.0555     312.2042      1.530     3.74      845.088       55.042     684.7839        26     1.472     0.860  49.41   0
       358    624.0982    487.9412 307.6677446  +6.4871933      6561.11     9640.361     10003.88     78.02775     156.1176     312.3904      1.515     3.71     844.8633       55.042     933.8855        29     1.487     0.866  49.36   0
       359    112.0256    488.6979 307.8803969  +6.4696928     1152.879     1554.332     1841.266      78.3996     155.9312     312.1731      1.439     4.51     843.4952       55.042     186.6918        11     1.249     0.637  63.18   0
       360    973.7501    482.0336 307.5227146  +6.5013183     3534.136     5281.295     4917.264     78.15189     156.1797     312.2042      1.501     3.67     844.6143       55.042     599.8301        22     1.419     0.843  54.56   0
       361    662.5859    480.7080 307.6520019  +6.4914686      520.844     556.4945     726.4067     78.02775     155.9312     312.0489      1.561     4.67     844.9404       55.042     83.29169         6     1.221     0.506  41.76   0
       362    536.3379    479.2138 307.7044884  +6.4878579     7629.914     11145.45     11883.04     77.77885     155.9934     312.0799      1.536     3.59     843.5389       55.042     1205.935        29     1.436     0.888  47.24   0
       363    382.3522    479.4339 307.7684368  +6.4826031     2642.188     4058.566     4528.243     78.02775     156.1797     312.2042      1.731     3.78     842.1757       55.042     390.3757        22     1.487     0.851  49.78   0
       364    752.3253    479.5723 307.6147669  +6.4949395     533.8746     535.9193     285.6599      78.1519     156.1176     312.2352      1.146     3.36     845.5082       55.042     97.25354         5     1.000     0.326  69.18   0
       365    892.9839    475.1595 307.5564916  +6.5014615     3317.386      4948.05     5574.795     77.77885     155.9934     312.0489      1.515     3.35     845.1653       55.042     544.7335        20     1.440     0.724  39.66   0
       366    412.6024    481.1697 307.7558145  +6.4829013     728.3518     1191.627     1145.408     77.77885     155.9934     312.0799      1.489     3.43     842.8071       55.042     112.8439         5     0.774     0.439 -70.18   0
       367    241.2550    474.4314 307.8272069  +6.4799301     654.3203     791.7512     514.5514      78.1519     156.2418     312.2352      1.449     3.49     841.5079       55.042     109.0825         5     0.783     0.450  18.88   0
       368    900.2385    469.5055 307.5536677  +6.5040386     2075.165     3054.821     2978.851      78.3996     156.0555     312.3904      1.519     4.06     844.9332       55.042     337.5638        15     1.389     0.650  51.03   0
       369    939.9410    468.7164 307.5372033  +6.5056897     1315.012     2166.745     2354.478      78.3996     156.2418     312.3283      1.727     4.26      844.519       55.042     193.6664        15     1.243     0.874  59.50   0
       370    119.9369    469.3243 307.8777652  +6.4779592     752.2527     1176.649     1419.405     78.52317     156.1797     312.2352      1.896     4.48     842.7356       55.042     102.2256         7     0.963     0.593  52.43   0
       371    278.5095    467.7808 307.8119583  +6.4839283     730.4124     698.2272     1329.373      78.1519     155.9312      312.142      1.196     4.57      841.037       55.042     99.74011         7     0.872     0.680  13.26   0
       372    724.2162    465.3961 307.6269176  +6.4998537      2970.82     4270.901     4234.688      77.9034     155.8068      312.111      1.523     3.91     844.8725       55.042     486.6225        21     1.417     0.792  51.31   0
       373    435.4799    464.2566 307.7468818  +6.4906531     1105.935     1558.226     1391.032      78.3996     156.1797     312.2663      1.619     3.07     842.0225       55.042     181.6371        11     1.047     0.708  61.09   0
       374    395.1409    463.6381 307.7636569  +6.4895551     3825.333     5695.533     5697.511     78.27585     156.2418     312.3283      1.562     3.63     841.4447       55.042     534.3988        24     1.367     0.907  48.61   0
       375     86.0003    464.3483 307.8920277  +6.4788718     1970.109     2911.084     2817.029     77.52916     155.6823     311.8313      1.560     4.10     843.3701       55.042      288.993        14     1.220     0.737  46.02   0
       376    622.7587    460.1552 307.6692342  +6.4986229     10116.17     14900.25      15656.4     78.15189     156.1797      312.111      1.562     3.80     843.6759       55.042     1607.448        36     1.540     0.943  47.64   0
       377    785.5300    456.7859 307.6017393  +6.5054594     16898.76        24254     25343.37     77.77885     156.0555     312.1731      1.519     3.66     844.8057       55.042      2905.81        41     1.510     0.933  50.11   0
       378    305.3911    457.0705 307.8011544  +6.4892541     2830.351     3984.627     3915.097     77.77885     155.8068      312.142      1.483     4.36     840.3325       55.042     412.3942        22     1.476     0.837  41.75   0
       379    429.0728    456.7528 307.7497954  +6.4935369     675.9976      903.424      1314.42     78.27585     156.2418     312.2663      1.296     2.45     841.5114       55.042     122.3451         5     0.751     0.484  57.87   0
       380    814.6843    453.8212 307.5897292  +6.5076580     1313.307     1663.609     1326.052     78.02775      155.869     312.1731      1.406     3.45     844.7128       55.042     239.4431        11     1.239     0.580  49.93   0
       381    388.4296    453.7000 307.7667790  +6.4934338     1729.424     2315.907     2850.023     78.27585     155.9312     312.2973      1.506     4.26     840.7083       55.042      270.757        12     1.195     0.658  45.86   0
       382    970.9764    451.9758 307.5248727  +6.5136385     1914.957     2579.263     2365.837     77.77885     155.9934     312.2042      1.419     4.02     843.2607       55.042     299.4088        16     1.314     0.780  46.88   0
       383    789.7416    452.0748 307.6001479  +6.5075456     1521.199     2466.846     2699.295      78.3996     156.1797     312.2352      1.806     4.45     844.6522       55.042       244.79        13     1.286     0.729  46.83   0
       384    719.1437    450.9214 307.6295102  +6.5056615     823.1162     1134.885     1043.836     78.27585     156.1797     312.2663      1.546     5.31     844.3093       55.042     131.7012         9     1.213     0.656  45.78   0
       385    376.5615    449.4719 307.7718506  +6.4947815     761.2993      1138.81     1065.696      78.1519     156.1797     312.3283      1.590     5.32     840.2273       55.042     97.82489        10     1.378     0.580  49.39   0
       386    122.8813    448.6262 307.8772410  +6.4866054     4467.768     7011.936     7186.876     78.15189     155.9934     312.2663      1.663     3.80     842.1384       55.042     637.5022        26     1.453     0.928  51.32   0
       387    761.0599    447.6495 307.6122097  +6.5084143     2350.978     3482.986      3680.93     78.27585     156.1176     312.3283      1.539     3.56     844.5098       55.042     371.2576        21     1.484     0.833  54.96   0
       388   1023.3460    445.8466 307.5033250  +6.5179163     2370.996     3132.992     2883.817     72.08612     129.0568      240.296      1.300     3.28     842.0778       55.042     496.7134        15     1.284     0.738  70.62  24
       389    280.7281    445.6163 307.8117838  +6.4931556     1397.904     1949.727     1993.797     77.77885     156.1176     312.1731      1.527     4.51     839.6523       55.042     214.6581        15     1.401     0.723  31.46   0
       390    359.0244    443.4077 307.7793387  +6.4966970     3254.343     4724.201     4574.517      77.9034     156.0555      312.111      1.547     3.69     839.5828       55.042     476.2641        21     1.383     0.826  53.66   0
       391    714.8198    441.1398 307.6316344  +6.5095562     1599.087     2562.169     2424.505      77.9034     156.0555      312.142      1.740     4.49      843.878       55.042     234.2111        14     1.393     0.647  50.22   0
       392    988.9728    439.9666 307.5177994  +6.5191982     695.5761     708.1246     835.1833     77.77885     155.9312     312.0489      1.331     4.17     842.3702       55.042     112.9338         7     0.906     0.548  38.29   0
       393    418.1810    439.7523 307.7548914  +6.5001918       594.25      623.486     406.1976     77.77885     156.1797     312.0489      1.313     3.40     840.2817       55.042      88.1535         5     0.957     0.350  44.82   0
       394    246.8165    439.4111 307.8260777  +6.4945784     773.7784     1494.678     1524.558     78.02775      155.869     312.1731      1.994     4.99     839.2689       55.042     127.8845         9     1.331     0.530  53.00   0
       395    556.3558    433.9576 307.6976951  +6.5072173     931.9569     1564.585     1789.683     78.15189     156.1797      312.111      1.891     5.41     841.7405       55.042     162.0884        16     1.732     0.724  46.48   0
       396    457.9890    435.1788 307.7385111  +6.5034157     543.0997     599.1424     775.0547      77.9034      155.869      312.111      1.390     3.76     840.6292       55.042     90.88135         5     0.808     0.503  58.64   0
       397    478.5354    432.3903 307.7300709  +6.5052563     1506.304     1964.176     1832.276     77.77885     155.9934      312.111      1.421     4.41     840.8118       55.042     203.7706        14     1.171     0.758  47.89   0
       398    840.9479    431.1305 307.5795807  +6.5179059     1476.524     1970.928     1861.101     78.15189     156.0555     312.2352      1.423     4.51     843.9772       55.042      240.272        14     1.334     0.669  55.33   0
       399    826.7603    430.4217 307.5854975  +6.5177246      2152.68     3086.392     2765.757      77.9034     155.9934     312.0799      1.518     3.53     843.9558       55.042      345.508        19     1.451     0.747  48.26   0
       400    626.5320    430.4572 307.6686644  +6.5110131     719.6575     1021.463     1151.861      78.3996     156.1176     312.2352      1.463     4.71      842.306       55.042     110.1654         8     1.206     0.522  54.15   0
       401    723.9788    428.4189 307.6282569  +6.5151157     15442.86     22270.81     23576.66     78.02775     156.1176     312.2042      1.543     3.68     843.5896       55.042      2286.86        38     1.524     0.937  49.51   0
       402    645.0920    424.3574 307.6611601  +6.5141534      2727.27     3919.136     4562.891     78.27585     156.1797     312.3594      1.488     3.75     842.1398       55.042     447.7217        17     1.366     0.707  44.94   0
       403    617.4276    419.5972 307.6728108  +6.5151930     14547.84     25566.11     30851.33     77.77885     155.9312     312.0799      2.062     6.71     841.7779       55.042     2410.672        58     2.471     0.982  37.88   0
       404    949.2737    418.4760 307.5350088  +6.5267485     3873.818     5472.199     5760.868     78.52317     156.4278     312.2973      1.472     3.29     842.1052       55.042     619.2421        25     1.493     0.818  50.04   0
       405    388.3793    414.3018 307.7681262  +6.5097016      30193.3     43985.45     46442.96      78.1519     155.9934     312.0178      1.586     3.57     838.2304       55.042     4617.595        53     1.556     1.030  48.02   0
       406    903.9507    413.1049 307.5540148  +6.5274537     1267.574     2863.881     3557.232     78.15189     156.0555     312.4214      2.609     7.92     842.7563       55.042      238.986        22     2.455     0.714  47.34   0
       407    134.4759    413.7899 307.8736012  +6.5013808      2367.49     3422.827     3372.094      77.9034     155.7446     312.0799      1.524     3.85     840.9572       55.042     378.1906        19     1.386     0.810  46.19   0
       408    918.1750    408.7003 307.5482539  +6.5297475     5116.673      7549.42     7743.341      78.3996     155.9312      312.142      1.566     3.68     842.4233       55.042     732.9884        31     1.551     0.969  58.59   0
       409     67.8641    409.4144 307.9014152  +6.5009456     1563.069     2220.869      2429.01     77.77885     156.0555      312.142      1.544     4.17     841.4563       55.042     235.4044        15     1.368     0.791  48.88   0
       410    599.9183    409.8172 307.6804121  +6.5186454     647.1346     882.7225     823.2635      77.9034      155.869      312.142      1.359     2.86     841.0026       55.042     126.4917         6     0.751     0.550  40.09   0
       411    245.9059    404.8798 307.8276201  +6.5088073      14263.1      21177.9     22025.25     78.02775     156.4278     312.3283      1.547     3.56     837.6567       55.042     2180.292        42     1.540     1.008  47.44   0
       412    741.1371    398.9698 307.6221179  +6.5278508     702.2829     905.7805     930.4832     78.02775     156.2418     312.2042      1.791     4.44     842.8353       55.042      109.886         8     1.311     0.427  60.30   0
       413     81.1876    398.9162 307.8962360  +6.5057292     851.8704     1236.146     1190.046      77.9034     155.9934      312.111      1.414     3.64     841.0308       55.042     151.7407        10     1.108     0.623  56.58   0
       414   1018.1303    398.1750 307.5070863  +6.5374290     621.3934     922.8846     1333.804      77.9034     156.0555     303.7361      1.682     5.58     839.7291       55.042     89.34247         8     0.951     0.922 -70.53  16
       415    708.5562    397.4167 307.6357034  +6.5274024     727.3341     1163.729     602.2891     77.77885     156.0555     312.0489      1.712     5.22     842.0194       55.042     107.0261        10     1.593     0.483  45.41   0
       416    969.3652    396.7997 307.5273888  +6.5363704      1063.68     1549.426     2079.739     77.40401     155.9934     312.0799      1.565     3.86     840.9257       55.042     148.4464        12     1.152     0.696  47.67   0
       417    358.7442    394.4763 307.7811029  +6.5168937     1425.277     1994.064     1450.387     78.27585     156.1797     312.2042      1.562     5.47     836.8038       55.042     210.7967        13     1.228     0.735  49.47   0
       418    192.0461    395.0401 307.8503225  +6.5110599     913.9162     1283.326     1433.171     78.15189     156.1797      312.111      1.430     2.61     838.6782       55.042     167.8524         9     0.789     0.739  75.81   0
       419    146.1513    393.4307 307.8694391  +6.5101807     5254.091     7780.208     8287.895      77.9034     156.2418     312.1731      1.611     3.64     839.7839       55.042     761.1448        27     1.508     0.904  55.41   0
       420    250.7385    392.3098 307.8260367  +6.5141605     1366.173     2046.915     2316.128     78.27585     156.3038     312.3283      1.652     4.93     837.3566       55.042     182.7769        13     1.420     0.717  48.69   0
       421    639.8477    392.0213 307.6644244  +6.5273312     511.2703     948.7261     1438.164      77.9034     156.1797      312.111      2.642     5.79     840.3245       55.042     75.25952         7     1.243     0.759  -8.00   0
       422    443.9863    391.9158 307.7457828  +6.5208116     765.8729     1287.883     1097.039      77.9034     155.9934      312.111      1.600     4.53     837.7031       55.042     115.9321         8     0.971     0.670  26.94   0
       423    168.3507    389.3236 307.8603572  +6.5126235     2464.797     4105.876     4115.492      78.1519     156.2418     312.2663      1.721     4.10     839.1212       55.042     366.8057        25     1.425     1.035  73.17   0
       424    832.3823    389.8841 307.5845211  +6.5346528     748.0821     964.5324     451.5095      77.9034      155.869     312.2042      1.406     3.92     842.4958       55.042     131.9924         8     1.115     0.558  44.76   0
       425    563.8092    388.3770 307.6961312  +6.5262897     1058.323     1317.818     1199.659      77.9034     155.9312      312.111      1.405     4.15     839.1479       55.042      163.719        11     1.155     0.639  52.65   0
       426    279.9545    384.8915 307.8141517  +6.5182056     836.1953     1131.284     1099.627     78.27585     156.1176     312.3904      1.314     3.98     836.7263       55.042     143.8834         8     0.923     0.665  82.71   0
       427    391.8379    384.0930 307.7677067  +6.5222923      2067.83     3054.166     2882.268      78.3996     156.1176     312.3283      1.460     3.40     836.6602       55.042     367.4091        16     1.274     0.723  50.82   0
       428     10.6198    384.6150 307.9260286  +6.5092582     858.4264     1279.198     1737.355      77.9034     155.9312     312.1731      1.621     5.52     840.4352       55.042     108.7925        11     1.139     0.755  47.63   0
       429    980.4559    383.0353 307.5232426  +6.5424245     836.9595     1464.256     1988.414     78.15189     156.1797     312.2973      1.843     4.60     840.1035       55.042     158.8081        10     1.317     0.535  62.80   0
       430    325.6380    381.8573 307.7952789  +6.5209931     526.8658     842.3465     1297.512     78.27585     156.2418     312.2663      2.486     5.32     836.2649       55.042     104.7287        10     1.553     0.515  47.17   0
       431    445.5695    377.7615 307.7456015  +6.5267097     7745.329     11361.16     11608.08      77.9034     155.9312      312.111      1.545     3.59     836.8148       55.042     1258.631        33     1.482     0.947  49.45   0
       432     41.9052    378.5691 307.9132388  +6.5128086     3051.584      5025.29      5546.52      78.3996     155.9934     312.2973      1.754     4.06     840.1799       55.042     448.6198        30     1.446     1.251  34.47   0
       433    778.3141    376.5438 307.6074276  +6.5383548     2073.272     2931.322     3771.139     78.27585     156.1797     312.4214      1.582     3.94     842.0055       55.042     311.9247        17     1.358     0.711  50.24   0
       434    206.2976    377.8392 307.8449833  +6.5186421     527.8205     815.8995     833.8408     78.27585     156.0555     312.4835      1.646     4.00     837.9533       55.042     100.1125         5     0.734     0.710  34.09   0
       435    786.1861    375.0414 307.6042080  +6.5392384     13280.35     19196.03      19969.3     77.77885     155.9934     311.9867      1.492     3.41     841.9303       55.042     2094.548        36     1.514     0.888  49.59   0
       436    545.6594    376.7445 307.7040611  +6.5304852     543.1812     577.1343      460.619      78.3996     156.1797     312.2663      1.256     3.80     838.2634       55.042     93.36163         5     1.010     0.411  75.20   0
       437    349.6139    373.2918 307.7856088  +6.5253353     1226.448     1976.773     2018.081     78.02775     155.9312     312.0489      1.690     4.53     835.6891       55.042     193.9139        13     1.323     0.646  47.47   0
       438    194.4184    366.1483 307.8503118  +6.5230703     892.3198     1202.875     1027.971     77.77885     156.2418     312.0178      1.418     3.87     837.8659       55.042     148.2868        10     1.075     0.641  51.50   0
       439    960.9489    366.1768 307.5319100  +6.5487356     514.4997     586.3524     1131.335     77.77885     156.1797     312.1731      1.227     3.83     840.0682       55.042     86.75391         6     0.922     0.457  36.36   0
       440      2.0461    364.3524 307.9302744  +6.5173365     791.3376     1453.993     2223.912     75.88614     134.4288     246.4309      2.721     6.46     839.5417       55.042     130.3802        13     1.374     1.215 -83.90  24
       441    533.9924    363.0780 307.7093668  +6.5357378     366.4901     458.7184      114.676      77.9034     155.6823     312.0489      1.116     3.78     837.0987       55.042     86.12946         5     0.648     0.635  88.00   0
       442    493.7589    361.3448 307.7261372  +6.5351050     3291.406     4836.679     4889.904      78.1519     156.1797     312.2663      1.563     3.52     836.0789       55.042     502.5369        24     1.388     0.889  48.13   0
       443    465.9024    361.9051 307.7376893  +6.5339395     2318.588     3284.117     3215.302     78.27585     156.7374      312.111      1.517     3.60     835.8266       55.042     392.4062        21     1.406     0.837  47.21   0
       444    922.5430    361.4044 307.5480235  +6.5494247     839.4844     1335.151     1131.179     77.65411     156.0555     311.9867      1.532     4.37       841.02       55.042     129.4454         8     1.111     0.519  53.13   0
       445    851.5123    357.9483 307.5776451  +6.5484800      33870.9     51436.49      53963.3     78.27585     156.0555     312.3594      1.632     3.66     841.2382       55.042     4941.724        55     1.626     1.057  56.32   0
       446    813.6059    355.8566 307.5934614  +6.5480773     410.8677     326.6612     158.1739     77.77885     156.0555     311.9867      0.961     3.44     841.1858       55.042     85.01306         5     0.820     0.418  68.97   0
       447    436.2076    355.5693 307.7502370  +6.5355599     473.1669     683.6179     489.8764     77.77885     155.9934     312.0489      1.354     3.47     835.3738       55.042      79.6358         5     0.789     0.440 -20.34   0
       448     69.6884    354.7503 307.9025038  +6.5235799     603.3329     1042.849     924.0166     78.27585     155.9934     312.3904      1.598     5.01     839.1588       55.042      80.3844         8     1.280     0.554  44.11   0
       449    344.1001    353.6599 307.7885603  +6.5332570     881.6748     1432.017     1680.754     78.02775     156.1797     312.4214      1.778     3.15     834.7996       55.042     150.4559        10     1.017     0.747  84.81   0
       450    623.1853    350.3233 307.6727462  +6.5439927     2884.597     4360.557     4296.143      77.9034     155.9312      312.111      1.614     3.75     837.4361       55.042       471.74        24     1.575     0.889  45.37   0
       451     31.7425    350.9818 307.9183919  +6.5238581     1256.376     1921.306     1957.051     77.77885     156.1176     312.0178      1.500     4.09     839.0289       55.042     211.5447        12     1.268     0.673  41.49   0
       452    707.9567    343.9426 307.6377471  +6.5494648     82507.69     119717.9       125135     78.15189     156.1176     312.2663      1.494     3.67     839.8176       55.042     13450.39        82     1.617     1.039  49.12   0
       453    866.4783    345.6776 307.5718395  +6.5540472     1273.381     2076.573     1899.366     78.52317     156.4278     312.3904      1.871     3.90     840.6395       55.042     188.4048        13     1.238     0.702  60.66   0
       454     87.4474    343.5925 307.8955043  +6.5287853     1397.944     1989.243     1799.884     77.77885     155.9934     311.8935      1.481     4.02      838.867       55.042     208.4517        11     1.179     0.622  47.62   0
       455    949.3477    340.9530 307.5375736  +6.5587649     848.3582     1164.762     1069.332      78.3996     156.1176     312.2973      1.308     3.98      839.383       55.042     147.3713         9     1.153     0.554  61.46   0
       456    570.4532    340.7226 307.6949730  +6.5461913     2833.854     3936.659      3863.44      78.3996     156.1797     312.2663      1.496     3.93     836.3839       55.042     466.5833        18     1.331     0.761  51.99   0
       457    397.8067    341.7183 307.7666541  +6.5399912     528.1266      725.052     619.3808      77.9034     155.7446      312.111      1.300     3.93     834.6763       55.042     97.31537         6     0.782     0.566  50.56   0
       458    107.6841    339.5099 307.8872367  +6.5311523     6477.902     9215.449      9777.06     78.02775     156.4278     312.3904      1.551     3.47     838.5546       55.042     960.7572        29     1.460     0.888  53.15   0
       459    553.7195    336.8910 307.7020528  +6.5472129      7586.62     11056.76        11643     78.02775     156.4278     312.2973      1.551     3.77     836.0726       55.042     1263.537        29     1.495     0.859  47.94   0
       460    416.6080    332.0724 307.7591691  +6.5446053     26758.43     39761.84     41405.07     77.77885     155.7446     312.1731      1.573     3.58     834.3645       55.042      4240.59        51     1.577     1.024  49.03   0
       461    282.6509    334.5487 307.8147286  +6.5390849     2861.469     4194.782     4282.309     78.27585     156.0555     312.2042      1.588     3.68       835.11       55.042     459.2866        21     1.396     0.863  46.78   0
       462    595.6022    331.4514 307.6848379  +6.5508622     641.0444     913.8467     918.7277     77.65411     155.8068     311.8624      1.317     3.86     836.2822       55.042     120.3486         6     1.008     0.423  54.91   0
       463    524.3461    330.7991 307.7144591  +6.5487442     1480.279     2037.175     1634.011     77.65411      155.869     311.8624      1.420     3.45     835.3754       55.042      212.895        16     1.220     0.806  47.91   0
       464    396.5908    330.2258 307.7675461  +6.5446961     1331.872     1966.124     2416.274      77.9034     155.9934      312.142      1.660     4.51     834.2908       55.042     188.3741        13     1.291     0.667  51.02   1
       465    683.2424    330.3860 307.6484684  +6.5542362      563.038     865.9351     936.2371     77.52917     155.9934     312.0178      1.386     3.45     838.5132       55.042     81.59998         5     0.766     0.449  17.74   0
       466    496.0824    327.3127 307.7263167  +6.5492364     1313.996      1960.51     2256.932     78.02775     156.3658     312.3283      1.572     4.25     834.7991       55.042     195.3558        12     1.316     0.642  53.12   0
       467    811.2667    324.5388 307.5954831  +6.5609320     902.4338     1236.715     1230.208     78.27585     156.1176     312.2663      1.539     5.37     839.8916       55.042     134.5905        11     1.368     0.596  39.93   0
       468    647.1780    323.9901 307.6636642  +6.5556704     531.6093     754.1427     530.3488      77.9034     155.9312      312.111      1.428     4.55     837.2628       55.042     97.78784         6     1.584     0.371  57.44   0
       469    393.4330    324.7085 307.7690435  +6.5468685     906.2513       1389.6     1347.614      78.3996     156.0555     312.2973      1.674     4.29     834.1404       55.042     137.2336        11     1.158     0.689  49.91   1
       470    505.6786    322.4186 307.7224952  +6.5515792     9059.381     13083.84     13737.43     77.77885      155.869     312.2042      1.567     3.82     834.7941       55.042     1394.957        29     1.472     0.886  47.96   0
       471    774.7824    321.1799 307.6107515  +6.5610997     3394.955     4921.967     5583.708     78.02775     155.9934     312.1731      1.558     3.59     839.8107       55.042     543.1857        20     1.489     0.748  50.09   0
       472    930.0471    321.0903 307.5462564  +6.5663233     966.7748     1303.018     1013.638     78.27585     156.0555     312.3904      1.468     4.95     838.6321       55.042     142.2725        10     1.131     0.695  35.30   0
       473    722.8824    320.9192 307.6323197  +6.5594718     799.2332     979.8378     537.2169     78.27585     156.4278     312.3594      1.465     2.77     839.3868       55.042     186.2673         8     0.988     0.508  54.03   0
       474    332.2108    319.4087 307.7946527  +6.5470017     1109.407      1488.41     1943.407     77.77885     155.9934     312.2042      1.383     3.61     834.2878       55.042     199.0695        11     1.176     0.605  42.44   0
       475    167.7180    312.8082 307.8632019  +6.5441986     1182.864     1981.255     2157.759      77.9034     155.8068      312.142      1.737     4.03     837.0234       55.042     225.3737        15     1.397     0.729  45.93   0
       476    684.5372    307.8159 307.6486883  +6.5635999     567.6527     805.1724     1057.518     77.77885     156.1176      312.111      1.671     5.97     837.7473       55.042     103.7198         7     1.298     0.773  65.24   0
       477    395.5955    306.6074 307.7687547  +6.5544159     8096.695     11835.46     12070.45     77.65411      155.869      312.111      1.577     3.68      833.569       55.042     1243.059        30     1.470     0.927  49.09   0
       478    251.5722    307.1747 307.8285608  +6.5493445     2226.871     2986.996     3118.451     77.77885     155.9934      312.142      1.447     3.26     835.0705       55.042     358.2186        16     1.259     0.749  54.28   0
       479    749.2571    307.0081 307.6218303  +6.5660985      1003.84     1593.683       2032.9     77.65411     156.0555     312.0178      1.560     3.73     839.2565       55.042     159.6344         9     0.989     0.715  17.83   0
       480    763.4312    302.4911 307.6160939  +6.5684378     56704.37      80432.9     83949.75      78.3996     155.9934     312.2663      1.556     3.59     839.0585       55.042     9653.349        66     1.601     1.004  49.15   0
       481    435.1664    302.0871 307.7524694  +6.5576104     2370.718     3597.034     3246.564     78.27585     156.0555     312.2663      1.530     3.62     833.4105       55.042      357.262        19     1.368     0.842  56.01   0
       482    472.3026    298.3865 307.7371678  +6.5603841     1080.472     1921.606     2561.558      78.1519     155.9312     312.0178      2.514     5.50     833.7622       55.042     172.7017        17     1.713     0.898  55.94   0
       483    939.3330    298.7668 307.5431465  +6.5758519     2428.241      3088.84      2994.53      78.1519     156.2418     312.2352      1.393     3.69      837.112       55.042     335.6654        16     1.249     0.768  52.27   0
       484    581.1389    299.3731 307.6919240  +6.5636246     1314.682     1907.201     1606.013      77.9034     156.2418     312.1731      1.505     3.77      834.949       55.042      214.077        12     1.239     0.667  42.76   0
       485    421.7435    297.6896 307.7581933  +6.5589759     2103.199       2888.9     2930.996      78.1519     156.1176     312.3904      1.499     3.70     833.0986       55.042     333.3728        17     1.321     0.758  52.39   0
       486    301.4908    296.7843 307.8081757  +6.5553125     776.9272     1085.555     857.7601     78.02775     155.9934      312.142      1.551     4.07     834.0781       55.042     115.5911         7     1.033     0.459  77.63   0
       487    843.0146    292.0810 307.5833829  +6.5753966     1300.188     1672.072     1696.267      77.9034     155.9312      312.111      1.299     3.80      837.986       55.042     220.1608        10     1.117     0.595  58.90   0
       488    998.0900    299.0374 307.5187287  +6.5777006     1495.563     2697.508     2217.117     78.27585     156.1176     312.2973      1.710     5.32     836.6382       55.042     231.4734        18     1.663     0.738  55.89   0
       489    452.0197    288.8335 307.7459147  +6.5636488     1066.052     1905.131     2614.075     77.77885     155.9934     312.0799      1.806     5.69     833.2201       55.042     201.1279        13     1.670     0.545  48.06   0
       490    198.2235    288.8190 307.8513400  +6.5551307     2551.492     3845.717     3917.783     78.02775     156.0555     312.2042      1.572     3.57     835.7245       55.042     355.3977        20     1.377     0.837  51.75   0
       491    761.9627    287.1139 307.6172197  +6.5747388     6387.146     9317.392     10263.32     78.27585     156.1176     312.2663      1.510     3.63     838.4468       55.042     1076.388        26     1.439     0.844  49.67   0
       492    233.8647    286.8620 307.8366012  +6.5571372     775.4069     1167.283     785.5472     78.27585     156.1797     312.2973      1.552     4.63     834.7249       55.042     130.4587         8     1.188     0.513  59.97   0
       493     94.5431    286.3882 307.8944888  +6.5526459     1193.586     1859.175     1857.167     77.65411     156.1176     311.9556      1.782     4.29     837.5577       55.042     179.4462        13     1.288     0.790  39.07   0
       494    778.3264    284.9574 307.6104944  +6.5761764      2779.86     3820.803      4389.95     78.15189     156.2418     312.2973      1.459     3.81     838.3534       55.042     448.8168        19     1.354     0.766  45.31   0
       495    367.9565    279.8505 307.7811368  +6.5645373     1733.331     3284.688     3873.982      78.3996     156.1797     312.2973      2.141     6.40     833.2732       55.042     231.1462        26     1.946     1.041  27.35   0
       496     81.5488    280.3162 307.9000914  +6.5547158     1327.613     2137.385     2351.314     78.27585     156.1176     312.3594      1.730     4.62     837.4832       55.042     203.2671        15     1.326     0.767  44.51   0
       497   1016.5349    275.9365 307.5118393  +6.5878555     5974.793     8713.937     8968.273     78.27585     156.1797     312.2663      1.542     3.60     835.9271       55.042     880.8561        29     1.522     0.870  49.88  16
       498    494.5270    275.8461 307.7286940  +6.5704374     2180.321     3042.804     2997.486     78.15189     156.2418     312.2663      1.557     3.78     833.3668       55.042     354.4842        18     1.435     0.778  49.83   0
       499    257.0797    271.4034 307.8274792  +6.5643010     6105.445     9084.978     9991.592     77.65411     155.6823     312.0178      1.581     3.56     834.1122       55.042     874.4741        26     1.391     0.927  50.21   0
       500    925.3076    270.2446 307.5499282  +6.5871623     583.2586     630.6187     735.1041     78.27585     156.1176     312.3904      1.282     3.70     836.2461       55.042     108.8026         5     0.935     0.421  43.84   0
       501    821.4988    269.6180 307.5930741  +6.5839539     591.2163      985.362     1168.073     78.27585     156.0555     312.0178      1.920     4.56     837.4258       55.042     90.91516         7     1.371     0.431  44.60   0
       502    776.6133    264.4919 307.6118925  +6.5845705     805.1844     1088.599     1523.586     78.02775     155.9312     312.0489      1.663     4.61     837.3522       55.042     127.4554         8     1.120     0.538  51.78   0
       503    233.6464    264.1933 307.8374564  +6.5664907     712.8852     1099.266     989.2036     77.77885     155.9934     311.9246      1.623     4.67     834.3766       55.042     121.6518         7     1.075     0.575  39.81   0
       504    128.2011    264.3831 307.8812510  +6.5628655     491.6703     683.4316     648.4629      77.9034     155.7446     311.9556      1.366     3.47     836.6959       55.042     64.39362         5     0.775     0.448  17.39   0
       505    978.4058    261.3689 307.5281669  +6.5925995     1170.561     1849.319     1652.106     77.65411     156.0555     312.0489      1.659     5.15     835.7552       55.042     187.6525        12     1.430     0.661  46.54   0
       506    391.2453    262.0373 307.7720626  +6.5726749     1752.904     2658.748     3320.242     78.02775     156.1797     312.1731      1.614     3.93     832.7416       55.042     247.5377        18     1.387     0.824  56.03   0
       507    313.9702    258.4326 307.8042843  +6.5715688     1227.439      1785.12     1514.398     77.77885     155.9312     311.9867      1.557     4.13     833.1948       55.042     207.5564        14     1.360     0.700  33.28   0
       508    161.1018    258.1027 307.8677964  +6.5665660     1874.633     2683.002      2695.24     78.27585     156.6136      312.111      1.520     3.66     835.9116       55.042     281.6517        16     1.280     0.868  40.81   0
       509    570.7614    253.6438 307.6977720  +6.5821609     2234.855     3355.679     2901.508     78.02775     156.1176      312.111      1.572     3.94     833.6685       55.042     354.1277        21     1.527     0.767  50.55   0
       510    914.4206    252.9344 307.5550309  +6.5939472     1736.929      2925.69     3421.359      77.9034     156.1797     312.1731      1.916     4.75     836.0254       55.042     250.8171        18     1.473     0.826  44.70   0
       511    838.1895    253.3368 307.5866862  +6.5912351       384.61      599.901      334.693     77.77885     155.9934     312.0799      1.249     4.51     836.6019       55.042     67.82739         5     1.170     0.494  56.36   0
       512    734.2679    251.2336 307.6299287  +6.5886296     5432.088     7799.092     8369.597      78.1519     156.2418     312.3594      1.492     3.46     836.5748       55.042     865.4591        25     1.403     0.853  49.52   0
       513    675.2021    251.1868 307.6544677  +6.5866727     2237.778     3172.205     2990.587      77.9034      155.869     312.0799      1.431     3.62     835.0972       55.042     339.7134        17     1.278     0.750  49.78   0
       514    972.4659    250.8509 307.5309866  +6.5967448     777.7632     883.8643     731.5793     78.15189     156.1176     312.2663      1.409     4.62     835.5714       55.042     151.0853         8     1.401     0.433  41.44   0
       515    390.1185    245.5229 307.7730868  +6.5794567     818.5069     1230.535      1455.83     78.52316     156.4278     312.3904      1.647     4.29     832.5454       55.042     137.6431         9     1.041     0.707  47.57   0
       516    930.4698    243.5066 307.5486793  +6.5983762     1243.734     1772.158     1577.595     78.27585     156.3038     312.2663      1.459     4.80     835.7473       55.042     189.7813        11     1.191     0.654  55.84   0
       517    823.2684    237.4113 307.5934189  +6.5973130      476.805     600.6652     1308.887     77.77885     155.9934      312.142      1.251     4.20     836.0636       55.042     94.82654         6     1.189     0.423  52.34   0
       518    233.8483    236.5040 307.8383064  +6.5779315     2349.952     3625.813       3608.9      78.1519     156.0555     312.4214      1.610     4.12     833.9678       55.042     355.9791        21     1.490     0.830  52.86   0
       519    876.6707    235.5009 307.5712976  +6.5998860     1765.246     2320.073     2323.927      78.1519     156.3038     312.2663      1.446     3.94     835.8481       55.042     277.5294        13     1.176     0.688  51.09   0
       520    767.0345    234.8858 307.6168650  +6.5964762      1796.02     2486.128     2893.884     78.27585     156.0555     312.2663      1.491     3.40     835.9406       55.042     343.1621        15     1.202     0.731  50.24   0
       521    256.0946    230.5908 307.8292646  +6.5811212     586.6743     771.6239     441.1521      77.9034     155.8068     312.0489      1.230     3.34     833.4286       55.042     114.1895         5     0.758     0.602 -74.07   0
       522    467.7213    226.3801 307.7414938  +6.5899654     24012.89     35307.32     37020.15      77.9034      155.869     312.2352      1.590     3.62     831.9273       55.042     3574.328        46     1.535     1.017  49.14   0
       523    793.7524    225.4901 307.6060807  +6.6012495     13888.16     20312.33     21695.03     78.27585     156.0555     312.4214      1.582     3.62     835.5526       55.042     2337.356        46     1.585     1.128  38.80   0
       524    329.0132    228.1654 307.7990553  +6.5845727     696.7412     1061.082      653.193     77.77885     155.9934      312.111      1.491     3.84     832.4733       55.042     99.57361         5     0.833     0.508  55.47   0
       525    473.4063    220.7725 307.7393208  +6.5924717     1518.108     2258.745     2622.261     77.77885     155.9934     312.0799      1.598     4.70     831.7976       55.042     211.2405        15     1.432     0.660  55.26   0
       526    732.5054    221.1655 307.6316700  +6.6009874      798.986     1205.689     1684.726      78.3996     156.0555     312.3594      1.633     3.63      835.158       55.042     132.4651         6     0.990     0.477  32.68   0
       527    155.9475    219.7513 307.8712319  +6.5822294     2445.468      3711.71     4233.449      78.3996     156.0555     312.2663      1.551     4.09     834.8532       55.042     361.2597        19     1.417     0.809  50.01   0
       528    130.8725    218.8590 307.8816783  +6.5817540     1185.114     1748.228     2049.338      78.3996     156.1797     312.2352      1.552     3.69     835.5535       55.042      159.308        12     1.107     0.760  45.68   0
       529    182.6680    217.4659 307.8602092  +6.5840720     635.3008     1030.436      926.319     78.27585     156.2418     312.2973      1.660     3.25     834.3282       55.042     119.1353         5     1.030     0.298  68.27   0
       530    930.3248    216.0492 307.5496592  +6.6097101      1391.31     1891.902     1496.239     78.15189     156.2418     312.2973      1.471     4.18      834.791       55.042      206.843        14     1.351     0.651  46.09   0
       531    591.8300    212.1656 307.6904137  +6.5999951     4916.475     6987.719     7190.923     77.77885     155.9312     312.0178      1.503     3.48     833.0479       55.042     806.8075        26     1.481     0.823  51.28   0
       532    554.4022    212.0956 307.7059648  +6.5987701     2228.483     3369.409      2868.82     77.77885      155.869     311.9556      1.552     3.78     832.5521       55.042     359.6421        21     1.517     0.841  46.33   0
       533    312.0685    213.1190 307.8066014  +6.5902169     1130.145     1713.831     1710.519     78.52317     156.4278     312.2973      1.504     4.00     832.4972       55.042     165.8128        10     1.193     0.577  59.64   0
       534    396.4433    211.3568 307.7716099  +6.5937777     1659.693     2166.394     2106.446     78.02775     156.1797      312.142      1.501     4.03     832.1524       55.042     260.9641        16     1.313     0.771  41.55   0
       535    952.7150    209.1227 307.5405892  +6.6133178     2713.862     4225.847     4346.618      78.3996     156.4898     312.3594      1.644     3.96     834.0985       55.042     445.3005        20     1.477     0.751  51.20   0
       536    898.8340    208.6699 307.5629892  +6.6117061     11721.55      16903.2     17878.46     78.15189     156.1797     312.3283      1.548     3.71     834.4905       55.042     1907.116        38     1.571     0.904  51.43   0
       537    326.6121    208.3856 307.8007193  +6.5926600     934.5247     1525.579     1584.891      78.1519      155.869     312.2042      2.141     6.36     832.4069       55.042      199.536        15     1.765     0.769  73.72   0
       538    217.8629    208.8754 307.8458788  +6.5888030     686.7869     817.3586     396.5222     78.52316     156.1797     312.2352      1.457     5.15     833.7134       55.042     109.9474         9     1.377     0.568  59.00   0
       539    985.5302    206.4914 307.5270443  +6.6154993     10210.93      14793.3     15444.45     78.27585     156.3038     312.2663      1.562     3.52     833.6072       55.042     1625.162        36     1.516     0.958  53.65   0
       540    573.9874    208.6914 307.6979429  +6.6008321     1029.985     1551.912     1755.578     78.02775     155.9312     312.0489      1.587     4.74     832.7432       55.042     143.8187         9     1.095     0.581  55.62   0
       541    696.9147    206.6126 307.6469443  +6.6058064     2996.675     4152.464     4345.469      77.9034     156.0555      312.111      1.472     3.71     834.1516       55.042     458.6324        18     1.361     0.715  50.56   0
       542     24.8898    205.2828 307.9261622  +6.5837913     26308.77     39925.15     42364.82     78.02775     156.4278     312.3594      1.605     3.79     837.1191       55.042     3695.925        54     1.576     1.097  49.10   0
       543    271.3311    206.1456 307.8237595  +6.5917277     1061.384     1532.406     1190.919     78.27585     156.1176     312.2352      1.355     3.33     832.8959       55.042     201.3105        12     1.245     0.632  68.50   0
       544    505.5770    201.5152 307.7266041  +6.6015027      2250.29     3093.094     3277.697      78.1519     155.9312     312.1731      1.546     3.43     831.7293       55.042     361.6843        17     1.238     0.817  59.29   0
       545    837.4075    198.1211 307.5888623  +6.6140106     2039.184     2950.763      2969.01      77.9034     155.6823     312.0489      1.477     3.23     834.2471       55.042     337.0241        17     1.356     0.718  50.84   0
       546    517.5700    197.4652 307.7217580  +6.6035772     2761.832     4063.289     4368.299     78.02775     156.1797     312.2042      1.525     3.73     831.7963       55.042     418.8154        23     1.417     0.877  51.63   0
       547    889.5029    197.1299 307.5672525  +6.6161601     2125.994     3047.539     3530.339     78.15189     156.3658     312.2663      1.517     4.07     833.8129       55.042     318.7006        19     1.478     0.756  41.41   0
       548    749.0004    194.6663 307.6257067  +6.6124820     41827.61     60427.09     62485.76     77.52916     155.6823     312.0178      1.515     3.58     834.4855       55.042      6442.05        57     1.569     0.979  47.83   0
       549    352.0492    193.9792 307.7906376  +6.5994633     5754.004     12008.82     13134.47     77.77885     156.2417      312.142      2.151     6.19     832.2423       55.042     698.4772        43     2.027     1.164  84.56   0
       550    982.8488    193.4458 307.5285950  +6.6207971     3037.371     4426.369     4799.799     78.27585     156.0555     312.2973      1.581     3.90     832.7729       55.042     476.9608        20     1.398     0.780  49.56   0
       551    916.9088    191.7331 307.5560475  +6.6193038     7810.414     11231.66     11960.54     78.27585     156.3038     312.2973      1.523     3.79     833.2434       55.042      1253.03        30     1.492     0.874  51.37   0
       552   1021.1088    192.1301 307.5127438  +6.6226167     1712.396     2478.603     2504.495     78.27585     153.4873     272.4396      1.524     3.71     832.4119       55.042     253.9551        16     1.257     0.791  43.60  16
       553    460.4562    190.9160 307.7457053  +6.6043665     5189.664     7503.541     7378.892     78.27585     156.1797     312.3594      1.530     3.68     831.4146       55.042     832.9962        26     1.471     0.834  53.36   0
       554    235.2225    188.0292 307.8393706  +6.5979949     761.3507     1181.651     1007.195     77.77885     155.9934      312.111      1.599     3.00     833.1088       55.042     132.2648         6     0.879     0.460  53.49   0
       555    117.7299    182.2251 307.8883748  +6.5964391     5003.711     7525.256     7367.786      77.9034     156.0555     312.2042      1.575     3.76     834.7924       55.042     706.7492        28     1.555     0.877  54.25   0
       556    937.3284    181.3288 307.5479126  +6.6242819     836.6812     1196.163     1468.099     78.52317     156.3038     312.1731      1.472     3.57     832.3019       55.042     133.0843         7     1.001     0.478  57.78   0
       557    288.0822    178.8516 307.8177210  +6.6035614     35625.27     53193.79     56008.11     78.27585     156.1797     312.3283      1.572     3.60     832.6358       55.042     5032.139        58     1.612     1.040  50.63   0
       558    614.3206    180.4686 307.6821355  +6.6138377     722.1034     1129.977     1421.946      78.3996     156.4278     312.2352      1.836     4.16     832.4368       55.042     121.0995         7     0.965     0.513  61.42   0
       559    263.3782    179.8752 307.8279491  +6.6023085     6692.493     10133.96     10609.75      77.9034     156.0555     312.2042      1.574     3.64     832.7922       55.042     1025.544        31     1.500     0.936  47.78   0
       560    904.2029    180.3849 307.5617064  +6.6235659      454.444     609.0501     996.3077      77.9034     155.8068      312.111      1.163     3.42     832.6017       55.042     77.70917         5     0.770     0.439  19.35   0
       561    717.6294    178.1392 307.6392944  +6.6182576     982.1673     1280.511     1099.589     78.02775     156.1797     312.2352      1.243     3.35     833.8601       55.042     165.8333        10     1.027     0.643  50.83   0
       562    202.6301    178.4656 307.8532327  +6.6008482     378.9735     616.0674     1090.813     78.02775     156.1797     312.2042      2.606     3.42     833.0701       55.042     70.71191         5     1.086     0.312  69.26   0
       563    412.1315    174.3111 307.7663400  +6.6096021     52406.77     77393.43     81020.52      78.3996     156.3658     312.2352      1.589     3.60     831.6817       55.042     7866.881        62     1.613     1.036  49.22   0
       564    168.0972    175.5370 307.8676772  +6.6008959     4124.804      6095.73     5962.968     78.15189     156.3038     312.3283      1.573     3.94     833.1346       55.042     572.4633        24     1.443     0.874  50.80   0
       565    429.4093    174.8665 307.7591435  +6.6099525     1508.576     2273.295     2262.788     77.77885     155.9934     312.2042      1.577     3.38     831.5121       55.042     306.5473        14     1.278     0.684  50.11   0
       566    699.7918    172.9278 307.6468800  +6.6198129     1145.691     1435.917     1274.855     77.77885     155.7446     312.1731      1.364     3.88     833.5908       55.042     211.9897         9     1.083     0.648  48.37   0
       567    316.1580    172.0435 307.8062869  +6.6073160      18975.3     28445.58     30173.35     78.02775     156.1797      312.142      1.567     3.62     832.4518       55.042     2713.953        48     1.580     1.025  47.55   0
       568    751.4731    170.5322 307.6254893  +6.6225309     35267.02     50272.59     52289.84      78.3996     156.3038     312.2352      1.542     3.61     833.7409       55.042     6044.091        57     1.572     1.009  49.14   0
       569    323.5825    172.1244 307.8031999  +6.6075320     2086.259     3364.394     4497.138     77.77885     155.9312     312.2042      1.945     4.32      832.399       55.042     301.4845        16     1.398     0.743  52.52   0
       570     39.5475    171.4849 307.9212156  +6.5982414     532.5681     891.8326     696.1279     78.27585     156.1176     312.3904      1.443     3.76     837.2424       55.042     91.81171         6     0.952     0.427  17.79   0
       571     68.2094    167.8079 307.9094333  +6.6007252     9345.076     14203.27     14873.11     77.77885     155.9934      312.142      1.594     3.65     836.1968       55.042     1395.032        35     1.561     0.956  48.42   0
       572    575.3334    168.6198 307.6987308  +6.6174247     590.0872     926.9898     588.6795      77.9034     156.1797     312.1731      1.685     5.37     831.8179       55.042     82.62897         7     1.059     0.768  34.35   0
       573    800.0376    171.0026 307.6052971  +6.6239604      1322.76     1931.385     2071.094     77.40401     155.9312     312.0799      1.463     4.58     833.3423       55.042     228.2446        16     1.513     0.740  56.11   0
       574    102.1992    165.8052 307.8953811  +6.6026967      1625.71     2273.318     2047.805     77.65411      155.869     312.0489      1.421     3.93     834.8532       55.042     231.3201        15     1.305     0.746  54.39   0
       575   1010.3140    165.3998 307.5181232  +6.6332951      998.983     1559.688     2038.442     77.52917     155.6823     311.9246      1.590     4.28     830.7591       55.042     156.6597         8     0.993     0.559  72.67   0
       576    736.5681    158.8102 307.6320751  +6.6268731     478.4725    -115.6775    -197.5444     77.77885     155.9312      312.111      1.005     2.65     833.4483       55.042     89.34033         5     0.715     0.454  68.99   0
       577    585.6070    155.1986 307.6949138  +6.6233111     988.6689     1309.671     1415.422     77.65411      155.869     312.0799      1.600     5.21     831.4261       55.042     138.0292        11     1.212     0.778  47.93   0
       578      1.9527    153.2393 307.9374497  +6.6045089     924.2997     1001.393     581.6719     74.72751     132.9786     244.7334      1.264     4.34     838.9888       55.042     150.0096         8     0.902     0.595  42.26  24
       579   1010.9256    151.0741 307.5183486  +6.6392314     2236.181     3433.934     3899.602     78.52317     156.4278     312.3594      1.619     3.88     830.3982       55.042     356.8362        19     1.389     0.839  56.65   0
       580    594.1110    148.8967 307.6915926  +6.6261984     1008.666     1598.903     1891.511     78.27585     156.6136     312.2973      1.693     4.39     831.2101       55.042     150.6851        11     1.293     0.687  67.13   0
       581    602.3036    147.0818 307.6882500  +6.6272223     2023.442     2992.341     3270.034     78.15189     156.4898     312.3594      1.489     3.71       831.17       55.042      325.945        17     1.383     0.874  61.40   0
       582    346.6163    147.0164 307.7944769  +6.6186738     1183.765     1732.349     1549.683     78.02775      155.869     312.2042      1.556     4.28     832.6519       55.042     187.9719        14     1.361     0.691  48.54   0
       583    286.9886    145.1363 307.8193119  +6.6174471     31942.87      47926.9     50832.99     77.77885     155.9934     312.0799      1.572     3.62     832.9941       55.042     4606.949        57     1.598     1.066  47.06   0
       584     32.2475    143.6211 307.9251898  +6.6095013     4558.658     6851.803     7041.207      77.9034     156.1797      312.111      1.577     3.73     837.4487       55.042      679.039        26     1.474     0.883  50.50   0
       585    718.6683    141.6758 307.6400869  +6.6333500     8651.077     12202.34     12504.17      78.3996     156.3038     312.2663      1.531     3.51     832.2837       55.042     1551.662        30     1.467     0.870  50.49   0
       586    196.0610    143.1948 307.8571519  +6.6151919      952.218     1517.698     1682.612     77.65411     156.0555     312.0489      1.664     5.49     832.2945       55.042     152.5816        12     1.481     0.574  50.99   0
       587    129.3729    138.8398 307.8850031  +6.6147464     4935.306     7720.903     7958.862      77.9034     155.9934      312.142      1.650     3.85     832.8433       55.042       757.29        29     1.521     0.948  53.29   0
       588    272.9666    139.9987 307.8253104  +6.6190973     921.0206     1278.994      1814.44     77.52916     155.9934     312.0178      1.469     5.26     832.9785       55.042     129.1591        10     1.165     0.671  49.03   0
       589    591.0157    136.3642 307.6932999  +6.6312700     769.2777     1444.912     1651.544      77.9034     155.9312     312.0799      2.660     5.68     830.6288       55.042     137.0115        11     1.779     0.512  53.47   0
       590    468.4394    135.9011 307.7442403  +6.6273524     1457.245     2061.686      1855.64     78.27585     156.0555     312.4835      1.566     4.01     830.2816       55.042     247.0972        14     1.332     0.686  48.32   0
       591    400.0445    134.8042 307.7726919  +6.6255105     3932.923     6465.988     6947.301     77.65411     155.8068     311.9556      1.716     4.36     831.6561       55.042     562.0787        29     1.594     1.011  58.06   0
       592    657.2076    135.5969 307.6658256  +6.6338034     870.7291     1323.181      1245.54     77.65411      155.869      312.111      1.596     5.22     831.4999       55.042     150.9259         9     1.283     0.625  41.90   0
       593    643.0014    135.4347 307.6717332  +6.6333948     417.4089     477.5203      172.683     77.40401     155.9934     312.0489      1.219     4.67     831.2273       55.042     65.27203         5     1.070     0.578  75.94   0
       594    364.5132    133.7870 307.7874875  +6.6247377     3452.341     5073.007     5051.738      77.9034     155.9934     312.1731      1.569     3.88     832.6687       55.042     545.6478        25     1.447     0.894  47.37   0
       595    118.9819    133.9963 307.8894834  +6.6163966     1731.926     2613.127     2828.465      77.9034     155.7446     312.0799      1.496     3.67     832.9384       55.042     297.7408        18     1.361     0.825  45.22   0
       596    680.5613    131.5739 307.6562581  +6.6362464     963.3913     1313.745     1307.899      77.9034     155.9934      312.111      1.465     4.38      831.541       55.042     169.5573        11     1.204     0.758  36.34   0
       597    168.4159    129.3820 307.8691028  +6.6199657     368.6849     572.3939     834.7661     78.02775      155.869     312.2042      1.965     4.23     831.5978       55.042     70.23181         5     1.201     0.424  53.72   0
       598   1011.3938    127.9828 307.5189270  +6.6487828      1529.49     2606.419     2841.762      77.9034     155.9312      312.111      1.808     3.98     830.1735       55.042     232.9477        15     1.326     0.722  51.75   0
       599    737.1697    128.2552 307.6328507  +6.6395109     739.8131     1044.396     633.3644     78.15189     156.2418     312.2352      1.411     4.94     831.4512       55.042     102.1732         8     1.058     0.652 -56.48   0
       600    216.3846    122.6615 307.8494016  +6.6243543     5625.305     8441.837     8644.104     77.77885     156.1176     312.0799      1.593     3.70     832.2915       55.042     834.6316        27     1.459     0.888  47.97   0
       601     99.1981    122.4509 307.8980922  +6.6204981     2380.354     3649.456     4053.634     77.65411     155.8068     311.8624      1.605     3.75       832.98       55.042     346.4061        20     1.401     0.839  60.64   0
       602    855.3719    122.3232 307.5839401  +6.6459119     499.9297     878.1426     1319.624      78.1519     156.1797     312.2352      2.617     4.19     830.5134       55.042     86.20135         5     1.203     0.417  52.51   0
       603    678.2107    121.4396 307.6575751  +6.6403527     6671.971     9628.318      10246.8     77.65411     155.9934     312.0178      1.503     3.52     830.8789       55.042     1129.651        26     1.378     0.894  48.96   0
       604    826.4128    121.2728 307.5960070  +6.6453780      1214.94     1606.543     1457.467     77.77885      155.869     312.0799      1.397     3.42     830.6225       55.042     210.4723        11     1.076     0.708  55.77   0
       605    630.4241    118.7282 307.6775199  +6.6398726     9940.255     14079.65     15414.02      77.9034     156.0555     312.2042      1.489     3.46     830.2573       55.042     1753.524        30     1.462     0.875  48.27   0
       606    265.2972    119.4479 307.8291896  +6.6273258     917.9546     1505.882         1760     78.27585     156.0555     312.4214      1.526     4.37     833.1793       55.042     156.0508         8     1.106     0.522  66.95   0
       607     28.9860    118.0198 307.9274101  +6.6199630     919.0241      1606.92     1216.433     78.02775     155.9312     312.1731      1.836     5.02     837.2869       55.042     145.9456        14     1.382     0.885  54.30   0
       608    568.7410    118.0802 307.7031688  +6.6380740     763.8063     1141.458     1292.058      78.3996     156.1797     312.2352      1.428     3.08     829.6937       55.042     168.1262         6     0.971     0.490  42.02   0
       609    357.5720    114.4662 307.7910222  +6.6324830     3761.848     6241.288     6507.451      77.9034     156.1176     312.2042      1.783     3.75      833.415       55.042     585.2552        33     1.493     1.226  67.37   0
       610    539.3444    113.8773 307.7155233  +6.6388245     1853.608     2652.582     3158.971     78.27585     156.1797     312.2663      1.492     3.68       829.36       55.042     278.7407        16     1.297     0.770  56.51   0
       611   1003.5211    113.4336 307.5226851  +6.6545283     939.2119     1333.019     1272.556      78.1519     156.1797     312.2663      1.659     3.83     830.0096       55.042     128.7808        10     0.957     0.784  42.34   0
       612    633.9086    110.2246 307.6763579  +6.6435009     56023.96     81379.81     85112.73      78.3996     155.9934      312.111      1.545     3.73      829.862       55.042     8981.824        68     1.603     1.026  49.44   0
       613    700.2838    111.4767 307.6487390  +6.6452056     591.1946     815.7532     1062.488      78.3996     156.4898     312.3594      1.576     4.49     830.3116       55.042     89.32385         6     1.230     0.467  43.39   0
       614    312.9532    103.9465 307.8099137  +6.6353284     3716.528      5609.98     6399.496     78.27585     156.1797     312.2973      1.648     3.66     833.9598       55.042     547.4604        24     1.448     0.885  54.09   0
       615    508.7353    101.3892 307.7286604  +6.6429553     745.2983     932.0881     449.1294     77.77885     155.9934     312.1731      1.447     5.06     828.9987       55.042     103.3794         8     1.087     0.668  34.89   0
       616     10.3249     86.9667 307.9362124  +6.6321569     716896.1      1503823      1646923     78.15189     156.1797     312.2352      2.164     6.57     837.4538       55.042     61361.59       441     2.272     1.790  50.46  28
       617    713.0349     98.5233 307.6438762  +6.6509813     1016.265     1440.118     2022.855     78.15189     156.2418     312.2663      1.546     4.92     829.5789       55.042     150.8178        10     1.090     0.629  57.36   0
       618    684.2462     97.4745 307.6558724  +6.6504511     1309.869      1940.77     1953.476      78.1519     156.2418     312.2663      1.524     4.23     829.4541       55.042     204.1154        14     1.454     0.632  51.25   0
       619    698.2737     94.1303 307.6501566  +6.6523015     3359.101     4999.048     5084.266      78.3996     156.3038     312.2973      1.497     3.78     829.3447       55.042     545.2285        22     1.523     0.792  49.69   0
       620     70.4050     92.4730 307.9110667  +6.6319073     568.9972     849.3436       1126.2      77.9034     155.7446     312.1731      1.822     3.43     833.6378       55.042     85.10919         5     1.081     0.315 -68.66   0
       621    173.7010     87.9653 307.8683052  +6.6372459     506.3341      769.442     869.4636     78.27585     156.0555     312.4214      1.343     3.87     830.6257       55.042     73.66431         5     1.304     0.330  25.77   0
       622    440.0872     85.2266 307.7577253  +6.6473270     4355.304     6002.766     6050.686      78.3996     155.9934      312.142      1.478     3.66     829.9968       55.042     631.9838        21     1.363     0.828  52.70   0
       623    894.7783     81.7330 307.5689281  +6.6639899     2175.529     3164.933     3169.242      77.9034     156.1797     312.1731      1.494     3.69     828.8397       55.042     406.1002        18     1.328     0.836  58.65   0
       624    912.6168     80.5768 307.5615551  +6.6650630     4083.627     5783.902     6151.318     78.02775     156.0555     312.1731      1.511     3.33     828.7583       55.042     713.3292        23     1.416     0.818  47.94   0
       625    592.9857     81.4017 307.6943290  +6.6540326       815.74     1042.856      809.125      77.9034      155.869     312.0489      1.353     2.86     828.6345       55.042     136.9739         9     0.894     0.648  63.27   0
       626    604.5499     79.1692 307.6895994  +6.6553419     1875.574     2622.766     2316.176      77.9034     156.3038     312.2042      1.526     3.68     828.6177       55.042     316.1955        16     1.342     0.746  49.98   0
       627    250.4098     78.4619 307.8367570  +6.6437500     952.9584     1441.533     1835.635     77.65411     155.9934     312.0799      1.618     4.07     832.6469       55.042     133.4654        10     1.102     0.647  49.85   0
       628    403.4689     77.0191 307.7732153  +6.6494874     1895.015     2786.622     2411.363      77.9034     156.0555     312.2042      1.488     3.88     831.2603       55.042     324.6454        15     1.371     0.670  46.95   0
       629    151.3839     73.8681 307.8780528  +6.6423162     3347.308     4942.785     5166.848     77.77885     156.1176     312.1731      1.603     3.75      830.293       55.042     514.5257        24     1.534     0.838  54.07   0
       630     33.1889     71.8030 307.9272263  +6.6391889     12673.11     19275.41     20769.73      77.9034      155.869      312.142      1.593     3.72     834.6291       55.042     1814.373        42     1.605     0.974  49.31   0
       631    299.7887     72.5398 307.8164418  +6.6478551     1478.255     2276.583     2655.335     77.65411     156.0555     311.9867      1.775     3.75     834.1432       55.042     248.5781        14     1.236     0.719  54.76   0
       632    573.4012     71.6565 307.7027935  +6.6574007      789.968     1002.647     1080.449     77.65411      155.869     311.9867      1.305     3.96     828.4641       55.042     118.1285         6     0.862     0.520  48.04   0
       633    954.5709     70.5352 307.5444599  +6.6706102     573.8843      886.163     890.5055     78.02775     156.1797     312.2042      1.433     4.49     827.8914       55.042     72.85614         7     1.161     0.495 -89.18   0
       634    768.0331     70.8523 307.6219542  +6.6642477     778.3674     1176.928     1671.361     78.15189     156.1797     312.1731      2.150     4.45      828.436       55.042     127.1948         8     1.090     0.516  51.42   0
       635    990.8406     69.6028 307.5294212  +6.6722055     510.5999     816.8289     642.3588     77.52916      155.869     312.0178      1.426     3.46     827.2753       55.042     70.22076         5     0.779     0.444  18.72   0
       636    901.7198     67.6826 307.5665148  +6.6700239     669.7659     967.2295     833.4937     78.27585     156.4278     312.3283      1.589     4.49     828.2457       55.042     117.7392         7     1.060     0.541  43.99   0
       637    834.9361     66.3281 307.5943084  +6.6683523     6544.408     9402.877     10283.93     78.27585     156.1797     312.2973      1.528     3.85     828.2447       55.042     978.5074        26     1.480     0.803  51.09   0
       638    779.9702     66.6360 307.6171360  +6.6663880     3427.533     4931.264     5010.384      77.9034     155.9312      312.111      1.522     3.49     828.2484       55.042     529.2344        21     1.428     0.753  49.19   0
       639    425.0525     67.2529 307.7645769  +6.6542446     1089.178     1335.776     1107.299     78.52317     156.0555     312.2973      1.451     4.56     830.1235       55.042      167.339        10     1.200     0.589  53.91   0
       640    560.3759     71.3604 307.7082152  +6.6570865     806.8113     1203.957     1022.592      77.9034     155.9312     312.0489      1.527     3.66     828.4605       55.042     142.7446         7     1.053     0.429  31.82   0
       641    542.8175     64.8684 307.7157287  +6.6591789     1070.262      1611.02     1702.438     77.77885     156.0555     312.1731      1.411     4.79     828.4588       55.042     205.1376        12     1.545     0.530  44.61   0
       642     73.5347     63.6613 307.9107400  +6.6439100     3462.323         4985     5055.712     78.27585     156.1176     312.2973      1.584     3.74     831.9232       55.042     559.0767        22     1.440     0.818  50.66   0
       643     58.0546     64.6135 307.9171390  +6.6429954     1009.067     1475.731     963.1869     77.65411     156.1176     312.0178      1.578     5.50     832.7811       55.042      136.303        12     1.250     0.685  46.46   0
       644    434.9027     63.4199 307.7606135  +6.6561580     1010.393     1532.046     1565.272     78.15189     155.9934     312.0178      1.606     4.23     829.8387       55.042     164.1849         9     1.135     0.708  69.17   0
       645    597.5032     60.4953 307.6931548  +6.6628172       1323.5     1878.648     1903.476     78.27585     156.7374      312.111      1.514     4.05     828.1958       55.042     250.3005        11     1.305     0.577  55.14   0
       646     15.9707     59.0527 307.9348106  +6.6438737     2609.744     3894.228     4751.683     78.02775     156.3038     312.1731      1.605     3.59     834.3141       55.042     444.3119        22     1.448     0.877  48.27   0
       647     88.3638     54.7133 307.9048816  +6.6481043     898.8079     1323.836      1468.46     78.27585     156.0555     312.2663      1.600     5.06     830.8713       55.042     120.7472        11     1.192     0.720  64.48   0
       648    774.7179     54.2235 307.6197348  +6.6713381     2099.475     2915.439      3014.11      78.1519     155.9312     312.2042      1.439     4.22     827.7444       55.042     322.9642        14     1.340     0.632  52.15   0
       649    415.2559     54.1976 307.7690868  +6.6593069     1068.042     1682.305     1092.623     77.65411     155.9312     311.9556      1.616     4.51     830.2503       55.042     192.4143        12     1.418     0.662  55.85   0
       650    666.0859     53.9165 307.6648808  +6.6678305     661.1324     983.0342     1000.662     78.02775     156.3658     312.3283      1.621     4.53     827.8974       55.042     106.7628         7     1.100     0.530  57.13   0
       651    112.6669     53.1793 307.8948365  +6.6495561     911.9241     1303.454     1663.436      77.9034     156.1797     312.2042      1.720     5.24     830.3073       55.042     137.4075        11     1.330     0.584  59.19   0
       652    101.2407     47.9576 307.8997601  +6.6513275     9759.348     15109.11     15421.76     78.02775     156.1797      312.142      1.620     3.77     830.2406       55.042     1419.463        37     1.566     0.986  50.50   0
       653    430.4384     47.7916 307.7629946  +6.6624618     2711.495     4105.651     4071.167     77.52917     155.9312     311.9867      1.564     3.64     829.7555       55.042     457.5223        19     1.378     0.793  55.42   0
       654    251.6319     47.6430 307.8372888  +6.6565174     775.7766     1064.028     1524.812     77.77885     156.1176      312.111      1.632     4.50     832.1281       55.042     106.8531         7     1.069     0.537  46.63   0
       655    267.8332     41.8957 307.8307515  +6.6594353     1533.305     2601.637     3348.713      78.3996     156.0555     312.3904      1.920     4.76     832.9319       55.042     245.3173        18     1.647     0.753  43.39   1
       656    644.0438     39.8988 307.6745100  +6.6728811     19290.91     28229.98     29759.57     78.27585     156.1176     312.4835      1.527     3.69     827.4969       55.042     3055.844        46     1.587     0.958  50.23   0
       657    543.8170     35.9851 307.7162849  +6.6711396     5373.538     8011.426     7944.536     78.02775      155.869     312.2042      1.567     3.85     828.3363       55.042     916.1265        27     1.531     0.846  47.92   0
       658    262.1997     36.1049 307.8332874  +6.6616371     2040.693     3267.937     4821.657     77.77885     155.8068     311.8624      2.070     3.93     832.4988       55.042     324.0417        21     1.385     0.948  50.52   1
       659    270.0268     32.0343 307.8301728  +6.6635811      9777.63     14779.45     15947.31     77.77885     155.9312     312.0489      1.558     3.69     832.9453       55.042     1471.656        39     1.630     0.947  50.13   0
       660     11.3012     34.5783 307.9375781  +6.6538225      1304.53     1687.164     1394.633      78.1519     155.9312     312.0489      1.430     3.97      832.105       55.042     199.2401        11     1.139     0.656  55.42   0
       661    630.4944     30.4979 307.6804556  +6.6763094     3441.072     5516.478     6771.275     78.27585     156.7374      312.111      1.876     5.62     827.2674       55.042     546.2755        29     2.109     0.815  65.12   0
       662    449.3804     31.6042 307.7556695  +6.6697818     23887.24     35131.84     35882.92      77.9034      155.869     312.0799      1.565     3.68     829.1541       55.042     3938.358        47     1.589     0.986  50.30   0
       663    330.0999     32.5337 307.8051970  +6.6653935     1071.692     1691.732     1987.499     78.27585     156.3038     312.2352      1.731     4.64     834.1432       55.042     165.7708         9     1.184     0.626  70.76   0
       664    927.4756     31.7915 307.5570160  +6.6857052     2038.594     2809.079     2854.862      77.9034     155.6823     312.0799      1.504     3.46     826.5252       55.042     311.4827        14     1.210     0.689  60.18   0
       665     35.2562     31.6722 307.9277241  +6.6558298     2591.807     3708.696     3393.585      78.1519     156.1176     312.2352      1.556     3.69     831.2263       55.042     379.3638        21     1.397     0.867  44.91   0
       666    257.8442     28.6408 307.8353488  +6.6645729     3189.527     5015.605     5740.144     78.02775     156.1797     312.1731      1.674     3.86     832.1388       55.042     459.4364        23     1.554     0.802  52.26   0
       667    311.2864     26.7839 307.8132074  +6.6671358     1119.631     1620.471     1955.386      77.9034     155.9312     312.1731      1.681     3.31     834.1432       55.042     196.4932        13     1.137     0.830  37.12   0
       668    947.9554     22.0201 307.5488338  +6.6904239     1083.135     1581.626     1837.941     77.77885     156.0555      312.111      1.544     5.11     825.0714       55.042     158.9623        11     1.180     0.757  50.97   0
       669    104.3020     22.1727 307.8993593  +6.6620780     714.9859      931.832      585.364      78.3996     155.9312     312.2352      1.336     4.23     829.4473       55.042     122.8191         7     1.071     0.476  63.14   0
       670    699.2617     21.1663 307.6521964  +6.6824650     1866.395     2859.293     2646.741     78.02775     156.2418     312.2042      1.601     3.68     826.6811       55.042     310.2791        17     1.434     0.733  50.04   0
       671    265.1461     16.3676 307.8327290  +6.6698864     831.7003      1171.85      1680.96     78.15189     156.1797     312.2352      1.534     3.63      832.424       55.042     151.9534         8     1.038     0.517  55.91   0
       672    210.4731     16.7776 307.8554305  +6.6678787      854.093     1264.641     1310.117      77.9034     155.9934     312.2352      1.638     4.43     829.6024       55.042     131.7877        11     1.236     0.606  49.11   0
       673    718.3798   1020.1738 307.6107352  +6.2705583      1155.47     1963.585      2497.69      77.9034     155.9934     283.8033      1.935     6.32     857.4022       55.042     143.2692        15     1.377     0.814  56.29  16
       674      1.4124     14.9180 307.9423513  +6.6616075     757.6927     933.0569     747.9038     68.92349     125.2445     236.2681      1.139     3.68     830.1765       55.042     138.6027         6     0.794     0.490 -85.58  24
       675    582.0701   1020.0292 307.6673311  +6.2660574     4016.181     6482.744     7205.117     78.02775     156.1797     285.4723      1.764     4.00     860.0477       55.042     510.4634        26     1.537     0.960  51.62  16
       676    757.9597   1015.9521 307.5944443  +6.2736248     1281.965     2138.205      2779.38     78.15189     156.1797      312.142      1.844     4.78     856.9922       55.042     154.6397        17     1.275     0.996  68.22  16
       677    965.5823   1010.3816 307.5084308  +6.2828575     5837.961     10243.03     11062.95     78.02775     155.9312     312.2042      1.892     4.22     854.9848       55.042     675.3213        39     1.767     1.169  53.55   0
       678    249.9858   1010.6573 307.8055126  +6.2587912     1236.983      1872.39     2029.408     77.65411     156.0555     311.9556      1.656     6.20     858.4634       55.042     158.3125        15     1.471     0.893  65.94   0
       679    720.1774   1011.0991 307.6102931  +6.2743659     930.0884       1771.8     2979.603     78.27585     155.9312     312.0489      2.526     6.50     857.3283       55.042     141.2421        12     1.644     0.721  42.40   0
       680    725.2708   1008.3779 307.6082696  +6.2756599     2691.596     4248.105     4849.313      77.9034     156.0555     312.2663      1.658     3.51      857.207       55.042     351.6133        24     1.416     0.918  55.27   0
       681    741.2130   1007.7797 307.6016710  +6.2764400      977.674     1547.857     1411.942     78.02775      155.869     312.1731      1.702     5.72     856.9417       55.042     138.0514        13     1.350     0.724  47.95   0
       682    448.2384   1008.6158 307.7232761  +6.2662869     695.9741     1027.295     667.1001      77.9034     155.9934     312.0178      1.606     5.18     860.2903       55.042     123.5527         9     1.212     0.626  44.85   0
       683    371.8849   1005.8823 307.7550668  +6.2648551      1778.63     2725.535     2833.497     78.02775     156.4898     312.3283      1.657     3.94     859.2271       55.042     236.3744        18     1.322     0.852  50.34   0
       684    982.4356   1003.7309 307.5016560  +6.2861661     596.2859     765.9813     860.9421      78.1519     156.2418     312.3594      1.500     4.04     854.6848       55.042     81.48114         7     0.986     0.475  80.42   0
