#   1 NUMBER                 Running object number                                     
#   2 X_IMAGE                Object position along x                                    [pixel]
#   3 Y_IMAGE                Object position along y                                    [pixel]
#   4 ALPHA_J2000            Right ascension of barycenter (J2000)                      [deg]
#   5 DELTA_J2000            Declination of barycenter (J2000)                          [deg]
#   6 FLUX_APER              Flux vector within fixed circular aperture(s)              [count]
#   9 FLUXERR_APER           RMS error vector for aperture flux(es)                     [count]
#  12 FLUX_RADIUS            Fraction-of-light radii                                    [pixel]
#  13 FWHM_IMAGE             FWHM assuming a gaussian core                              [pixel]
#  14 BACKGROUND             Background at centroid position                            [count]
#  15 THRESHOLD              Detection threshold above background                       [count]
#  16 FLUX_MAX               Peak flux above background                                 [count]
#  17 ISOAREA_IMAGE          Isophotal area above Analysis threshold                    [pixel**2]
#  18 A_IMAGE                Profile RMS along major axis                               [pixel]
#  19 B_IMAGE                Profile RMS along minor axis                               [pixel]
#  20 THETA_IMAGE            Position angle (CCW/x)                                     [deg]
#  21 FLAGS                  Extraction flags                                          
         1    118.0020     24.7509 307.8649736  +6.6682748     6970.888     14903.79     17210.29     83.50801     167.5522     335.3719      2.287     6.24     997.6942     59.19131     775.0119        53     2.183     1.228 -31.51   0
         2    647.7841     15.1214 307.6451337  +6.6899784     4734.496      9712.45     10513.91     83.77609      167.686     335.6393      2.197     6.16     982.0175     59.19131     558.1556        44     2.206     1.087 -30.87   0
         3    567.9713     14.4793 307.6783247  +6.6875793     2430.091     4997.141     5615.934     84.04332     167.8864     335.7729      2.180     6.29     983.6277     59.19131     261.4159        34     1.984     1.082 -29.02   0
         4    368.1375     10.6488 307.7615013  +6.6824808      3975.63     8596.418     9645.234     84.04333     167.8864      335.873      2.288     6.24     994.2625     59.19131     453.1143        42     2.114     1.152 -28.99  16
         5    614.7183     10.0284 307.6590468  +6.6909784     785.0962     1269.053     830.7192     84.04333     167.7528     335.7394      1.648     5.28      983.224     59.19131     123.3748         9     1.354     0.582 -15.46   0
         6     38.3681      5.7891 307.8987072  +6.6734330     1781.959     3710.038     4197.883     83.64216      167.686     316.3098      2.365     6.60     999.2585     59.19131     228.9177        29     1.962     1.104 -41.19  16
         7    443.2908      8.2709 307.7303492  +6.6859769     645.1719     1413.226      1564.68     84.04333     168.1533     335.3385      1.951     5.26     985.8431     59.19131     82.68982         7     1.456     0.536 -31.58  16
         8    264.7006      5.6420 307.8046561  +6.6810852     8330.883     17920.88     20757.06     84.17662     167.8196     315.1736      2.334     6.31     999.2616     59.19131     920.0371        59     2.222     1.296 -30.72  16
         9     29.8477      5.1494 307.9022696  +6.6734111     1047.438     2256.749     2422.586     84.17662     167.8196     309.1759      2.269     6.49     999.5284     59.19131     147.7224        16     1.816     0.652 -32.03  16
        10    732.0255      5.1794 307.6104576  +6.6968943     456.3982     946.8582     1286.314     83.77609     167.7528     309.5021      2.533     3.37     978.8417     59.19131     93.60706         5     1.511     0.217 -26.73  16
        11    330.6560      3.7804 307.7773094  +6.6840629      1489.74     2955.606     2909.489     83.64216     164.1724     291.2886      2.098     6.95     997.6107     59.19131     183.9314        22     1.799     0.961 -36.54  24
        12    589.7602      1.3055 307.6697127  +6.6937478     2305.416      3091.02     3477.934     72.89909     132.9263     252.2633      1.302     3.54     983.4661     59.19131     539.8682        12     1.383     0.444  -5.43  24
        13    358.7752   1005.9174 307.7318599  +6.2711037     853.0765     1407.506     1587.328     84.04332      167.686     335.8062      1.968     4.54     1015.507     59.19131      135.715        10     1.272     0.519 -25.57   0
        14    895.7516   1020.8928 307.5083744  +6.2828280     5493.928     10469.29     11277.33     84.04333     166.2085     296.0607      2.037     6.44      1008.83     59.19131     711.9225        36     2.066     0.905 -29.66  24
        15    206.7590   1002.6058 307.7950949  +6.2673841     605.4902     1390.761     748.6481     83.37365     167.6191     335.5056      2.129     5.47     1017.112     59.19131      105.587         9     1.646     0.512 -24.95   0
        16    850.4046    999.4105 307.5279250  +6.2901921     7049.604     13289.36     14784.98     83.64216      167.686     335.7061      2.022     6.43     1009.774     59.19131     959.6178        42     2.057     0.972 -30.92   0
        17    481.6878    998.7362 307.6810620  +6.2781775     6328.011     12067.09     13553.18     84.17662     168.1533     335.8062      2.043     6.33     1015.447     59.19131     820.8386        42     2.128     0.945 -33.37   0
        18    945.6321    995.2203 307.4885200  +6.2950905     4016.981     7476.342     8380.229     83.64216     167.7528     335.6393      2.034     6.57     1005.853     59.19131      542.006        37     2.072     0.959 -34.64   0
        19    823.9567    995.5643 307.5390369  +6.2909004      9739.57     18756.94     20626.54     83.90981     167.8864     335.6058      2.051     6.57     1009.945     59.19131       1412.8        52     2.190     1.013 -28.86   0
        20    537.0289    995.8424 307.6581785  +6.2812206     1205.006     2122.273      1740.23     83.77609     167.8864     335.6727      1.844     6.75     1015.427     59.19131     182.0602        18     1.770     0.723 -33.21   0
        21    468.4114    994.7149 307.6867103  +6.2793949     3371.594     6545.661     7762.202     83.77609      167.686     335.6393      2.211     6.19     1015.412     59.19131     469.2031        38     2.121     1.108 -15.49   0
        22    577.4608    993.9648 307.6414519  +6.2833456     1195.744     2129.276      2280.29     84.17662     167.9532     335.7729      1.952     6.66     1014.321     59.19131     191.8186        16     1.835     0.678 -28.82   0
        23    421.2509    991.1332 307.7064144  +6.2792985     1665.165     3174.654     3668.566     84.04333     167.8196     335.8062      2.060     7.02     1015.534     59.19131     205.5286        20     1.792     0.771 -38.64   0
        24      3.3050    992.9115 307.8799029  +6.2645674     736.8955     1390.751     969.2514     84.17662     160.2325      284.749      1.748     5.92     1015.485     59.19131     128.1633         9     1.717     0.574 -13.99  24
        25    855.7445    983.1337 307.5262528  +6.2970927     35440.21     65934.45     72606.55     84.30971     167.8196     335.8062      2.007     6.47     1008.988     59.19131     4463.039        73     2.158     1.041 -30.55   0
        26    163.1974    981.4819 307.8138958  +6.2746494     1330.647     2406.279     2298.477     83.50801     167.5522     335.4722      2.015     6.89     1016.644     59.19131     169.9523        18     1.636     0.813 -30.36   0
        27    562.0722    979.6901 307.6483217  +6.2887278     743.4846      1457.98     1270.303     84.17662       168.22     335.8062      1.857     5.03     1014.427     59.19131     124.5318        10     1.597     0.448 -28.86   0
        28    753.6296    976.8281 307.5688699  +6.2962971     1817.809     3295.906     3430.229     83.64216      167.686     335.5724      1.871     7.10     1009.985     59.19131     250.7842        21     1.863     0.758 -27.79   0
        29    701.9080    974.7770 307.5904173  +6.2954209     5136.563     9843.714     11327.43     84.17662     167.7528     335.6393      2.080     6.48     1010.731     59.19131     768.9089        37     2.074     0.970 -30.65   0
        30    488.6605    974.2960 307.6789883  +6.2885048     739.1502     1374.989     1096.388     83.90982     167.9532     335.9064      2.001     6.27     1014.988     59.19131     112.9946        10     2.121     0.521 -28.54   0
        31    171.5376    973.9647 307.8106861  +6.2780335     1180.072     2123.816     2070.056     84.04332     167.9532     335.7729      1.817     6.70     1016.637     59.19131     174.7469        15     1.701     0.753 -32.09   0
        32    135.4823    973.9601 307.8256581  +6.2768273     591.4431     1016.386     1282.006     84.17662     168.0199     335.7394      1.880     4.62     1016.127     59.19131     80.37939         7     1.504     0.403 -26.13   0
        33    890.1476    969.8912 307.5124095  +6.3037069     5581.499     10220.14     11055.35     84.04332     167.7528     336.0065      1.948     6.34     1007.203     59.19131      754.986        33     1.994     0.839 -29.93   0
        34    863.7994    961.5925 307.5236293  +6.3062578     1653.834     3096.103     3373.594     83.50801     167.6191     335.6058      2.057     6.20     1007.809     59.19131     238.1177        19     1.747     0.729 -37.39   0
        35    196.7756    957.7607 307.8007526  +6.2855715     3173.928     6328.668     6712.927     83.77609     167.7528     335.5724      2.061     6.44      1016.66     59.19131     431.2125        30     1.925     0.963 -29.59   0
        36    723.6052    957.7702 307.5819775  +6.3031682      961.855     1945.582      2591.88     83.64216     167.7528     335.6058      2.412     6.88     1009.928     59.19131     164.1663        15     2.071     0.641 -33.86   0
        37    584.5840    957.5280 307.6397178  +6.2986326     3380.691     6359.858     6477.975     83.64216     167.8864     335.7061      1.976     6.14     1013.154     59.19131     448.2173        31     2.053     0.853 -31.44   0
        38    404.4106    957.2273 307.7145484  +6.2927395     531.3652     727.0508     740.9712     83.77609     167.7528     335.6727      1.558     4.64     1015.575     59.19131     91.33008         6     1.016     0.601 -25.89   2
        39    407.7354    955.4506 307.7132275  +6.2935844     724.3422     945.1929     955.6341     84.17662     167.8864     335.8396      1.550     3.50     1015.568     59.19131     117.1891         5     0.798     0.445 -19.72   3
        40    816.2477    954.0134 307.5436307  +6.3078056     696.4297     1179.735     1079.791     83.50801     167.8196      335.539      1.689     5.10     1008.967     59.19131     98.65656         9     1.358     0.541 -16.27   0
        41    908.7719    951.6219 307.5052868  +6.3118722     554.6034     641.6653     166.9086     83.64216     167.7528     335.7061      1.431     4.54     1005.904     59.19131     68.31158         5     1.154     0.507 -58.84   0
        42    888.6385    950.9631 307.5136700  +6.3114746     863.1779     1370.261     1247.577     83.90981     167.8196     335.6727      1.651     4.95     1006.491     59.19131     124.7492         9     1.447     0.479 -25.16   0
        43    509.1882    950.1347 307.6712761  +6.2991695     1241.701     2312.996     2268.936     83.64216     167.7528     335.6727      1.932     7.21     1014.372     59.19131     155.6055        20     1.951     0.746 -29.23   0
        44    233.0218    950.9362 307.7859313  +6.2896039      734.588     1266.261     1978.954     83.77609     167.9532     335.6727      2.041     5.07     1016.761     59.19131     103.1472         8     1.463     0.497 -24.73   0
        45    940.5464    949.9072 307.4921487  +6.3136371     750.3608     1472.721     2268.879     84.04332     167.8864     336.0065      2.628     6.48     1005.046     59.19131     108.6666        12     1.387     0.851 -25.36   0
        46   1020.3350    945.5252 307.4591598  +6.3180990     4862.583     9178.744      9644.93     84.30971     167.9532     303.3184      1.975     6.91     1003.784     59.19131     627.0466        35     2.073     0.846 -30.55  24
        47    548.4643    946.5649 307.6550857  +6.3019552     930.3681      1734.44     1589.406     84.04333     167.9532     335.8396      1.971     5.21     1013.901     59.19131      138.756        10     1.260     0.609 -27.02   0
        48    228.3083    944.1699 307.7881167  +6.2922407     1061.054     2080.348     2427.902     84.30971      167.686     335.7729      1.861     6.18     1016.724     59.19131     164.2595        13     1.906     0.564 -39.74   0
        49    695.2582    940.3968 307.5943323  +6.3093992     690.4735     1353.734     1859.931     83.50801     167.8196      335.539      1.960     4.87     1010.064     59.19131      113.946         9     1.591     0.423 -37.46   0
        50    832.7927    936.7020 307.5373399  +6.3155065     5407.338     10147.99     10814.15     83.90981     167.5522     335.6058      1.997     6.45      1007.84     59.19131     769.1454        32     2.051     0.816 -30.36   0
        51    368.7180    934.0244 307.7301513  +6.3011294     1605.953      3104.91     3450.277     83.90981      167.686     335.7394      2.125     6.45     1015.708     59.19131     206.5251        22     1.848     0.886 -27.76   0
        52    270.4060    932.3038 307.7710351  +6.2985510     7328.296     14026.95     14923.02     83.90982     167.6191     335.6058      2.016     5.87     1016.509     59.19131     847.7372        44     2.085     1.007 -31.80   0
        53    190.4868    931.2443 307.8042583  +6.2963125     5485.141     10658.74     11729.86     84.17662     167.8196     335.8062      2.101     5.99     1016.373     59.19131     667.7966        40     2.060     1.016 -32.09   0
        54    518.6630    925.8628 307.6681574  +6.3095107     906.0175     1900.954     2515.203     84.17662     167.9532     335.8396      2.215     7.61     1013.739     59.19131     134.0824        16     1.823     0.889 -22.97   0
        55    702.6970    925.4008 307.5917463  +6.3158410     667.1982     1262.619       1610.6     83.64216     167.5522     335.4388      2.145     6.56     1009.633     59.19131     89.63287        10     1.827     0.661 -26.99   0
        56    848.4887    921.8738 307.5313184  +6.3221534     912.8429     1435.047     1701.683     84.17662       168.22      335.873      1.956     6.16      1006.73     59.19131      143.585        13     1.673     0.637 -33.72   0
        57    803.8459    921.0711 307.5498852  +6.3209988     637.9246     1382.152      1761.06     84.17662     167.9532     335.8062      2.351     6.14     1008.468     59.19131     137.5885         8     1.765     0.601 -24.66   0
        58    346.4273    920.5911 307.7398603  +6.3059322     517.7917     880.6385     798.9056      83.7761     167.7528     335.6727      1.741     4.13     1015.861     59.19131     87.95728         5     1.004     0.486  -4.93   0
        59    153.0225    921.0000 307.8201613  +6.2992883     509.0295     794.5574     1069.219     83.64216     167.5522     335.5056      1.430     3.81     1016.066     59.19131      63.7951         5     1.445     0.289   0.00   0
        60    916.7202    916.7879 307.5031523  +6.3265241     606.4377     1157.805     2213.255     83.77609     167.6191     335.6393      3.226     5.77      1004.87     59.19131     92.99438         8     1.176     0.798  35.95   0
        61    684.6413    915.1249 307.5995895  +6.3194833     1325.834     2458.922     2767.327     84.04333     167.9532     335.8396      1.971     6.71     1009.746     59.19131     180.8707        18     1.919     0.658 -32.12   0
        62    549.2327    911.3919 307.6559487  +6.3165082     651.3491     1118.062     1029.626     83.64216     167.8196     335.6058      1.741     4.61     1013.119     59.19131     100.6674         7     1.400     0.431 -31.19   0
        63    916.0434    910.5655 307.5036417  +6.3290717     877.9708     1723.105     2783.312     83.90981     167.9532     335.6393      2.463     5.30     1004.816     59.19131     143.5045        11     1.537     0.516 -30.03   0
        64    471.5552    909.7247 307.6882630  +6.3146028     580.5671     1472.892       2067.4     84.04333     168.0199     335.8396      3.385     5.51     1014.188     59.19131     152.1814         8     1.368     0.642 -54.48   2
        65    603.3273    908.3051 307.6335875  +6.3195884     1832.994     3452.129     3603.065     84.04333     168.0866     335.8062      1.978     6.31     1011.324     59.19131     254.2209        23     1.984     0.733 -30.74   0
        66   1005.4288    906.3882 307.4666594  +6.3337686     752.2354     1332.093     787.5775     83.64216     167.7528     335.6727      1.781     6.17     1002.956     59.19131     129.3899        12     1.531     0.699 -20.79   0
        67     17.6702    903.7155 307.8769512  +6.3018882     1464.828     2828.648     3097.965     84.30971       168.22     335.8396      2.101     7.07     1015.128     59.19131     189.2882        19     1.859     0.753 -28.61   0
        68    881.8781    903.5663 307.5180651  +6.3308261     608.6009     1059.292     541.0694     84.04333     167.9532     335.7729      1.998     4.67     1005.436     59.19131     132.5654         8     1.845     0.335 -24.46   0
        69    765.3223    904.2993 307.5664462  +6.3266431     587.3909     987.6183     907.2922     83.77609     168.1533     335.8396      1.220     3.44      1008.44     59.19131     109.6718         5     1.178     0.290 -35.81   0
        70    143.7324    903.3948 307.8246131  +6.3062481     1685.096     3182.024     3030.877     83.64216     167.6191     335.6058      1.989     7.03     1016.005     59.19131      219.304        21     1.714     0.808 -29.57   0
        71      1.8068    903.8049 307.8835356  +6.3013189     1478.057     1938.775      1886.55     78.66879     140.8703     260.7859      1.299     2.65     1015.029     59.19131     267.6727        10     0.883     0.692 -77.18  24
        72    177.7622    900.0302 307.8105951  +6.3087781     655.6758     1240.392     1540.593     83.77609      167.686     335.6727      2.401     6.11     1016.267     59.19131     116.3079        11     1.879     0.559 -30.76   0
        73    283.9149    898.8489 307.7665525  +6.3128206     614.9095     1414.199     2143.262     84.17662     167.9532      335.873      2.768     4.70     1016.528     59.19131       92.323         5     1.047     0.694 -23.94   2
        74    597.9759    897.3954 307.6361763  +6.3239158     5241.523     10149.45     11168.42     83.64216      167.686     335.6393      2.067     6.40      1011.17     59.19131     728.3157        37     2.095     0.916 -30.36   0
        75    835.5864    893.7460 307.5376192  +6.3333416     2237.422     4256.985     4428.696     83.50801     167.8864      335.539      2.047     5.86     1006.349     59.19131      336.186        26     1.917     0.863 -29.82   0
        76    281.0825    890.5718 307.7680077  +6.3161444     11925.39     23314.45     26572.08     84.04332     167.7528     335.7394      2.115     6.10     1016.551     59.19131     1462.286        56     2.159     1.090 -29.04   0
        77     16.1203    891.3864 307.8780114  +6.3069282     1042.178     1785.349     2044.221     83.77609      167.686     335.6059      1.829     6.38     1015.098     59.19131     122.1255        15     1.407     0.812 -21.18   0
        78    152.3846    890.0269 307.8214712  +6.3120592     901.7113     1703.803     2138.883     83.77609     167.7528     335.7061      2.147     5.58     1016.079     59.19131     132.5678        11     1.534     0.572 -39.41   0
        79    331.6780    889.7539 307.7470238  +6.3181752     461.2917     634.9508     824.6918     84.04333     168.0199     335.8062      1.654     3.45     1016.055     59.19131     79.58472         5     1.231     0.279 -34.84   0
        80    893.7827    906.3260 307.5130286  +6.3300823      619.331     1096.986     1090.084     83.64216     167.7528     335.7061      2.322     4.24     1005.212     59.19131     123.2756         7     1.673     0.306 -34.24   0
        81    359.1383    881.4374 307.7359001  +6.3225285     798.2839     1684.222     1531.905     84.17662     168.0199     335.8062      2.040     6.72     1015.735     59.19131     108.5626        13     1.522     0.832 -34.90   0
        82     44.6621    881.2090 307.8665027  +6.3120892     1205.197     2223.351     2919.507     83.50801     167.8196     335.5724      1.966     6.83     1015.318     59.19131     182.4297        16     1.816     0.720 -31.45   0
        83    611.6227    880.9484 307.6310613  +6.3311641     369.6228     993.6091      999.639     83.64216     167.9532     335.6727      2.260     4.87      1010.21     59.19131      78.2207         5     1.376     0.489  47.70   2
        84    613.2639    877.0411 307.6305109  +6.3328327     591.7029     908.7559     1400.005     84.17662     167.8864     335.9064      2.043     4.96     1010.069     59.19131     88.73938         5     1.289     0.540 -27.38   2
        85    826.2991    875.4905 307.5420881  +6.3405726     1632.737     3021.791     3423.369     84.17662     168.4198     335.7729      2.048     7.25     1005.888     59.19131     236.7326        19     2.033     0.723 -35.23   0
        86    439.8452    878.0404 307.7024976  +6.3266297     540.9794     976.6947     1180.041     83.90981     167.9532     335.6727      2.135     3.61     1014.387     59.19131     104.1629         5     0.969     0.387 -29.92   0
        87     27.9422    874.9107 307.8736588  +6.3141296     1973.948     3784.888     4637.852     84.04333     167.8864     335.9398      2.259     8.48     1015.178     59.19131     267.0678        29     2.272     0.899 -31.82   0
        88    796.8538    874.9504 307.5543351  +6.3398153     1518.464     2800.383      2815.91     84.30971     167.9532     335.8396      1.933     6.07     1006.373     59.19131     219.4124        20     1.840     0.744 -30.35   0
        89    760.1816    874.3066 307.5695870  +6.3388598     2329.683     4428.179     4648.681     84.04333      167.686     335.7061      2.050     6.62     1007.878     59.19131     325.0635        26     2.133     0.774 -34.03   0
        90    496.1769    865.7968 307.6795151  +6.3335686     244944.1       477387     534366.8     83.77609     167.6191     335.6393      2.124     6.00     1013.292     59.19131     31689.88       172     2.305     1.283 -31.54   0
        91    583.2139    869.0234 307.6432601  +6.3351416     886.7847     1602.809      1844.29     83.90981     167.7528     335.7061      2.170     8.45     1011.043     59.19131     129.5626        16     1.687     1.183 -27.29   0
        92    340.5369    868.3682 307.7440651  +6.3273043     5636.889     11024.64     12430.18     83.90982     168.0199     335.7729      2.081     5.99     1015.981     59.19131     706.3477        38     2.042     0.980 -30.13   0
        93    283.6440    866.7739 307.7677458  +6.3260591     9096.107      17975.4      20099.8     83.77609     168.0199     335.7061      2.149     6.04     1016.606     59.19131      1213.65        48     2.162     1.053 -30.83   0
        94    602.0094    863.0167 307.6356560  +6.3382497     2717.639     5497.807     5613.278     83.90981      167.686     335.7061      2.090     6.39      1010.01     59.19131     366.4703        31     1.994     0.894 -30.84   0
        95    834.3866    861.9956 307.5391815  +6.3464156     4174.077     7933.694     9588.002     83.77609      167.686     335.6727      2.158     6.05     1005.354     59.19131     584.0046        37     2.120     0.952 -26.79   0
        96    673.4955    860.0361 307.6060673  +6.3418650     665.7057      1331.09     1395.958     84.30971     167.8196     335.9398      2.083     3.76     1008.873     59.19131     96.44403         6     1.223     0.333 -39.27   0
        97    576.9441    857.0478 307.6462663  +6.3398786     2471.369     4861.232     6041.367     84.17662     167.9532     335.9064      2.320     5.79     1010.903     59.19131     309.5009        30     2.040     0.899 -28.49   0
        98    569.0720    853.0942 307.6496685  +6.3412488     1595.013     3660.277     4865.761     84.04333     168.0199     335.8396      2.811    10.69     1011.062     59.19131     237.3259        35     2.895     1.099 -47.72   0
        99    967.8856    856.1923 307.4839312  +6.3532534     3706.069     6899.953     7369.473     83.77609     167.6191     335.6393      1.946     6.98     1002.286     59.19131      521.834        29     1.982     0.801 -27.19   0
       100    765.3571    856.1534 307.5680464  +6.3465300     1357.219      2371.11     3180.471     84.17662     167.9532     335.7394      1.986     6.19     1007.097     59.19131     207.9795        15     1.747     0.616 -42.42   0
       101    891.6030    855.2138 307.5156458  +6.3511208     573.6946     766.6252     479.4283     83.77609     167.6191     335.6727      1.559     4.37     1004.269     59.19131     121.1308         7     1.720     0.316 -23.58   0
       102    853.4116    849.7524 307.5316903  +6.3521057     2443.292     4396.589       4207.7     83.50801     167.8196     335.4722      1.878     6.47     1004.673     59.19131     361.6066        25     2.092     0.685 -29.33   0
       103    311.8177    845.6059 307.7567587  +6.3357447     1840.651     3571.667     3877.761     83.77609     167.5522     335.6393      2.128     6.13     1016.239     59.19131     247.6984        24     1.820     0.860 -24.94   0
       104    447.7865    835.4703 307.7006318  +6.3444775      2251.53      4366.28     5031.852     83.64216      167.686     335.6727      2.128     6.32     1013.483     59.19131     333.1245        27     1.996     0.814 -34.30   0
       105    792.3143    834.6843 307.5575704  +6.3562953     737.8648     1293.153     1516.336     83.90982     168.1533     335.8396      1.917     4.84     1005.307     59.19131     112.8845         9     1.165     0.570 -41.68   0
       106    494.6404    831.5515 307.6813048  +6.3476614     4454.526     8752.774     10326.16     84.04333     167.9532     335.7061      2.170     5.91     1012.576     59.19131     572.9028        42     2.210     1.037 -28.01   2
       107    501.6681    830.6939 307.6784149  +6.3482503     851.2335     1694.553     2503.938     84.04333     168.1533     335.8396      2.398     5.18     1012.301     59.19131     147.5471        10     1.558     0.486 -27.60   3
       108    204.7724    832.9787 307.8016398  +6.3373762      484.812     778.4013     1081.854     83.64216     167.7528     335.7728      1.641     4.72     1016.618     59.19131     77.40118         5     1.252     0.505 -18.04   0
       109    830.6879    829.5393 307.5418054  +6.3596980     963.7858     1819.002     1849.255     84.17662     168.1533     335.8396      1.935     5.66     1004.242     59.19131     153.8383        12     1.783     0.507 -29.07   0
       110    412.9237    829.8934 307.7152983  +6.3456157     1335.282     2184.416     2054.565     83.90981     168.1533     335.8062      1.869     6.06     1013.795     59.19131     169.6379        14     1.406     0.734 -28.22   0
       111     55.6078    828.7341 307.8637296  +6.3341292     710.9911      1476.85     1543.481     83.64216      167.686     335.6393      2.221     4.08     1015.408     59.19131     127.0646         6     0.977     0.729  24.30   2
       112    465.2793    825.4832 307.6937029  +6.3491869     14452.13     28163.26     30594.33     84.30971       168.22     335.9398      2.092     6.04     1013.137     59.19131     1758.435        60     2.158     1.114 -29.92   0
       113    879.1105    823.7250 307.5218890  +6.3637110     2918.544     5557.778     5866.176     84.17662     168.2866     335.9064      1.984     6.40     1003.064     59.19131     422.7495        26     1.986     0.799 -31.59   0
       114    258.0558    814.1636 307.7801456  +6.3469315     2304.941     4462.387     5294.514     84.04333     167.9532     335.8396      2.147     6.16     1016.856     59.19131     301.4783        25     1.889     0.804 -26.33   0
       115    723.4318    810.0447 307.5870056  +6.3641775     41754.87     78869.85     87010.84     83.90981     168.0199     335.6727      2.044     6.07     1006.447     59.19131     5348.096        73     2.202     1.062 -30.82   0
       116    180.7125    807.7279 307.8124835  +6.3469992      3765.55     7682.721     10284.12     84.30971       168.22     335.8062      2.476     6.25     1016.413     59.19131     441.8962        40     1.921     1.320 -37.90   0
       117    365.6363    809.3561 307.7356286  +6.3525169     623.4191     1119.057     929.2673     83.90982     167.8864     335.6727      1.855     4.64     1014.452     59.19131     82.95361         6     1.244     0.492 -30.50   0
       118    651.6909    804.6661 307.6169821  +6.3640073     15847.17     31172.48     35441.15     84.17662     168.1533     335.8396      2.135     5.92     1007.756     59.19131     2038.023        57     2.227     1.047 -31.52   3
       119    645.3793    801.1678 307.6197210  +6.3652417     64590.64     124773.4     139498.8     83.64216     167.7528     335.6393      2.096     6.16     1007.757     59.19131     7993.637        92     2.251     1.144 -31.05   3
       120    848.6172    805.2979 307.5351713  +6.3703073     6653.785     12332.64     14052.78     84.17662     167.7528     335.5724      1.985     6.03     1002.811     59.19131     871.7557        37     2.081     0.859 -31.45   0
       121    290.2859    801.9979 307.7671703  +6.3530351     14684.19     29208.24     33315.89     83.50801     167.5522     335.5056      2.172     6.03     1016.753     59.19131     1885.513        61     2.249     1.123 -31.73   0
       122    352.2019    799.8560 307.7415280  +6.3559913     15291.56     31103.77     35244.79     83.50801     167.6191     335.4722      2.195     6.07      1014.62     59.19131     1940.425        64     2.218     1.185 -32.01   0
       123    340.7862    801.5361 307.7462125  +6.3549156     820.4702     1505.952     2180.214     83.64216     167.7528     335.6727      2.431     4.65     1015.054     59.19131          131         6     1.099     0.559 -26.32   2
       124    889.0154    798.9059 307.5186066  +6.3742917     1501.544     3203.389     3360.781     83.90981     167.7528     335.6393      2.065     7.22     1001.858     59.19131       205.28        21     2.033     0.719 -27.80   0
       125    180.1944    786.3690 307.8134192  +6.3558034     756477.8      2051626      2493567     83.50801     167.8196     335.5724      2.681    13.78     1016.008     59.19131     63849.12       540     2.786     1.896 -34.35   4
       126    586.1020    795.8092 307.6445205  +6.3654774     4532.835     8980.615     10942.05     83.90981     167.5522     335.5724      2.274     5.81     1008.384     59.19131     628.4631        37     2.200     0.918 -32.17   0
       127    374.9528    793.9522 307.7322780  +6.3591906     1266.409     2484.401       2964.3     84.17662     167.8196      335.873      2.191     6.97     1013.762     59.19131     181.7529        18     1.668     0.817 -30.49   0
       128    814.2475    787.7470 307.5500345  +6.3764122     623.4073     1213.629     1269.748     84.30971     167.9532     335.8396      2.238     5.68     1003.396     59.19131     117.9911         9     1.697     0.537 -36.71   0
       129    220.3574    787.8257 307.7966900  +6.3565471     703.0156     1338.863     1674.782     83.77609     167.9532     335.6058      2.098     5.26      1016.42     59.19131     106.4726         7     1.093     0.714 -51.50   0
       130    621.3448    785.8251 307.6302185  +6.3707770     1649.992     3167.533     2934.207     83.77609     167.9532     335.6058      2.148     7.36     1007.555     59.19131     219.0912        22     2.085     0.728 -31.65   0
       131    540.0225    787.3578 307.6639426  +6.3674299     775.3104     1243.769     1122.642     83.77609     167.8196     335.6058      1.678     4.51      1009.05     59.19131     135.8128         7     1.130     0.512 -28.07   0
       132    355.1120    782.5323 307.7409028  +6.3632438      37935.7     75904.41     86295.73     84.30971     168.1533     335.8396      2.175     6.05      1013.71     59.19131     4499.638        87     2.295     1.220 -31.94   0
       133     65.6205    786.3681 307.8610023  +6.3519627     798.7189     1236.211     1651.627     83.64216     167.7528     335.6393      2.146     4.90     1015.264     59.19131     136.7422         8     1.328     0.512 -46.50   0
       134    255.5681    785.5068 307.7821448  +6.3586840      690.295     1278.625     3702.541     84.30971     167.7528     335.8396      5.216     5.38     1016.242     59.19131     106.4919         6     1.282     0.636 -38.77   0
       135    472.7702    781.6069 307.6920677  +6.3675591     4977.742     9838.785     10751.43     83.64216     167.7528     335.5724      2.120     5.86     1011.909     59.19131      604.024        40     2.154     0.974 -30.27   0
       136    389.8250    780.1575 307.7265657  +6.3653855     3388.437     6828.858      8417.71     83.77609     167.8864     335.5724      2.201     5.97     1012.904     59.19131     407.5029        39     2.048     1.078 -27.02   0
       137    845.5413    796.7614 307.5367349  +6.3737307     5238.353      9864.29     10814.24     84.17662     168.0199      335.873      2.015     6.21     1002.671     59.19131     705.7969        38     2.068     0.921 -31.25   0
       138    718.0505    778.1385 307.5903112  +6.3771763     8431.521     16094.61     17800.62     84.17662     167.8864      335.873      2.087     5.93     1005.494     59.19131     1080.618        45     2.222     0.943 -30.39   0
       139    739.3558    772.9879 307.5816351  +6.3800136     922.5464     1998.807     2216.335     83.64216     167.8196     335.5056      2.253     6.67     1004.757     59.19131     139.4702        14     1.826     0.713 -42.40   0
       140    386.1572    773.6187 307.7283092  +6.3679635     1615.972     3411.812     4066.721     83.64216     167.8196     335.5724      2.153     6.66     1012.758     59.19131     229.8712        24     1.883     0.908 -31.11   0
       141    912.7566    766.7435 307.5098231  +6.3883656     1079.705     2148.646     3092.524     84.04333     167.9532     335.8062      2.829     6.23     1000.834     59.19131     176.9657        15     1.826     0.597 -30.26   2
       142     84.1579    770.3646 307.8538441  +6.3591941     2155.783     4663.863     5384.195     83.90981     167.9532     335.6393      2.295     6.43     1015.197     59.19131     245.9125        32     2.045     1.063 -28.11   3
       143     75.8070    770.1477 307.8573196  +6.3590036      8149.07     16449.79     19341.24     83.64216     167.7528     335.4722      2.186     6.12     1015.135     59.19131     969.8498        54     2.174     1.146 -30.40   3
       144     68.2159    767.4115 307.8605647  +6.3598790      2072.32     4287.122     5533.701     83.90982     167.6191     335.7061      2.294     6.93     1015.034     59.19131     252.2281        28     1.859     0.984 -28.84   3
       145    863.4920    766.7352 307.5302854  +6.3867300     4908.986      9205.39     10083.05     84.17662     168.1533     335.8062      2.008     5.88     1001.832     59.19131     677.2297        33     2.007     0.866 -30.76   0
       146   1006.3342    765.1378 307.4710092  +6.3921400     1432.714     2586.005     2708.643     84.17662     167.9532     335.8062      1.882     6.71     998.1359     59.19131     207.5537        19     1.986     0.636 -28.37   0
       147    618.7874    764.5685 307.6319947  +6.3794712     1167.007     2069.081     2129.532     83.64216      167.686     335.7394      2.041     6.68     1006.809     59.19131     143.9415        17     1.836     0.683 -27.83   0
       148    505.6848    763.6705 307.6790005  +6.3760668     1625.676     3251.068     4148.305     84.30971       168.22     335.8396      2.343     6.89         1010     59.19131     216.0629        25     1.877     0.954 -25.07   0
       149    353.7602    763.3729 307.7421095  +6.3711118     973.1678     1883.158     2140.981     83.77609     167.7528     335.6727      2.066     5.94     1012.754     59.19131     108.8116        12     1.342     0.739 -28.66   0
       150     68.1556    761.1416 307.8608015  +6.3624666     1385.443     3139.483     3887.968     84.04332     167.8864     335.9064      2.333     7.10     1014.957     59.19131     183.1195        28     2.011     0.957 -31.60   0
       151    857.8126    758.6566 307.5329150  +6.3898777     2301.681     4463.082     4748.944     83.50801     167.8864     335.4722      2.063     6.51     1001.834     59.19131     307.3533        28     2.109     0.802 -30.83   0
       152    918.1058    757.9842 307.5078947  +6.3921614     1363.732     2652.402     2944.598     83.90981     167.7528     335.6393      1.982     6.30     1000.505     59.19131     181.3308        16     1.923     0.579 -33.35   0
       153    887.2025    758.2839 307.5207204  +6.3910096     2255.872     4276.304     4805.761     83.50801     167.5522     335.4722      2.000     6.69     1001.205     59.19131     326.0431        23     1.945     0.755 -27.71   0
       154    610.3242    757.7323 307.6357395  +6.3820124     960.1465     1826.318     2023.939     84.30971     168.0866     335.8062      1.903     6.35     1006.607     59.19131       148.18        13     1.853     0.611 -33.77   0
       155    759.7847    755.0000 307.5737535  +6.3881238     635.6467      1321.68     1313.361     83.64216     167.5522     335.5056      1.620     3.92     1003.685     59.19131     128.5354         5     1.523     0.289   0.00   2
       156    182.4719    753.0474 307.8135975  +6.3696420      1418.49     2786.377     3527.816     84.17662     168.0199     335.8062      2.251     6.35     1015.104     59.19131     196.6168        19     1.705     0.813 -30.57   0
       157    875.7344    748.1078 307.5258246  +6.3948310     652.2939     1076.491     906.7738     84.17662     168.1533     335.8062      1.729     5.61      1001.32     59.19131     106.1217        11     1.884     0.470 -26.90   0
       158    849.0153    747.4533 307.5369445  +6.3942122     967.7394     1756.863     1650.255     83.50801     167.9532     335.5056      2.101     6.02     1001.806     59.19131     149.0366        14     1.846     0.551 -32.76   0
       159     97.8950    748.0914 307.8488910  +6.3688538     589.2662     940.3986     1087.356     84.17662     168.4864     335.8062      1.862     4.00     1015.029     59.19131     99.58911         5     1.027     0.445 -44.64   0
       160    902.2381    746.0664 307.5148845  +6.3965560     1887.457     3323.336     4103.937     84.04332     167.8864     335.9064      1.911     6.45     1000.616     59.19131     256.4808        22     1.971     0.723 -27.05   0
       161    621.6225    745.2841 307.6314649  +6.3875308     641.8572     1290.823     1703.304     84.04333     167.6191     335.7061      2.214     7.20     1006.066     59.19131     109.2897        10     1.764     0.824 -26.83   0
       162    976.0292    740.0815 307.4844352  +6.4014819     5527.184     10521.02     11545.05     84.04333     167.8196     335.8062      1.986     6.57      998.552     59.19131     739.4266        37     2.077     0.853 -32.27   0
       163    943.6370    739.5703 307.4979067  +6.4006161      1351.13     2733.602     2857.899      83.7761      167.686     335.6393      2.107     6.62     999.3611     59.19131     212.9659        17     1.813     0.679 -28.77   0
       164    745.0870    738.0444 307.5804270  +6.3946373     752.8692     1108.739     725.2922     84.17662     167.8196     335.8062      1.886     3.77     1003.505     59.19131     131.5338         6     0.974     0.420 -50.18   0
       165    831.5263    735.3843 307.5446131  +6.3986149     1199.623     2308.147     2210.707     83.64216      167.686     335.7061      1.974     6.68     1001.766     59.19131     182.1926        18     1.813     0.762 -31.18   0
       166    805.8257    730.3669 307.5554563  +6.3998315     690.2898     1086.662     988.5583     83.64216     167.7528     335.6393      1.642     5.06     1001.922     59.19131     142.0243         9     1.561     0.465 -25.33   0
       167    788.8926    726.2717 307.5626270  +6.4009591     1080.785     1952.941     1889.772     84.04333     168.0866     335.8396      1.912     6.18     1002.151     59.19131     168.5814        15     1.573     0.702 -26.47   0
       168     51.7794    726.6313 307.8687684  +6.3761703     514.2955     962.0638     1103.057     83.64216     167.7528     335.6727      1.486     4.50     1014.478     59.19131     79.71527         5     1.209     0.475  -4.27   0
       169   1006.3373    718.8384 307.4725572  +6.4112634     2325.658     4481.821     5904.793     84.17662     167.9532      335.873      2.349     8.39     996.8613     59.19131     287.5306        32     2.536     0.776 -19.87   0
       170    600.1292    714.1718 307.6414374  +6.3996639     4215.877      8463.42     10059.87     83.90981     167.9532     335.7728      2.165     6.43     1005.603     59.19131     506.7437        39     2.265     0.957 -27.17   0
       171    814.1800    715.0206 307.5525008  +6.4064482     4168.439     4303.044     4344.412     83.90981     167.8864     335.7394      0.459     0.00     1001.463     59.19131      3031.44         5     0.448     0.293  42.83   0
       172    546.9152    713.3987 307.6635661  +6.3982071     999.0612     1955.082     1837.814     83.37364     167.4853     335.4722      1.977     6.53     1006.943     59.19131     131.5992        14     1.777     0.674 -27.11   0
       173    457.7045    713.1547 307.7006280  +6.3953281     586.0649     1364.488     1332.557     84.17662     167.8864     335.9398      2.178     4.94     1009.388     59.19131     98.29181         8     1.708     0.405 -41.93   0
       174     63.2046    709.8513 307.8645901  +6.3834839      2547.19     5313.282     6027.201     83.50801     167.7528     335.3719      2.165     6.72     1014.455     59.19131     355.0277        32     1.988     1.001 -31.27   0
       175    937.0701    709.4603 307.5016426  +6.4128341     1902.626     3575.787     4013.254     84.30971     167.9532     335.8396      2.036     6.37     999.1002     59.19131     259.9985        24     1.974     0.815 -33.79   0
       176    574.1101    709.7804 307.6523921  +6.4006094      1472.74     3034.697     3088.363     84.04332      167.686     335.6393      2.165     6.36     1006.151     59.19131     189.9266        18     1.573     0.864 -31.35   0
       177    846.9473    706.0035 307.5391927  +6.4112634     2846.736     5526.096      5618.89     83.50801     167.7528     335.3719      2.076     5.95     1000.726     59.19131     381.9585        31     2.012     0.963 -30.33   0
       178    717.0054    706.2184 307.5931589  +6.4068466     14364.28     28172.27      30889.8     83.77609     167.5522     335.6058      2.083     5.99      1003.11     59.19131     1835.661        57     2.181     1.058 -30.81   0
       179    444.8886    705.9308 307.7061941  +6.3978835     566.3639     1261.766     1131.502     84.30971       168.22     335.7728      2.103     6.48     1009.461     59.19131     77.98132         9     1.475     0.800 -61.86   0
       180    416.4919    706.0704 307.7179840  +6.3968767     865.2646     1606.621       1277.7     84.17662     168.0866     335.8396      1.951     6.31     1010.203     59.19131     116.8329        11     1.568     0.714 -25.83   0
       181    190.6500    699.7681 307.8119984  +6.3919212     4329.597      8618.62     9365.957     84.04333     167.9532     335.7394      2.104     6.32     1013.626     59.19131     526.3535        40     2.139     1.019 -32.17   0
       182    597.5910    699.0034 307.6430013  +6.4058442     4909.361     9692.704     11023.48     83.50801     167.6191     335.6393      2.154     5.93     1005.307     59.19131     595.1421        43     2.156     1.058 -30.08   0
       183    250.0020    709.5604 307.7870170  +6.3898649      644.722     1126.606     620.5006     83.23906      167.686     335.5056      1.864     4.80     1013.224     59.19131     89.45325         5     1.171     0.559 -50.11   0
       184    857.5615    691.8961 307.5352567  +6.4174435     960.8386     1877.716     1995.234     84.17662     167.8196     335.9398      2.229     7.10     1000.099     59.19131     143.0438        15     1.768     0.799 -35.97   0
       185    669.4386    687.5051 307.6135446  +6.4129900     2592.425      5216.22      6228.68     84.30971     167.8196     335.9398      2.301     6.59     1003.526     59.19131     320.4431        35     2.147     1.036 -29.91   0
       186    623.7939    688.1445 307.6324824  +6.4112035      647.123     996.0018     563.9596     83.64216     167.8196     335.4722      1.704     5.39     1004.537     59.19131     95.34698         9     1.161     0.705 -22.57   0
       187    935.6058    684.0526 307.5031017  +6.4232796     6609.294        12499     13797.11     83.64216      167.686     335.4722      2.023     6.73     998.8347     59.19131     883.8669        39     2.150     0.847 -31.21   0
       188    874.0601    684.6207 307.5286474  +6.4209976     1705.653     3121.669     3291.609     83.77609     167.8864     335.7061      1.908     6.81     999.6622     59.19131     240.8651        21     1.890     0.724 -28.53   0
       189    109.4580    685.3009 307.8462088  +6.3951749     3968.357     3850.491     3457.544     83.90982     167.9532     335.9731      0.782     1.21     1014.147     59.19131     1297.365         6     0.574     0.469  41.31   0
       190     13.0207    678.8177 307.8864816  +6.3946172     17708.63     36472.88     40998.55     83.90981     167.8196     335.7061      2.186     6.06     1014.375     59.19131     2151.257        67     2.203     1.225 -32.67  16
       191    474.5004    679.8324 307.6947729  +6.4096522     1299.142     2651.082     2947.553     84.17662     167.8196     335.9731      2.659     7.40     1007.669     59.19131     157.5648        20     1.842     0.832 -34.31   0
       192   1002.2629    673.9396 307.4757522  +6.4296727     3309.674     5925.545     6076.592     84.17662     167.9532     335.8396      1.936     5.93     994.8667     59.19131     451.6207        27     1.978     0.810 -30.68   0
       193    863.9988    675.9995 307.5331155  +6.4242236     719.9087     1412.513     1627.903     83.50801     167.4853     335.4722      2.113     4.73      999.453     59.19131     114.0691         9     1.410     0.451 -30.46   0
       194    442.1580    677.2496 307.7082935  +6.4096382     907.9717     1974.399     2628.378     84.30971     167.9532     335.7729      2.618     5.61     1008.462     59.19131      114.331         8     1.169     0.759 -46.73   2
       195    658.7749    671.2936 307.6185184  +6.4193302     2420.632     4731.347     5013.136     84.30971      167.686     335.6393      2.070     6.18     1003.083     59.19131     319.7786        31     2.114     0.952 -28.88   0
       196    680.9495    669.3519 307.6093729  +6.4208716     2731.485     5540.253     5783.777     84.17662     167.8196     335.7729      2.136     6.16     1002.457     59.19131     367.7965        32     1.983     0.951 -32.33   0
       197    512.4093    667.1252 307.6794544  +6.4161670     2277.809     4413.089     4815.115     83.77609     167.4853     335.6727      2.061     5.68     1006.077     59.19131     315.2407        27     1.858     0.911 -28.22   0
       198    348.8531    667.4032 307.7473801  +6.4105851     904.0609     1971.747     1895.149     83.50801     167.7528     335.3719      2.001     6.62     1010.403     59.19131     151.0357        15     1.839     0.669 -23.07   0
       199    256.1695    666.5253 307.7859064  +6.4078456     975.2119     2034.799     1877.707     84.04333     167.9532     335.8062      2.099     6.87     1011.757     59.19131      154.583        16     1.880     0.704 -34.71   0
       200    953.8354    665.5024 307.4961506  +6.4315477     3866.493     7246.335     7879.703     84.17662     167.8196     335.9731      1.975     6.10     997.3805     59.19131     578.1418        29     2.007     0.807 -31.74   0
       201    919.2173    664.3497 307.5105691  +6.4308725     6090.438     11532.62     12724.75     83.64216     168.0199     335.5724      2.024     6.17     998.6723     59.19131      831.395        40     2.082     0.902 -30.67   0
       202    172.9781    666.7083 307.8204537  +6.4049833     1101.634     2169.433     1966.871     84.17662     167.7528     335.6393      1.962     6.28     1012.904     59.19131     138.1097        14     1.471     0.752 -22.76   0
       203    364.7520    658.4630 307.7410775  +6.4148094     2058.079     4210.442     4713.992     84.04333     167.8196      335.873      2.206     6.01     1009.715     59.19131     229.1956        33     2.017     1.064 -34.22   0
       204     77.7699    657.6902 307.8603026  +6.4055157     16454.17     34338.82     38803.91     84.30971      167.686     335.7729      2.224     6.12     1013.512     59.19131     1879.151        64     2.202     1.240 -33.24   0
       205    745.5983    658.8849 307.5828706  +6.4273496     810.0039     1613.925     2067.091     83.37364     167.5522     335.4722      2.553     6.92     1000.791     59.19131     100.8394        13     1.527     0.878 -36.97   0
       206    295.3630    653.8510 307.7700543  +6.4143925     499.8863     555.4581     801.7335     84.04333     167.8864     335.7394      1.266     4.65     1010.578     59.19131     82.72217         6     0.943     0.651  59.29   0
       207    914.0757    647.2431 307.5132778  +6.4377671     4836.411     10305.82     11658.21     84.04332     168.0199     335.8396      2.246     6.30     997.8738     59.19131     659.0385        42     2.129     1.112 -28.42   0
       208    969.4384    642.4485 307.4904412  +6.4415885      72689.7     133880.9     146734.2     84.04333     168.0199     335.6727      1.996     6.15     996.0009     59.19131     9663.806        91     2.178     1.073 -30.47   0
       209    507.7031    642.5966 307.6822341  +6.4261407     32928.28     66281.98     75723.24     83.90982     167.6191     335.4722      2.195     6.04     1005.426     59.19131     3701.441        86     2.298     1.252 -31.38   0
       210    115.1684    639.1741 307.8453945  +6.4144174     1887.136     4020.313     4256.432     83.64216      167.686     335.6393      2.184     7.01     1012.409     59.19131     242.9715        26     1.829     1.026 -25.26   0
       211    919.2706    638.3278 307.5114186  +6.4416222     434.9512     678.9791     428.4582     84.30971     168.0866     335.7394      1.719     4.11      997.303     59.19131     85.27551         5     1.530     0.315 -39.44   0
       212      8.5206    633.4373 307.8898845  +6.4132087     984.0931     1945.806     2116.251     84.04333     168.0199     335.8062      2.145     6.66     1012.786     59.19131     118.9182        16     1.880     0.661 -30.55  16
       213    404.9496    626.3444 307.7254623  +6.4294194     41922.26     86714.71      99340.3     84.17662     167.9532     335.8396      2.245     5.98     1007.814     59.19131     4684.292        97     2.337     1.320 -32.12   0
       214    983.0790    625.8184 307.4853317  +6.4489108     2649.484      4833.64     5047.909     83.77609     167.6191     335.7394      1.902     6.71     995.3503     59.19131     410.7889        26     1.943     0.758 -30.07   0
       215    591.2361    623.2315 307.6481873  +6.4369279     637.5006     1280.659     1347.945     83.77609      167.686      335.539      2.097     5.32      1002.58     59.19131     107.2675         7     1.299     0.615 -31.46   0
       216     78.9800    621.5863 307.8610195  +6.4204676     1188.475      2308.22     2860.219     83.90981      167.686     335.7061      2.175     6.26     1011.848     59.19131     203.9168        19     1.814     0.782 -31.32   0
       217    358.0603    619.5320 307.7451683  +6.4306649     580.5949     984.0101     1364.619     84.30971     167.8864     335.8062      1.671     4.07      1008.32     59.19131       108.33         6     1.412     0.334 -41.05   0
       218    550.8302    618.1878 307.6651408  +6.4376623     607.1796     1276.723     1364.056     83.64216      167.686     335.7394      2.157     5.17     1003.415     59.19131     120.0331         8     1.463     0.516 -25.83   0
       219    250.3915    615.7698 307.7900178  +6.4286151      1479.72      3121.17     3972.274     83.64216     167.7528     335.5724      2.324     8.09      1009.83     59.19131     190.6801        24     2.215     0.826 -41.99   0
       220    677.0479    609.9336 307.6129887  +6.4452829     3658.916     7238.422     7708.753     84.04333     167.8864     335.8062      2.102     6.22     1000.634     59.19131     466.2908        35     2.038     0.969 -33.00   0
       221    730.5392    605.2145 307.5909270  +6.4490153     9649.972     19253.62     21448.88     83.64216     167.8864      335.539      2.142     6.06     999.0467     59.19131     1151.906        58     2.272     1.088 -28.70   0
       222    472.3895    605.4407 307.6981527  +6.4403073     805.1143     1662.469      2102.94     83.50801     167.7528     335.5056      2.328     6.82      1005.17     59.19131     99.03253        14     1.673     0.780 -43.10   0
       223    947.3440    605.8022 307.5008463  +6.4559900     735.6846     1331.864      1402.97     83.50801     167.6191     335.4722      1.942     5.25     995.1407     59.19131     127.5826         9     1.381     0.563 -34.51   0
       224    970.1317    604.3168 307.4914299  +6.4573613     1458.695     2624.038     2778.098     84.44258       168.22     335.8396      2.021     6.98     994.8667     59.19131     210.9539        19     2.049     0.667 -31.44   0
       225    554.5047    603.2920 307.6641153  +6.4439374     2007.851     4232.044     4651.363     84.17662     168.5529     335.7729      2.188     6.37     1002.725     59.19131     233.3732        30     1.972     1.027 -26.75   0
       226    872.0615    599.0213 307.5323462  +6.4562864     779.5091     1652.692     2647.929     83.77609     167.9532     335.7061      2.178     6.35     997.2934     59.19131     112.5594        12     1.814     0.624 -40.37   0
       227    167.0040    596.9576 307.8252891  +6.4335911     900.0676     1925.437     2113.832     83.50801     167.6191     335.5056      2.238     7.29     1010.675     59.19131     112.5149        16     2.127     0.701 -22.75   0
       228    313.4667    597.1653 307.7644451  +6.4384107      657.079     1067.779     915.0695     84.04333     168.0199      335.873      1.748     3.85      1008.22     59.19131     117.5457         7     1.167     0.437 -22.42   0
       229    806.7064    588.2451 307.5598564  +6.4585616     1869.428     3518.781     4049.822     84.04333     167.8864     335.9398      1.959     6.54     997.8589     59.19131     260.5387        26     2.195     0.769 -32.89   0
       230    765.0593    585.8882 307.5772358  +6.4581478     1578.033     3119.486     3669.637     84.04333     167.9532     335.9064      2.062     6.84     998.3387     59.19131     203.1085        27     2.026     0.868 -39.85   0
       231    193.4164    580.8227 307.8148626  +6.4411402     5326.009     11347.02     14274.25     83.90981     167.7528     335.7394      2.453     6.06     1009.529     59.19131     726.3086        54     2.309     1.248 -30.73   0
       232    745.8282    577.0947 307.5855197  +6.4611391     109353.4     217453.1     247904.4     84.30971      167.686     335.7061      2.192     6.18     998.4504     59.19131     13028.25       160     2.617     1.279 -29.26   0
       233   1016.2685    578.3934 307.4731319  +6.4696020      5213.66     9804.083     10926.46     83.64216     167.6191     335.6393      2.011     6.74     991.8634     59.19131     748.5978        33     2.067     0.861 -29.90  16
       234    127.6252    575.3698 307.8423747  +6.4411871     38371.32     81573.23     93668.92     83.64216     167.7528     335.6393      2.271     6.13     1010.421     59.19131     4275.095        93     2.350     1.323 -32.24   0
       235     51.7069    571.5405 307.8740385  +6.4402221     4304.628     8778.582     9815.304     84.04333     167.8864     335.9064      2.205     6.00     1011.043     59.19131      501.077        44     2.153     1.159 -34.04   0
       236    165.6578    567.7908 307.8268327  +6.4455923      486.682     961.9891     979.6259     83.50801     167.8864     335.5056      2.569     4.69     1009.962     59.19131     106.1805         7     2.101     0.298 -29.72   0
       237    301.0083    562.4885 307.7707889  +6.4523158     11096.75     23165.24     26506.87     83.77609     167.6191      335.539      2.235     5.94     1007.093     59.19131      1324.42        61     2.208     1.269 -31.39   0
       238    103.3152    561.2509 307.8529493  +6.4462032     1299.712     2940.479     4454.115     84.17662     167.8864     335.9064      3.141     8.80     1010.281     59.19131     184.4865        28     2.182     0.991 -37.39   0
       239    467.3213    557.3788 307.7018753  +6.4599885     4405.705     9002.695     9849.775      83.7761     167.6191     335.8062      2.203     6.00     1002.974     59.19131     471.1328        48     2.187     1.163 -30.65   0
       240    916.4462    569.1571 307.5149090  +6.4700980     893.9357     1758.651     1870.207     84.17662     167.9532     335.7394      1.913     5.68     994.4877     59.19131     147.1115        13     1.881     0.483 -32.37   0
       241    736.4763    557.5619 307.5900601  +6.4688950     4075.118      7949.75     8651.619     84.04333     168.0199     335.8062      2.100     6.12     998.3358     59.19131     473.5366        38     2.166     0.962 -26.61   0
       242    782.4662    564.2804 307.5707298  +6.4676524     3206.681      6231.34     6884.651     84.30971     168.1533     335.7729      2.087     6.24     997.9026     59.19131     412.4629        32     2.021     0.920 -30.51   0
       243    325.9997    553.6163 307.7607067  +6.4568167     934.3193     1828.179     1649.056     83.77609     167.4853     335.5056      2.191     6.82     1006.313     59.19131     122.4325        15     1.675     0.778 -34.05   0
       244    114.3240    550.6052 307.8487360  +6.4509692     4501.693     9270.314     10494.59      83.7761     167.4183     335.6727      2.246     6.15     1010.035     59.19131     487.3994        44     2.114     1.142 -29.85   0
       245    752.9543    550.3704 307.5834562  +6.4724144     844.1993     1603.528     1333.943     83.77609     168.0199     335.6727      1.861     5.33     998.0577     59.19131     128.1283        11     1.910     0.420 -45.79   0
       246    512.3381    550.3456 307.6834118  +6.4643974     1672.293     3537.807      4094.91     84.30971     167.8864     335.7729      2.333     8.07     1001.285     59.19131     195.0704        28     2.096     0.909 -29.81   0
       247    209.6070    546.9596 307.8092798  +6.4556687      54927.2     118839.9     138599.8     83.50801     167.6191     335.4722      2.321     5.98     1007.749     59.19131     6298.198       109     2.373     1.404 -31.54   0
       248    193.7706    542.2343 307.8160176  +6.4570897     885.1733     1814.434     1947.721     83.64216      167.686     335.6058      1.942     6.42      1008.17     59.19131     138.3884        14     1.656     0.698 -23.64   0
       249    909.0479    540.6873 307.5189363  +6.4816109     1166.975     2324.023     2132.317     84.17662     167.8196     335.8396      2.017     6.52     993.6656     59.19131     173.1575        17     1.859     0.641 -31.78   0
       250    732.6381    539.4539 307.5922623  +6.4762462     11244.01     21989.63     24858.58     84.17662     168.0199     335.8062      2.098     5.99     997.9906     59.19131     1236.625        54     2.207     1.061 -31.79   0
       251    436.3705    537.8188 307.7153907  +6.4670328     26559.24     58479.23     69414.09     83.77609     167.7528     335.7394      2.390     6.00     1003.138     59.19131     2889.137        93     2.419     1.412 -27.61   0
       252    148.6841    534.1803 307.8350179  +6.4589050     1301.661     2817.113     3766.016     83.77609     167.6191     335.7729      2.454     7.06     1009.249     59.19131     185.5524        21     1.864     0.892 -23.91   0
       253    596.3151    532.7598 307.6491182  +6.4744646     1929.604     3977.255     5092.075     84.17662     167.8864     335.7729      2.502     7.30      999.011     59.19131     268.7061        26     1.982     0.840 -29.84   0
       254    605.6170    533.2791 307.6452365  +6.4745606     862.9845      1836.42     2663.364     83.77609      167.686     335.7394      2.491     4.76      998.857     59.19131     128.9663         9     1.325     0.486 -30.52   2
       255    658.3542    531.8210 307.6233776  +6.4769222     902.7617       1782.8     2080.792     83.77609     167.9532     335.6393      2.162     5.84     998.5197     59.19131     140.6199        10     1.343     0.714 -29.54   0
       256    333.7314    528.5790 307.7583387  +6.4674163     1196.699     2434.293     2386.344      83.7761     167.8864     335.7061      2.053     6.53     1004.721     59.19131     149.2622        20     1.613     0.967 -20.39   0
       257    265.5728    526.8198 307.7867112  +6.4658613     2535.413     5325.626     6027.665     83.77609     167.7528     335.7061      2.260     6.24     1005.908     59.19131     301.8853        33     1.941     1.099 -27.22   0
       258     80.6693    525.3895 307.8635674  +6.4602547     16473.46     35718.75     41094.29     83.64216     167.7528     335.6393      2.298     6.30     1009.936     59.19131     1842.948        70     2.273     1.301 -31.24   0
       259    982.9796    526.0465 307.4887133  +6.4901166     1076.031     2059.291     2489.208     83.77609     167.9532     335.6393      2.261     7.59     989.9501     59.19131     206.8829        22     2.143     0.903 -21.48   0
       260    445.6624    526.1373 307.7119240  +6.4721682     1355.933     2956.642     3507.363     84.17662     167.9532     335.8396      2.337     7.25     1002.118     59.19131     164.5799        22     1.680     1.152 -15.83   0
       261    808.5583    525.4708 307.5611924  +6.4845509     1146.936      2256.26     2012.975     84.04333     167.9532      335.873      2.149     6.57     996.1861     59.19131     160.7513        16     1.949     0.621 -29.98   0
       262     45.9942    523.8024 307.8780246  +6.4597467     1784.371     3765.857     4639.814     83.50801     167.6191     335.6393      2.271     6.45     1010.491     59.19131     228.6472        26     1.856     0.940 -29.71   0
       263    282.0706    522.7271 307.7799960  +6.4681041     804.9202     1579.933     2293.329     84.30971     168.0866     335.8062      2.386     5.93     1005.511     59.19131     137.3702        11     1.478     0.670 -38.44   0
       264    906.2569    520.0110 307.5207885  +6.4900580      3804.08     7234.931     7590.429     83.50801     167.8864     335.5056      2.049     5.59      993.041     59.19131     483.1523        34     2.061     0.913 -31.10   0
       265    479.0125    512.7253 307.6985214  +6.4788222     848.8611     1655.113     1635.307     83.64216     167.6191     335.6058      2.138     6.09     1000.472     59.19131     104.3545        13     1.795     0.582 -22.46   0
       266    377.6608    506.5222 307.7408332  +6.4779959     27805.22     58056.08     66973.43     84.30971     168.0199     335.7729      2.280     6.07     1002.338     59.19131     3083.178        86     2.337     1.327 -32.05   0
       267    585.6237    506.2037 307.6544522  +6.4850761     7706.038     15950.93     18209.72     83.77609     167.6191     335.6393      2.285     6.13     998.6718     59.19131     933.7028        57     2.314     1.176 -33.05   0
       268    142.9007    504.1320 307.8384348  +6.4711214     12106.54     27057.83     31507.37     84.17662     168.0866     335.7728      2.377     6.10     1008.258     59.19131     1318.558        72     2.312     1.411 -30.99   0
       269    108.1724    505.2640 307.8528226  +6.4694893     926.3146     2028.263     1971.379     83.77609     167.9532     335.7061      2.257     7.50     1009.059     59.19131     113.3752        16     1.826     0.862 -22.67   0
       270    919.2730    504.8047 307.5158907  +6.4967717     715.3089     1312.511     1235.087     83.77609     167.4853     335.6727      2.025     5.36     992.2045     59.19131     100.2156         9     1.881     0.431 -23.78   0
       271    758.9251    505.5457 307.5824800  +6.4911273     628.5468     962.8032     1069.375     84.04332     167.9532     335.8396      1.480     3.98      996.329     59.19131     105.9385         5     0.921     0.493  -5.23   0
       272    507.4931    503.0916 307.6870141  +6.4837526     1780.922      3654.92     4683.964     84.17662     168.4864     335.8062      2.382     6.33     999.5254     59.19131     207.4423        26     1.871     0.912 -31.99   0
       273    848.6400    503.6654 307.5452724  +6.4948918     617.9617      1005.22     1333.135     84.17662     167.8864     335.9398      1.828     4.99     994.0391     59.19131     109.2263         7     1.240     0.568 -22.92   0
       274    881.2866    500.1352 307.5318282  +6.4974365     3590.438     6935.018     7720.961     84.17662     168.1533     335.8396      2.075     6.31     993.0443     59.19131     453.4636        33     2.010     0.929 -31.91   0
       275    554.5202    498.5211 307.6676317  +6.4872109      4384.78     8862.619     10271.78     84.44258       168.22     335.9731      2.261     6.31     998.7092     59.19131     510.5333        46     2.198     1.157 -28.49   0
       276     42.9634    498.8400 307.8801272  +6.4699547     719.1601      1374.61       1436.7     83.90981     167.9532     335.6727      2.017     5.22     1010.147     59.19131     103.6621         9     1.319     0.584 -36.19   0
       277    903.9076    492.3771 307.5226905  +6.5013935     2417.442     4733.721     5092.537     84.17662     167.7528     335.6393      2.141     6.56     992.1695     59.19131      316.312        27     2.055     0.803 -31.09   0
       278    466.7309    489.7708 307.7043959  +6.4878925     4788.305     10399.81     12235.67     83.90982     167.9532     335.7394      2.346     6.47     999.6751     59.19131       569.54        49     2.181     1.215 -29.95   0
       279    312.9310    489.7957 307.7682865  +6.4827384     1635.379     3616.062     3848.255     83.50801     167.5522     335.5724      2.329     7.10     1002.763     59.19131     200.8359        31     2.071     1.027 -20.85   0
       280    823.2663    485.5572 307.5564209  +6.5015263     2329.443     4463.904     5302.551     84.17662     167.8864     335.8396      2.040     7.39       993.98     59.19131     315.2203        30     2.224     0.850 -32.69   3
       281    830.7161    479.9337 307.5535145  +6.5040970     1627.594     2904.642     3682.319     84.30971       168.22      335.873      2.070     5.87     993.5623     59.19131     201.1464        20     1.814     0.742 -23.66   3
       282    870.1112    479.2779 307.5371700  +6.5056793     896.9959     1704.748     1498.518     83.90981       168.22     335.9398      1.924     6.30     992.7117     59.19131     109.9371        12     1.581     0.705 -30.70   0
       283    654.3330    475.9974 307.6269233  +6.4998447     1894.834      3681.02     3901.717     83.50801     167.6191     335.6058      2.107     6.61     997.5039     59.19131     248.4395        24     1.848     0.931 -31.69   0
       284    325.4843    474.2177 307.7635967  +6.4895925     2389.524     5131.755     5534.711     83.77609     167.6191     335.7394      2.271     6.32     1001.348     59.19131     268.4019        36     2.061     1.100 -36.59   0
       285     17.0811    474.9852 307.8916850  +6.4789382     951.8138     2212.365     2301.282     83.77609      167.686     335.6393      2.287     6.36     1010.209     59.19131     131.3939        13     1.685     0.674 -29.03   0
       286    365.8002    474.8639 307.7468268  +6.4906746     787.0808     1467.303     1776.422     83.37364      167.686     335.5056      1.969     5.92     1000.268     59.19131     122.1021        11     1.645     0.600 -22.34   0
       287    553.1485    470.7881 307.6691341  +6.4986195     6428.704     13474.74     15830.49     83.50801     167.8196     335.5056      2.286     5.96     997.6967     59.19131     783.3415        49     2.256     1.141 -30.74   0
       288    716.0922    466.9702 307.6015692  +6.5056326      10901.5        22226     27134.91     84.30971      167.686     335.7061      2.335     6.28     995.8779     59.19131     1264.012        71     2.611     1.204 -36.72   0
       289    235.8181    467.5739 307.8010699  +6.4893343     1711.221     3574.875     4105.131     83.77609     167.7528     335.7061      2.156     6.22     1003.678     59.19131     248.8431        26     1.981     0.901 -34.85   0
       290    744.9332    464.6920 307.5896639  +6.5075348     866.0107     1596.225     1132.218     84.04333     168.1533     335.8396      1.940     5.26     995.0898     59.19131     116.0934         9     1.200     0.650 -39.96   0
       291    318.8141    463.8581 307.7667169  +6.4936480     917.2334     2294.666     2321.594     83.50801     167.8196     335.4722      2.523     8.15     1000.967     59.19131     120.7775        19     1.892     0.982 -29.36   0
       292    901.1851    462.1365 307.5248349  +6.5137932     1491.115     2750.974      3298.12     83.64216     167.8196     335.6727      1.920     7.43     991.5623     59.19131     227.6228        23     2.169     0.749 -31.46   0
       293     53.5437    459.1464 307.8770736  +6.4867036     2870.163     6002.563     7212.828     84.30971     167.9532     335.8062      2.317     6.01     1009.052     59.19131     312.8638        37     2.016     1.133 -31.73   0
       294    955.0707    457.0323 307.5026190  +6.5176938     2887.308     6025.005     6489.245     84.04333     167.9532     335.8062      2.214     5.83     989.6728     59.19131     308.5195        41     2.074     1.171 -27.50   0
       295    691.2733    458.2725 307.6121722  +6.5083975     1678.244     3289.001     3481.366     84.44258     168.0866      335.873      2.111     6.71     996.1049     59.19131     200.2605        24     1.871     0.931 -26.50   0
       296    211.8611    456.2553 307.8114039  +6.4932065     968.9141     1997.016     2034.291     84.30971     167.9532     335.8062      2.191     7.58     1003.943     59.19131     137.2674        21     1.977     0.813 -32.19   0
       297    289.4134    454.0447 307.7792615  +6.4967169     2036.739     4423.263      4558.91     83.50801     167.7528      335.539      2.233     6.72     1001.448     59.19131     243.9522        30     1.963     1.066 -33.31   0
       298    645.1174    451.9898 307.6315585  +6.5094531     1078.832      2076.26     1805.642     83.77609     167.6191     335.6393      2.018     7.51     996.6473     59.19131     167.8347        20     2.000     0.788 -27.79   0
       299    178.9630    449.3846 307.8253023  +6.4949417     494.3453     710.7831     717.6949     83.77609     167.7528      335.539      1.410     4.09     1004.883     59.19131     91.77594         5     1.105     0.433 -65.38   0
       300    771.6012    441.8531 307.5793512  +6.5178565     1136.055     2056.949     2270.875     83.50801     167.5522     335.3385      1.980     6.68     993.4564     59.19131     130.9598        16     1.672     0.750 -30.30   0
       301    409.3257    442.4498 307.7298369  +6.5055181     864.4331     1645.971     1988.178     84.17662     168.0199     335.8396      2.155     5.95     997.5942     59.19131     102.4694        10     1.100     0.907  -7.00   0
       302    756.8921    441.0618 307.5854887  +6.5176932     1415.256     2727.352       3005.2     84.17662     168.0199     335.9064      2.129     7.09       993.87     59.19131     179.7887        20     1.716     0.820 -34.88   0
       303    654.3634    438.9935 307.6281539  +6.5151294     9760.837     19877.34     22675.07     83.23906      167.686     335.5724      2.180     5.95     995.9886     59.19131      1083.92        58     2.234     1.171 -30.46   0
       304    575.5553    434.8387 307.6610342  +6.5142156     1669.803     3582.344     4512.088     83.90981     167.8864     335.7061      2.355     6.61     996.1172     59.19131     202.2533        30     1.988     1.029 -22.87   0
       305    547.7696    430.1385 307.6727358  +6.5152291     8416.665     22288.94      30702.9     83.90981     167.9532     335.7394      2.943     7.11     995.5015     59.19131     1063.229        94     2.622     1.900   5.02   0
       306    879.5607    429.0720 307.5349272  +6.5267303     2820.393     5063.575     5414.108     84.04332     167.9532      335.873      1.923     5.85     991.2833     59.19131     364.6931        29     1.871     0.948 -32.01   0
       307    318.7738    424.8926 307.7680471  +6.5097401     18135.55     39177.99     46110.55     84.30971      167.686     335.6393      2.351     6.16     998.6368     59.19131     2140.397        79     2.349     1.359 -29.75   0
       308    835.0454    424.7856 307.5535653  +6.5270189     957.7302     2200.013     3590.922     83.50801     167.7528     335.5724      2.198     5.94     991.6153     59.19131     169.5618        13     2.101     0.472 -30.40   0
       309     65.0612    424.2880 307.8734671  +6.5014870     1568.731     3136.358     3422.292     84.17662     168.1533     335.8396      2.133     6.24     1007.821     59.19131     197.3469        24     1.677     0.991 -30.41   0
       310    848.4362    419.3647 307.5481837  +6.5297037     3646.562     7031.311     7580.609     83.90982      167.686      335.539      2.034     5.85     991.3292     59.19131     464.2705        34     2.029     0.918 -27.83   0
       311   1002.8867    417.5920 307.4840740  +6.5355736     3273.219     6338.336     7164.639     83.77609     167.6191     335.5724      2.204     6.69     986.1876     59.19131      492.785        32     2.192     0.846 -28.83   0
       312    176.3013    415.4773 307.8275527  +6.5088567     8676.938     19019.21     22227.31      83.7761       168.22     335.8396      2.371     6.21     1003.579     59.19131     987.0793        62     2.313     1.298 -31.25   0
       313   1013.6859    409.5075 307.4798579  +6.5392717     2902.593     6032.021     7343.313     84.04333     168.4198     335.9064      2.304     7.12     985.1436     59.19131     349.0458        34     2.026     1.037 -32.15  16
       314    980.9620    406.1539 307.4935661  +6.5395691     6531.492     12540.48     13605.33     83.90981     167.8864     335.6727      2.055     6.27     986.8581     59.19131     804.0122        43     2.101     0.955 -29.38   0
       315    899.0983    408.0670 307.5275140  +6.5360562     748.5087     1146.795     1361.835     84.17662     168.0866     335.8062      1.713     4.67     990.4902     59.19131     127.3123         7     1.502     0.411 -39.75   0
       316    122.7408    405.5943 307.8501371  +6.5111427     541.1364     1043.852     1028.756     83.64216     167.8196     335.5724      2.232     3.97     1005.295     59.19131     104.4963         6     0.888     0.507 -44.30   0
       317     76.7673    404.1743 307.8692838  +6.5101870     3161.665     6613.216     7429.404     83.64216     167.7528     335.6393      2.209     6.04     1006.736     59.19131     426.0088        38     2.007     1.122 -31.74   0
       318   1009.3248    402.4237 307.4819070  +6.5420525     725.2145     1532.387     1596.091      83.7761     167.8196     335.7394      2.013     6.74     985.0142     59.19131     114.0217        10     1.631     0.780 -38.21   0
       319    181.2389    402.9442 307.8259245  +6.5141985     743.6613      1676.21     1522.246     84.17662     168.0199     335.7729      2.392     7.45     1002.951     59.19131     100.4009        15     1.863     0.834 -27.16   0
       320     98.8321    399.7210 307.8602679  +6.5127665     1544.287     3692.433     4362.929     84.04333     167.9532     335.7729      2.597     7.79     1005.962     59.19131     180.9554        29     1.963     1.123 -38.59   0
       321    493.2274    399.5056 307.6964260  +6.5260594     617.1866     1225.791     1293.095     84.30971      167.686     335.6393      2.200     5.33     995.3608     59.19131     87.93152         6     1.279     0.628 -38.28   0
       322    322.1501    394.5732 307.7676665  +6.5223756     1329.382     2862.267     3487.753     83.77609     168.0199     335.7394      2.507     8.14     997.0178     59.19131     179.2622        23     2.050     0.903 -27.72   0
       323    908.6185    394.8360 307.5240021  +6.5418378     618.8096     1023.894     108.3913     83.64216     167.7528     335.5724      1.438     3.47      989.792     59.19131      97.0343         5     0.803     0.434  71.14   0
       324    375.9172    388.2100 307.7455434  +6.5268028     4656.289     10038.99     11398.08     83.77609     167.5522     335.6393      2.273     6.08     995.2737     59.19131     544.8663        47     2.136     1.210 -31.81   0
       325    715.6431    385.8134 307.6044808  +6.5391376     7922.691     16526.97     21711.37     83.50801     167.7528      335.539      2.637     8.28     992.6687     59.19131     912.1155        78     3.318     1.245 -18.94   0
       326    279.9524    384.3994 307.7855405  +6.5251648     753.1777     1584.851     1814.398     83.50801     167.5522     335.3385      2.412     6.82     997.8954     59.19131     116.2986        12     1.924     0.678 -34.30   0
       327    960.4913    380.6612 307.5029251  +6.5494177     2682.818     5160.495     5437.031     84.04333     168.0199     335.9064      2.114     6.28     986.7501     59.19131     350.9467        31     2.036     0.911 -28.64   0
       328    424.1991    372.0399 307.7260290  +6.5350961     1924.502       4151.7     4306.772     83.23907      167.686     335.4722      2.310     7.10      993.611     59.19131     224.5761        29     1.959     0.998 -24.67   0
       329    396.1811    372.7156 307.7376466  +6.5338801     1340.367     2997.353     3793.252     83.77609     167.6191     335.7729      2.663     7.00      994.157     59.19131     208.0531        24     1.901     0.957 -29.25   0
       330    852.9324    371.9920 307.5479043  +6.5494197     571.3033     940.5761     1006.051     83.64216      167.686     335.7061      2.203     3.65     990.6626     59.19131     110.3422         5     0.973     0.394 -27.29   0
       331    781.8576    368.5042 307.5775514  +6.5484934     22312.73     46225.59     52749.45     84.04332     167.9532     335.9731      2.242     5.96     991.1991     59.19131     2386.381        79     2.299     1.275 -33.60   0
       332    274.2561    364.1953 307.7885884  +6.5333186     735.8036     1316.247     1445.296     83.50801     167.7528     335.5056      1.836     3.79     997.2079     59.19131     113.0511         7     1.020     0.618 -71.85   0
       333    553.6201    360.9056 307.6726337  +6.5440193     1690.355       3710.1     4400.603     84.04333     167.7528     335.6393      2.292     7.32     992.5737     59.19131     188.4462        35     2.206     1.125 -38.44   0
       334    638.3071    354.5238 307.6376630  +6.5494818     51270.35     107082.3     122928.1     83.90982     168.1533     335.8062      2.262     6.13     992.2351     59.19131     5578.706       104     2.347     1.340 -30.44   0
       335    796.1675    356.1591 307.5720201  +6.5540689     704.8853     1205.891     1253.729     83.77609     167.8196     335.6727      2.034     4.78     990.9161     59.19131     106.1851         8     1.335     0.485 -14.38   0
       336     18.2231    353.9775 307.8953019  +6.5289536     982.4554     2012.503     2049.139     83.77609     167.8196     335.7728      2.029     7.21     1006.139     59.19131     123.5141        14     1.863     0.782 -29.44   0
       337    500.9064    351.3848 307.6948551  +6.5461909     1757.993     3983.091     4762.222     83.90981     167.7528     335.6393      2.515     6.97     992.1015     59.19131     186.8499        29     1.921     1.077 -33.98   0
       338     38.2548    350.0826 307.8871116  +6.5312348     3940.295     8573.619      9775.07     84.17662     167.9532      335.873      2.298     6.58     1005.533     59.19131     473.7141        42     2.177     1.125 -32.72   0
       339    484.1723    347.3793 307.7019424  +6.5472861     4257.309     9100.188      10239.5     83.50801      167.686     335.7729      2.281     5.93     991.8405     59.19131     479.4053        47     2.219     1.169 -30.03   0
       340    213.0801    345.0705 307.8146496  +6.5391682     1738.521     3699.003     4366.892     84.44258     168.2866     335.8062      2.359     8.11     999.8243     59.19131     206.3346        27     1.815     1.165 -25.06   0
       341    347.0209    342.6235 307.7590848  +6.5446640     16343.18     35412.36     41527.25     83.90981     167.7528     335.7729      2.375     6.04     994.1581     59.19131     1938.726        76     2.329     1.373 -31.77   0
       342    454.1547    341.9780 307.7145957  +6.5485137     846.3849     1792.023     1825.106     83.77609     167.9532     335.6393      2.264     6.36     991.8906     59.19131     120.4181        13     1.612     0.706 -34.53   0
       343    612.7913    341.6151 307.6486981  +6.5539620     511.3873     769.0074     445.7701     83.90982      167.686     335.6727      1.398     5.09      991.409     59.19131      77.0824         5     1.023     0.715  77.95   0
       344    525.7772    342.2773 307.6848283  +6.5507833     518.9198     797.1905       945.34     83.77609     167.7528     335.7394      1.660     5.05     991.4421     59.19131     108.9666         6     1.208     0.598  23.21   0
       345    326.1519    341.0351 307.7678087  +6.5446216     759.6077     1630.348     2877.223     83.77609     167.9532     335.7394      3.077     7.32     994.5974     59.19131     92.83478        12     1.649     0.909  -1.75   0
       346    426.1680    338.1778 307.7263514  +6.5491476     789.0847     1652.157     2025.378     83.64216     167.7528     335.6058      2.146     6.43     992.1523     59.19131     116.7727        10     1.327     0.875 -19.35   0
       347    742.4241    335.0846 307.5950571  +6.5609826     657.8053     1417.755     1762.274     84.04332      167.686     335.7394      2.322     6.51     990.1516     59.19131     90.96344        11     1.767     0.673 -30.10   0
       348    436.0870    333.0022 307.7224046  +6.5516169     5182.513     11582.33     13396.75     83.50801     167.5522     335.5056      2.432     6.26      991.795     59.19131      578.741        55     2.217     1.308 -32.22   0
       349    704.9984    331.8741 307.6107148  +6.5610611     2039.482     4202.996     5287.032     83.64216     167.3513     335.6727      2.284     7.11     990.4011     59.19131     234.0146        33     2.231     1.056 -34.21   0
       350    262.5637    330.1414 307.7945948  +6.5469918     727.8184     1526.977     1484.669     84.17662     167.9532     335.8062      1.975     6.26     996.7552     59.19131     95.65613         8     1.716     0.641 -30.16   0
       351     97.5942    324.3290 307.8633294  +6.5438625     851.9384     1644.124     1925.861     83.64216     167.5522     335.7061      2.225     6.72     1003.449     59.19131     104.5366        13     1.562     0.812  -5.31   0
       352    325.9385    317.3018 307.7686975  +6.5544167     4704.334     10052.51     11929.51     83.90981     168.0199     335.9064      2.357     6.19     993.8742     59.19131     602.6461        50     2.214     1.257 -29.02   0
       353    182.2672    317.6817 307.8283757  +6.5494474     1443.014     3143.128     4023.789     84.30971       168.22      335.873      2.462     7.73     1000.417     59.19131     165.8772        25     1.894     1.064 -35.85   0
       354    693.8236    313.0733 307.6159894  +6.5684536     35050.98      73171.2     83343.76     83.77609     167.7528     335.7394      2.243     6.10      989.525     59.19131     4048.685        82     2.274     1.275 -31.34   0
       355    365.3983    312.7534 307.7524562  +6.5576158     1475.715     3009.492     3087.485     83.50801     167.6191     335.3719      2.130     7.61      992.678     59.19131      167.206        25     1.991     0.923 -35.49   0
       356    928.9153    309.8475 307.5184172  +6.5776158     1210.307      2377.66     2559.347     84.17662     167.9532     335.8396      2.120     6.76     985.3788     59.19131     162.2145        18     1.803     0.710 -28.91   0
       357    510.8521    310.7692 307.6920896  +6.5632983     768.2251      1358.74      1680.23     84.04333     168.0866     335.7394      2.022     4.69     989.2855     59.19131     96.93707         7     1.023     0.610 -73.94   0
       358    869.5001    309.2889 307.5431231  +6.5758694     1654.542     3177.487     2976.457     84.17662     168.4198     335.7729      2.026     6.41     987.8525     59.19131     234.7498        23     1.863     0.911 -25.37   0
       359    352.0514    308.2897 307.7581520  +6.5590128     1229.005      2694.28     2956.707     84.17662     167.7528     335.9398      2.279     7.66     992.7706     59.19131     144.6436        21     1.684     1.050 -30.76   0
       360    773.2698    302.9565 307.5833194  +6.5752803     853.0879     1574.901     1922.513     84.04333     167.9532      335.873      2.392     6.57     988.8367     59.19131      114.296        13     1.412     0.859 -35.01   0
       361    382.8806    299.1765 307.7456502  +6.5638082     863.1105     1880.387     2322.687     83.77609     167.6191     335.7728      2.319     8.18     991.8649     59.19131     125.7647        16     2.018     0.927 -37.02   0
       362    129.1039    299.5737 307.8510747  +6.5551437     1448.175     3159.361     3804.873     84.30971      167.686     335.6727      2.483     7.35     1002.108     59.19131     170.6797        26     1.928     1.039 -33.83   0
       363    692.3698    297.5962 307.6171133  +6.5747976     4014.194     8066.616     8285.738     83.64216     167.8196     335.6393      2.115     6.12     988.7363     59.19131     457.7712        38     2.004     1.051 -29.26   0
       364    708.5305    295.6980 307.6104623  +6.5761205     1752.872     3653.098     4228.893     84.04333     168.0866     335.8062      2.284     6.56     988.6124     59.19131     204.0304        28     2.044     0.943 -33.77   0
       365    298.1843    290.6298 307.7811281  +6.5645035     1297.356     2768.371     3009.556     83.77609      167.686     335.7394      2.217     7.80     994.0989     59.19131       151.37        21     1.546     1.101 -29.84   0
       366     11.9220    291.1839 307.9000431  +6.5546762     920.9083     1572.258     1386.118     83.77609      167.686     335.6727      1.897     6.40     1006.546     59.19131     113.3341        14     1.489     0.773 -20.00   0
       367    946.6622    286.5784 307.5118230  +6.5878169     4315.891     8329.829     9608.294      83.7761     167.9532     335.7061      2.061     6.19      983.428     59.19131     595.7786        35     2.023     0.926 -31.98   0
       368    424.9551    286.3586 307.7286006  +6.5705094     1264.611     2845.652     2943.453     84.04332     167.9532     335.6393      2.305     8.39     990.4717     59.19131      148.208        24     2.001     0.983 -27.17   0
       369    187.4973    281.9454 307.8274092  +6.5643822     3630.091     8185.168     9960.745     84.04332     167.9532     336.0399      2.458     6.49     999.4893     59.19131     432.8389        42     2.146     1.197 -32.87   0
       370    321.6272    273.3488 307.7719706  +6.5724257     1253.891     2426.228     3145.145     83.77609     168.0866     335.7394      2.084     6.37     992.9908     59.19131     180.0883        17     1.633     0.815 -29.54   0
       371    909.1175    271.4991 307.5279287  +6.5927961     663.4506     1139.926     1273.769     84.17662     168.4864     335.9064      1.792     5.45     984.6571     59.19131     106.6475        11     1.602     0.523 -33.12   0
       372     91.6585    268.6194 307.8676780  +6.5666719     1088.219     2322.419     2440.846      83.7761     167.8196     335.6058      2.147     8.21     1003.081     59.19131     115.7518        22     1.778     1.061 -27.16   0
       373    501.3773    264.5047 307.6975834  +6.5820899     1476.396     3063.671     3702.279     84.17662     167.7528     335.6393      2.217     6.97     987.0798     59.19131     171.8478        25     1.933     0.913 -31.43   0
       374    664.5487    261.8929 307.6298726  +6.5886160     3382.362     6698.912     8001.887     84.04332     167.8196     336.0065      2.181     5.87     987.6802     59.19131     370.6174        39     2.122     1.097 -32.47   0
       375    845.1920    263.2609 307.5547670  +6.5940711     1094.092     2618.815     3152.946     83.50801     167.7528     335.5724      2.558     7.68     986.4078     59.19131     142.8508        19     1.967     0.839 -27.24   0
       376    605.5458    261.7258 307.6543944  +6.5867163      1435.77     3081.373     3944.277     84.04333     167.9532     335.7729      2.472     7.98     986.9796     59.19131     157.0313        26     2.063     0.910 -32.25   0
       377    860.3018    254.0982 307.5487959  +6.5983585     922.9697     1504.227     997.2092     84.17662     168.3532     335.6393      1.783     6.53     985.7811     59.19131     129.2185        13     1.401     0.855 -42.52   0
       378    164.4671    247.1497 307.8381527  +6.5779811     1425.416     3246.937     3587.455     84.04333     167.8196     335.7394      2.330     7.95     999.9377     59.19131     189.2242        30     2.003     1.132 -38.43   0
       379    806.8483    246.0348 307.5712774  +6.5999090     1166.627     2313.149     2715.305     84.04333     167.9532     335.7394      2.225     7.49     986.4511     59.19131     146.2577        18     1.931     0.813 -16.80   0
       380    697.5087    245.7015 307.6167213  +6.5964027     997.8117       2164.7     2937.843     84.17662     168.4198     335.7729      2.457     8.04     987.5161     59.19131     111.6864        19     1.733     1.042 -27.25   0
       381    997.5620    242.4762 307.4921504  +6.6077248     539.5613     937.5579     1228.435     84.04333     168.0199     335.8062      1.760     4.26     980.2343     59.19131     91.52612         6     1.100     0.471  -9.60   0
       382    398.2915    236.8196 307.7413481  +6.5900781     14388.12     31350.89     37394.09     84.04333      167.686     335.6393      2.410     6.28     989.4124     59.19131     1564.455        82     2.606     1.346 -35.13   0
       383    724.1136    236.0757 307.6059898  +6.6012655      8717.77     18438.08     21515.28     84.17662     168.2866      335.873      2.303     6.17     987.3472     59.19131     957.5879        61     2.270     1.244 -26.20   0
       384     86.5217    230.1715 307.8711116  +6.5823788     1420.293     2906.647     3511.591     84.04333     167.8864     335.8062      2.191     7.64     1002.905     59.19131     161.5557        24     1.892     0.989 -30.72   0
       385     61.0045    230.0197 307.8817188  +6.5815852     822.8063     1638.427     2146.194     83.77609     167.6191     335.6058      2.302     6.06     1003.273     59.19131     104.4742        10     1.299     0.795 -38.82   0
       386    717.8726    228.0205 307.6088536  +6.6043844     600.3865     1013.789     1684.657     83.77609     167.8196     335.7728      2.732     5.49     987.2047     59.19131     76.97693         8     1.252     0.680  -6.40   0
       387    860.4591    226.7269 307.5496485  +6.6096689     1061.882     2042.535     2027.234     84.30971     167.9532     335.8062      2.055     6.66     984.7355     59.19131     138.6426        16     1.688     0.737 -24.41   0
       388    522.3361    222.6434 307.6902836  +6.6000796     2944.042     6365.401     6931.276     84.17662     167.8864     335.8396      2.290     6.44      985.797     59.19131     324.9572        39     2.065     1.164 -28.07   0
       389    485.0383    222.5670 307.7057840  +6.5988650     1121.213     2557.509     2741.744     83.77609     167.7528     335.5724      2.339     7.34     985.8026     59.19131       131.66        18     1.699     0.889 -31.09   0
       390    326.8173    221.4429 307.7715643  +6.5940373     913.8984     1761.551     1870.368     83.64216     167.8196     335.5724      2.121     6.80     992.2812     59.19131     124.1548        14     1.595     0.813 -20.85   0
       391    883.1638    219.8005 307.5404463  +6.6132854      1950.98     3816.856     4246.625     83.23906     167.7528     335.6058      2.077     5.73     983.6949     59.19131     248.4364        25     1.799     0.963 -30.45   0
       392    829.2032    219.3055 307.5628852  +6.6116934      7805.57     15578.64     17289.56     83.90981     167.6191     335.5056      2.128     6.07     985.0291     59.19131     951.8655        49     2.163     1.071 -29.79   0
       393    241.6897    223.8444 307.8068540  +6.5901947     624.9953     1316.804     1135.806     84.17662     167.8196     335.9064      2.459     4.42     996.0096     59.19131     105.4633         6     0.963     0.576 -22.30   0
       394    915.8249    217.1110 307.5269647  +6.6154831     7158.024     13656.97     15072.05     84.30971     167.7528     335.6393      2.095     5.99     982.3188     59.19131      854.738        45     2.154     0.977 -28.36   0
       395    627.1263    217.0957 307.6469278  +6.6058698     1851.366     3835.097     4526.924     83.90981     168.0866     335.8062      2.213     6.51      986.414     59.19131     230.9107        27     2.039     0.928 -28.30   0
       396    200.3688    216.9665 307.8242550  +6.5916506     680.8807     1805.303     2103.779     83.64216      167.686      335.539      2.468     6.19     997.8581     59.19131      102.511         7     1.455     0.741  -2.99   2
       397    435.9954    211.9829 307.7265184  +6.6015970     1260.402      2637.18     2977.712     83.77609     167.6191     335.6393      2.421     8.90      986.947     59.19131     186.3255        28     2.331     0.949 -29.63   0
       398    767.3885    208.7337 307.5889260  +6.6140007     1378.359     2885.339     3157.883     83.64216     167.7528     335.6727      2.179     7.90     986.0089     59.19131     173.8041        24     2.059     0.848 -29.45   0
       399    447.9727    207.8109 307.7216822  +6.6037206     1565.973     3366.908     3660.199     83.77609     167.7528     335.6727      2.344     6.51     986.4941     59.19131     193.8568        24     1.828     0.952 -34.28   0
       400    820.3388    207.5905 307.5669618  +6.6162368     1462.226     3098.713     3697.563     83.50801     167.8196      335.539      2.401     7.77     984.8471     59.19131     193.7366        25     2.088     0.848 -32.10   0
       401    679.3710    205.2365 307.6256174  +6.6125108      26122.6     54481.28     62573.16     83.77609      167.686     335.6058      2.239     5.92     986.5432     59.19131     2948.634        79     2.276     1.283 -30.58   0
       402    282.5288    204.6927 307.7905314  +6.5994725      3964.02     10290.18     13350.25     84.04333     168.0199     335.8396      2.745     7.22     994.3685     59.19131     481.2574        61     2.437     1.503 -47.76   0
       403    912.9752    204.1430 307.5285836  +6.6207444     2015.888     3991.101     4400.018     83.77609     167.9532     335.6058      2.037     6.56     981.9002     59.19131     260.7594        28     2.068     0.852 -30.37   0
       404    951.3056    202.6419 307.5127061  +6.6226395     1412.761     2733.501     2345.129     84.17662     167.8864     335.9398      2.047     6.57     980.7101     59.19131     194.2621        20     1.723     0.828 -30.74   0
       405    847.2377    202.3337 307.5559607  +6.6193037     5393.933     10190.23     11443.76     84.04333     167.8864     335.9064      2.060     5.94     984.0823     59.19131     659.7317        41     2.112     0.999 -27.52   0
       406    390.8284    201.4613 307.7456405  +6.6044320     3158.066     7061.132     8044.761     83.77609     167.9532     335.7394      2.333     6.24      988.764     59.19131     356.0406        41     2.082     1.186 -30.01   0
       407     48.1727    192.9120 307.8883049  +6.5964801     3165.255     6710.017     7907.316     84.30971      167.686     335.7061      2.321     5.90     1002.899     59.19131     354.8204        43     2.144     1.154 -28.09   0
       408   1005.6296    191.7610 307.4904966  +6.6289398     1545.783     2873.908     3204.658     83.64216     167.6191     335.6727      1.975     6.67     979.1382     59.19131     231.3715        19     1.830     0.683 -25.72   0
       409    218.5669    189.4527 307.8176224  +6.6036240     21490.35     46600.48     54590.29     84.04333     167.9532     335.7061      2.364     6.22     997.0234     59.19131     2389.331        81     2.377     1.371 -31.82   0
       410    193.8397    190.5673 307.8278591  +6.6023349     4105.519     8844.651     10369.13     83.77609     167.7528     335.6393      2.309     6.26     997.7913     59.19131     441.0126        45     2.195     1.174 -30.27   0
       411    866.9155    192.1816 307.5481243  +6.6241519     674.6502     1293.605     1482.505     83.77609     167.6191     335.7394      2.106     5.63     983.2454     59.19131     89.14636         8     1.244     0.718 -14.76   0
       412     98.5720    186.1664 307.8675920  +6.6009575     2541.834     5446.214      6400.13     83.64216      167.686     335.5724      2.297     6.53     1001.762     59.19131     315.1888        38     2.083     1.137 -32.66   0
       413    342.6324    184.9228 307.7662242  +6.6096500     31703.67      69032.7      80268.7     84.04332     167.9532     335.7394      2.357     6.10     991.7783     59.19131     3680.761        84     2.346     1.381 -30.74   0
       414    360.0728    185.3218 307.7589640  +6.6100688     948.3029     2079.608     2002.427     84.44258       168.22     335.8062      2.127     7.30     990.7349     59.19131     122.8972        17     1.759     0.849 -18.75   0
       415    246.6854    182.6735 307.8061676  +6.6073661     11878.47     25664.58     30617.74     84.30971     168.2866     335.8062      2.424     6.09     996.0695     59.19131     1435.904        85     2.617     1.439 -24.96   2
       416    254.3709    183.1860 307.8029569  +6.6074119     1213.854     2212.573     3325.557     83.77609     167.7528     335.7061      2.188     6.38     995.8229     59.19131     158.0997        16     1.714     0.667 -19.08   3
       417    681.8486    181.1369 307.6253977  +6.6225471     21879.98     45202.23     52459.89     84.04332     167.8864      335.873      2.251     5.90     985.8129     59.19131     2395.901        80     2.297     1.292 -29.96   0
       418    730.0547    181.3929 307.6053576  +6.6240488     865.7198     1582.141     1925.256     83.64216     167.7528     335.5056      2.105     6.06     985.8129     59.19131     110.3926        12     1.367     0.757 -19.12   0
       419     32.7232    176.1476 307.8952910  +6.6028852     944.6492     2163.217     2641.655     84.30971     167.9532     335.8062      2.383     7.96     1002.993     59.19131     126.4868        19     1.888     0.939 -30.21   0
       420      1.4714    177.4062 307.9082335  +6.6013159     2697.475     3260.208       3265.2     74.72186     135.5158      254.828      1.172     3.54     1003.676     59.19131     549.3263        11     1.071     0.669 -83.81  24
       421    939.8849    175.8670 307.5183492  +6.6333183     708.4258     1350.422     1833.336     84.30971       168.22     335.8396      2.235     6.41     979.9031     59.19131     116.8085        11     2.128     0.542 -30.62   0
       422    941.1916    161.7308 307.5182800  +6.6392004     1627.538     3082.696     4135.022     83.64216     167.6191     335.7061      2.103     6.65      979.335     59.19131     214.2422        21     2.010     0.744 -27.57   0
       423    532.7904    157.3355 307.6881374  +6.6274023     1273.506      2690.19      4078.93     83.64216     167.7528     335.6393      2.858     6.55     984.6759     59.19131     156.1552        23     1.853     1.030 -22.10   0
       424    217.5043    155.7274 307.8192023  +6.6175173     19265.91      42402.5     49544.15     84.04333     168.0866     335.7729      2.379     6.12     997.0457     59.19131     2142.525        81     2.328     1.412 -31.06   0
       425    277.3990    157.3930 307.7942586  +6.6188360     673.2883     1126.188     1001.016     83.50801     167.6191     335.6058      1.761     6.24     995.4768     59.19131     94.52557         8     1.422     0.770 -29.20   0
       426    649.0258    152.3247 307.6400052  +6.6333523     5084.995     10805.54     12418.09     83.77609     167.8196     335.7729      2.267     6.36     984.9721     59.19131     593.6464        45     2.168     1.131 -27.54   0
       427     60.0012    149.4444 307.8848598  +6.6148295     3319.666     7064.168       7854.2     83.50801     167.6191     335.3719      2.235     6.18     1001.941     59.19131     433.9056        39     2.056     1.150 -35.05   0
       428    400.8083    146.1831 307.7433563  +6.6275966     670.5574     1591.286     1705.318     83.77609      167.686     335.6393      2.539     7.47     987.0035     59.19131     105.5125        12     1.865     0.837 -20.09   2
       429    330.4771    145.6219 307.7726002  +6.6254749     2518.883     5683.832     6977.104      83.7761     167.7528     335.7394      2.496     6.72     992.9905     59.19131     271.7992        37     2.078     1.178 -33.42   0
       430    295.0673    144.5487 307.7873502  +6.6247326     2200.075     4501.001     5750.491     84.04332     167.8196     335.8062      2.431     6.42     995.0398     59.19131     303.5235        37     2.267     1.095 -36.46   0
       431    587.7188    146.8255 307.6656660  +6.6335774     644.7901     1166.748     1122.697     83.90981     167.7528     335.8062      1.856     3.46     984.7421     59.19131     104.8348         5     0.983     0.352 -43.73   0
       432     49.9373    144.1158 307.8892216  +6.6166923     1083.647      2272.76     2190.506     84.30971     168.0199     335.7728      2.166     7.87     1002.103     59.19131     150.1071        21     2.050     0.844 -37.96   0
       433    941.7789    138.4702 307.5188155  +6.6488272     1044.565      1816.03     1282.676     83.77609     167.8196     335.7729      1.857     6.01     978.4906     59.19131     129.7577        14     1.587     0.641 -30.09   0
       434    147.0149    133.3097 307.8492493  +6.6244128     3587.684     7832.251     9121.439     83.90981     167.7528     335.6393      2.319     6.46     998.5385     59.19131      394.876        44     2.149     1.227 -27.20   0
       435     29.8861    133.1834 307.8979229  +6.6205343     1382.176     2903.563     3109.665     83.77609      167.686     335.7394      2.364     7.11     1002.451     59.19131     193.5421        21     2.042     0.812 -39.65   0
       436    608.6210    132.0342 307.6574776  +6.6403843     4280.348     9012.442     10576.28     83.64216     167.7528     335.5724      2.282     5.97     984.7259     59.19131     477.1807        48     2.242     1.202 -30.65   0
       437    756.6984    131.6818 307.5959553  +6.6454687     785.8788     1326.319     1211.488     84.17662     168.3532     335.9064      1.906     5.71     983.4393     59.19131     105.5848         8     1.363     0.674 -48.41   0
       438    560.8691    129.3503 307.6774111  +6.6398985     6213.294      13027.4     15458.52     84.04333     167.8864     335.8062      2.288     6.07     984.3232     59.19131     710.2707        49     2.183     1.188 -29.41   3
       439    564.3112    120.8906 307.6762653  +6.6435075     34692.55     73015.27      85342.7     84.17662     168.4864     335.9064      2.293     5.99     984.2401     59.19131     3858.955        93     2.353     1.359 -31.38   3
       440   1013.1210    129.5115 307.4894684  +6.6548995     4027.027     7735.798     8328.706     83.90981       168.22     335.9398      2.026     6.39     976.7749     59.19131     536.6831        34     1.980     0.922 -28.53  16
       441    983.1957    126.5929 307.5020021  +6.6551102     677.3995     1338.052     1678.892     83.50801     167.6191     335.6727      2.242     6.23     977.2551     59.19131     100.3662         9     1.981     0.550 -31.38   0
       442    287.9088    125.2931 307.7909744  +6.6324456     2477.667     5396.939     6862.667     84.17662     168.4864     335.8062      2.440     7.23     995.8129     59.19131     279.5535        38     2.286     1.114 -28.11   0
       443    469.7687    124.2081 307.7154408  +6.6389785     1125.683     2417.183     2635.352     83.64216     167.7528     335.5724      2.239     7.43     985.0538     59.19131     140.7173        18     1.660     0.931 -39.57   0
       444    934.2471    123.8989 307.5224339  +6.6545950      615.278     1261.934     1266.016     84.17662     167.8196     336.0065      2.156     5.27     978.1812     59.19131     110.0723         6     1.412     0.555 -25.85   0
       445    243.6018    114.7054 307.8097428  +6.6353343     2422.084     5071.541     5763.281     83.64216     167.6191     335.4388      2.262     6.21     997.0966     59.19131     302.1277        34     1.989     1.144 -31.76   0
       446    643.8318    109.0023 307.6436199  +6.6510720     585.4979     1197.588     1016.135     83.50801     167.7528     335.5724      2.008     5.61     984.2271     59.19131     129.7894         8     1.769     0.502 -28.07   0
       447    615.2505    107.9666 307.6555319  +6.6505460     1009.129     2040.324     1884.784     84.04333     168.0199     335.7394      2.063     6.90     984.4345     59.19131     120.8589        16     1.709     0.780 -31.75   0
       448    628.8836    104.7825 307.6499737  +6.6523160     2072.788      4303.68     4683.701     83.77609     167.6191     335.7394      2.263     5.90     984.2834     59.19131      269.778        29     1.877     1.050 -28.35   0
       449      8.4026     98.0648 307.9080376  +6.6343168     624.1534     1421.356     2831.282     83.50801     167.7528     335.5724      3.086     4.41     1002.596     59.19131     95.75189         5     1.137     0.488  87.13   0
       450    370.4973     95.8668 307.7576477  +6.6473638     2690.117     5575.915     6072.599     84.17662     168.0199     335.8396      2.239     5.83     990.9838     59.19131     334.6908        36     2.023     1.116 -33.25   0
       451    824.8456     92.2779 307.5689584  +6.6640137     1511.049     3033.141      3280.29     84.04333     168.0199     335.8062      2.167     7.46      980.019     59.19131     180.3972        22     1.827     0.897 -34.46   0
       452    843.0263     91.2412 307.5614377  +6.6650474     2558.511     5337.738     6124.086     83.77609     167.7528     335.6393      2.246     6.22     979.6354     59.19131      319.363        31     2.071     0.932 -32.68   0
       453     45.0350     92.3958 307.8930076  +6.6378883     507.5116     1157.069     1681.911     83.23906     167.8196     335.5724      2.311     6.13     1001.237     59.19131     79.66284         8     1.328     0.796  69.28   0
       454    535.1210     89.8642 307.6894396  +6.6553469     1001.268     2560.221     2813.654     84.44258     168.0199     335.7728      2.734     7.66     983.9015     59.19131     164.8931        23     2.115     0.886 -22.32   0
       455    334.2976     87.9521 307.7729573  +6.6494211     1294.298       2876.4     3453.216     84.17662     167.8864     335.9731      2.491     7.18     994.2902     59.19131     192.3268        24     1.885     1.019 -26.96   0
       456     81.7263     84.6236 307.8780240  +6.6423299     2176.285     4672.131     5175.479     83.77609     167.7528     335.7394      2.223     6.58     999.8203     59.19131     257.1456        32     1.947     1.061 -30.92   0
       457    230.2962     83.3876 307.8163289  +6.6478229     905.9127     1819.261     1492.033     84.04333      167.686     335.5724      1.991     6.57      997.912     59.19131     131.5213        11     1.543     0.786 -20.50   0
       458    765.5014     76.9233 307.5941357  +6.6683785     4350.705     8568.148     9888.234     83.77609     168.1533     335.8062      2.178     6.05     980.7339     59.19131     499.7145        41     2.139     1.050 -27.55   0
       459    710.6898     77.2931 307.6169017  +6.6663986      2173.26      4355.96     4866.209     84.17662     168.4864     335.8396      2.183     5.76     982.1638     59.19131     269.0309        27     1.830     0.975 -24.45   0
       460    355.6316     78.5119 307.7644103  +6.6540341     685.3564     1368.821     2001.371     84.30971     167.7528     335.7394      1.589     3.46     993.2796     59.19131     92.56781         5     1.066     0.324 -69.40   0
       461      4.0527     74.3284 307.9106482  +6.6439739     2317.378     5054.587      5926.07     84.04332     166.0736     295.3403      2.355     6.44     1002.158     59.19131     279.5856        35     1.944     1.161 -29.28  24
       462    473.6952     74.1145 307.7154960  +6.6597992     647.8797     1294.427     1405.077     84.17662     168.3532     335.9064      2.573     5.27     984.6802     59.19131      104.096         6     1.257     0.706 -83.66   0
       463    363.5524     74.1362 307.7612663  +6.6561064     473.0453      1102.45     2692.523     84.04333     167.8196     335.8396      2.787     5.07     992.4949     59.19131     68.62579         7     1.186     0.614  33.59   0
       464    527.2976     71.1928 307.6933191  +6.6627972     918.5274     1535.893     2049.803     83.90981     167.5522     335.5724      2.223     6.17     983.9276     59.19131     132.4208        13     1.245     1.037  -6.04   0
       465    705.2863     64.8094 307.6195666  +6.6713745     1381.816     2697.726     3114.894     83.77609     167.6191     335.6393      2.152     7.56     981.8746     59.19131     176.5779        23     1.838     0.892 -28.39   0
       466     31.8383     58.6029 307.8996342  +6.6514016     6278.187     13654.62     15752.08     83.23906      167.686     335.5724      2.277     6.22     1000.828     59.19131      792.134        53     2.246     1.235 -37.33   0
       467    361.1458     58.3061 307.7628000  +6.6625638     1534.839     3432.718     4560.766     84.04333     167.8864     336.0399      2.486     7.65       993.46     59.19131      197.833        31     2.145     1.121 -27.64   0
       468    181.4556     58.5951 307.8374617  +6.6564252      594.642     889.2581     1012.757     83.50801     167.7528     335.5056      1.608     3.82     997.9796     59.19131     100.2037         5     1.077     0.389 -17.38   0
       469    574.4813     50.6186 307.6744033  +6.6728706      12037.6     24987.74     28558.73      83.7761     167.6191     335.7394      2.249     6.05      983.793     59.19131     1279.925        61     2.212     1.262 -30.54   0
       470   1011.5416     53.2373 307.4926796  +6.6863502     425.2299     802.0079      1001.08     84.17662     168.0199     335.8396      1.993     4.71     971.3791     59.19131     106.9313         6     1.271     0.494 -39.63   0
       471    198.6557     52.6446 307.8305151  +6.6594595     926.1725     1722.859     2279.536     84.17662     167.9532     335.8062      2.050     7.58     998.1393     59.19131     127.8506        15     1.837     0.876 -30.38   0
       472    884.0659     50.3606 307.5457538  +6.6832983      457.676     811.8331     981.7432     84.17662     167.8864     335.9064      2.157     4.15     977.5533     59.19131     89.07312         5     1.577     0.312 -28.00   0
       473    193.5600     46.8245 307.8328292  +6.6616924     1278.491     2599.748      4292.28     83.77609     167.7528     335.5724      2.628     6.71     998.1355     59.19131     171.8464        16     2.164     0.583 -30.75   3
       474    200.4929     42.8021 307.8300841  +6.6635861     5741.942     12366.26     14214.38     83.64216     167.6191     335.5056      2.358     6.31     998.2153     59.19131     662.1124        56     2.341     1.272 -28.25   2
       475    474.3745     46.6237 307.7161396  +6.6711760     3352.157     7273.764     8616.234     83.64216     167.8196     335.7394      2.340     6.32     984.2768     59.19131     391.5879        41     2.108     1.184 -26.62   0
       476    379.8433     42.2586 307.7555710  +6.6698173     14397.47      31095.2      35581.8     84.04333     167.8864     335.9064      2.303     6.36     991.5984     59.19131     1631.004        67     2.292     1.298 -30.94   0
       477    857.3871     42.1928 307.5571153  +6.6857836      1488.89     2891.707     2347.706     83.77609     167.7528     335.7061      1.989     6.82     977.7567     59.19131     185.4243        19     1.712     0.850 -22.80   0
       478    560.7130     40.5248 307.6804647  +6.6765797     2160.021     4685.592     6246.715     84.17662     168.2866      335.873      2.484     6.47     983.7274     59.19131     266.3542        34     2.075     1.159 -30.53   0
       479    188.3734     39.5060 307.8352317  +6.6645411     1964.547     4081.456     5198.679     84.30971      167.686     335.6393      2.307     7.07      998.116     59.19131     252.5922        30     2.021     1.026 -36.47   0
       480    241.6014     37.8864 307.8131670  +6.6669941     661.6601     1177.587     1118.907     83.37364     167.4853     335.5056      2.208     5.23     998.4767     59.19131     82.93677         8     1.286     0.601 -47.72   0
       481    877.9953     32.4897 307.5488761  +6.6904773     747.6243     1603.909     1576.414     83.64216     167.6191     335.5056      1.903     7.29     977.1742     59.19131     126.9048        12     1.940     0.766 -24.67   0
       482    629.6794     31.8716 307.6520946  +6.6824561     1214.613      2443.57     2274.807     84.44258       168.22     335.7729      2.138     7.54     983.0103     59.19131     138.8007        23     1.864     0.979 -21.41   0
       483    654.2605   1019.5674 307.6087005  +6.2753328     2089.689     4134.159     5766.557     83.90982     168.0199     312.4942      2.578     8.28     1012.907     59.19131     337.1531        24     2.759     0.695 -30.26  18
       484    461.9919     23.0084 307.7220809  +6.6805154     1911.709     4174.335      4850.18     83.50801     167.7528     335.6727      2.323     6.44     984.6251     59.19131     232.0691        31     1.996     1.114 -31.83   0
       485    863.3416     22.4146 307.5553042  +6.6941507      2959.45     5646.248     5680.506     83.50801     167.8196      335.539      2.042     6.43     977.0948     59.19131     369.1887        31     1.940     0.945 -23.43   0
       486    662.6753     22.6719 307.6386912  +6.6873567     980.8651     1595.174     1892.967     84.44258       168.22     335.8062      1.901     5.34      981.674     59.19131     139.0643        11     1.129     0.932 -79.37   3
       487    665.3590     20.3231 307.6376549  +6.6884163     1248.173     1896.065     2243.177     84.04333     167.9532      335.873      1.840     3.63     981.5131     59.19131      188.286        12     1.128     0.781 -20.91   3
       488    400.5544     21.2424 307.7476725  +6.6791902     1207.501     2244.415     2687.178     84.04333     167.9532     335.6727      2.135     6.58     989.4734     59.19131       171.46        20     1.834     0.801 -31.64   0
       489    928.3648     18.5443 307.5284103  +6.6979132     1594.102     3046.506     2764.952     84.04333     167.9532     335.8396      1.956     5.93     976.0684     59.19131     211.1794        20     1.797     0.780 -25.67   0
       490    379.0016   1019.8173 307.7229931  +6.2660391     762.5165     1438.392     1877.587     83.77609     167.4853     309.2484      2.396     7.43     1015.491     59.19131     118.0602        13     2.045     0.756 -40.79  16
       491    180.6341   1020.8087 307.8053291  +6.2589910     1151.537     2189.763     1870.114     83.64216       166.68     297.0059      1.917     7.39      1017.12     59.19131     146.1383        19     1.795     0.852 -18.29  16
       492    670.8325   1018.2480 307.6018631  +6.2764303     848.5258     1477.524     2009.231     83.90981     167.9532     325.5673      2.203     7.13     1012.497     59.19131     119.9482        12     1.837     0.776 -32.41  16
       493    302.1201   1016.5460 307.7550275  +6.2648188     1495.345     2875.031     3394.083     84.17662     167.9532      335.873      2.285     6.83     1016.575     59.19131     195.5536        19     1.728     0.777 -28.91  16
       494    640.8761   1013.0012 307.6144788  +6.2775985     426.2258     808.1677     1131.542     83.37365     167.3513     335.6393      1.768     4.71     1013.011     59.19131     87.32739         6     1.445     0.436 -18.51   0
       495    454.7153   1007.7561 307.6919590  +6.2735511     740.0812     1169.665     428.0319     84.17662     167.8864     335.7729      1.770     7.34     1015.579     59.19131     120.2613        13     2.137     0.706 -31.15   0
       496    689.0295   1005.9534 307.5947192  +6.2821149     5946.418     11397.05     12328.86     83.64216     168.0866     335.7061      1.979     6.30     1011.749     59.19131     785.3833        34     2.036     0.855 -31.58   0
       497    484.5588   1006.5620 307.6796067  +6.2750412     3188.113     6219.041     6784.485     83.90982     168.0199     335.6727      2.050     6.81     1015.594     59.19131     431.8196        30     2.084     0.801 -30.76   0
       498    234.7486   1005.2545 307.7833833  +6.2672274     11470.43     22081.92     24959.38     84.30971     167.9532     335.8396      2.112     6.13     1017.168     59.19131     1465.869        56     2.312     1.009 -31.47   0
       499    750.1827   1005.5452 307.5693382  +6.2843213     837.6923      1711.68     2323.982     83.64216     167.8864      335.539      2.184     6.75     1010.526     59.19131     136.5599        11     1.677     0.762 -21.63   0
