#   1 NUMBER                 Running object number                                     
#   2 X_IMAGE                Object position along x                                    [pixel]
#   3 Y_IMAGE                Object position along y                                    [pixel]
#   4 ALPHA_J2000            Right ascension of barycenter (J2000)                      [deg]
#   5 DELTA_J2000            Declination of barycenter (J2000)                          [deg]
#   6 FLUX_APER              Flux vector within fixed circular aperture(s)              [count]
#   9 FLUXERR_APER           RMS error vector for aperture flux(es)                     [count]
#  12 FLUX_RADIUS            Fraction-of-light radii                                    [pixel]
#  13 FWHM_IMAGE             FWHM assuming a gaussian core                              [pixel]
#  14 BACKGROUND             Background at centroid position                            [count]
#  15 THRESHOLD              Detection threshold above background                       [count]
#  16 FLUX_MAX               Peak flux above background                                 [count]
#  17 ISOAREA_IMAGE          Isophotal area above Analysis threshold                    [pixel**2]
#  18 A_IMAGE                Profile RMS along major axis                               [pixel]
#  19 B_IMAGE                Profile RMS along minor axis                               [pixel]
#  20 THETA_IMAGE            Position angle (CCW/x)                                     [deg]
#  21 FLAGS                  Extraction flags                                          
         1    165.9553     19.7885 307.8649848  +6.6681011     11303.89     16577.69     17107.52     80.55901     161.6336     323.1385      1.540     3.17     911.0392     57.00945     1570.218        35     1.380     1.060  53.94   0
         2    510.1741     18.0789 307.7220229  +6.6803749     3148.875     4448.713      5075.42      80.8168     161.6979     323.3637      1.507     3.16      895.502     57.00945     528.1684        23     1.364     0.926  53.08   0
         3    911.4932     17.5806 307.5552865  +6.6940154     4564.586     6126.148     6285.904      80.9454     161.5049     323.2672      1.459     3.52     889.8491     57.00945     663.6776        24     1.282     0.961  51.22   0
         4    712.4201     16.1703 307.6380523  +6.6879403     2136.949     2901.304     3102.105     80.55901     161.5693     323.2994      1.469     3.56     892.6214     57.00945     361.9319        15     1.204     0.826  49.60   0
         5    448.3499     16.3714 307.7477684  +6.6790050     1892.505      2660.06     2390.062     80.68802     161.8908     323.3315      1.529     3.02     899.3145     57.00945     292.3441        15     1.029     0.882  58.79   0
         6    976.1853     13.9832 307.5285261  +6.6976609     2222.812     2984.999     2343.971      80.8168     161.4405     323.3637      1.449     3.76     885.4715     57.00945     287.8822        14     1.139     0.814  69.43   0
         7    770.9084     13.6959 307.6138327  +6.6909191     481.7862     953.3039     648.8879     81.07378     162.2758     323.3959      1.390     5.20     891.3286     57.00945     91.95319         6     1.527     0.500  44.96   0
         8    695.6804     10.3886 307.6452024  +6.6897666     8097.852     11228.25     11444.46     80.68802     161.5049     323.2672      1.497     3.17     892.5562     57.00945     1312.837        30     1.316     1.059  42.80   0
         9    615.9020      9.6352 307.6783766  +6.6874054     4024.013     5896.792     5900.701     81.07378     161.6336     323.5888      1.544     3.17     893.7751     57.00945      579.232        24     1.337     0.915  45.91   0
        10    318.0111      9.1146 307.8021684  +6.6776225     998.7814     1507.243     1604.659     80.68801     161.5049     323.2672      1.570     4.53     910.1787     57.00945     183.6237        12     1.210     0.789  48.81   0
        11    416.0697      5.7828 307.7615378  +6.6822923     6673.818     9783.486     9772.516     80.55901     161.6336     304.6162      1.531     3.19     902.6349     57.00945     974.0366        32     1.396     1.013  59.86  16
        12     17.0782      5.3159 307.9273291  +6.6690594     9187.229     13516.27     14133.63     81.20196     162.0834     299.7288      1.556     3.35     909.5399     57.00945     1417.229        34     1.379     1.058  53.52  16
        13    662.8727      4.7383 307.6590245  +6.6910005     897.8218     1367.637     1669.086     81.20196     161.7623     292.9554      1.616     3.65     892.8168     57.00945       186.77         9     1.116     0.581  65.11  16
        14    491.9123      2.7852 307.7301261  +6.6860755      908.196     1287.627     1394.208      80.8168     148.3473     266.3653      1.408     4.34     895.4825     57.00945     142.3376         9     1.165     0.557  45.54  24
        15    312.9143      1.6285 307.8045388  +6.6805414     9087.433      11542.6     11988.92     74.52337     132.8895      248.467      1.294     3.36     910.7417     57.00945     1780.064        21     1.285     0.735  11.28  24
        16    407.7822      1.9770 307.7651096  +6.6835851     749.1867     994.8085     1225.565     77.53285     137.8828     253.9731      1.428     4.42     903.3469     57.00945     143.5452         8     0.913     0.608  45.52  24
        17     86.4741      1.6122 307.8986222  +6.6729273     2100.251     2722.438     3064.876     73.82229     132.7329     248.0481      1.371     3.25     910.4429     57.00945     404.9008        15     1.282     0.663   7.24  24
        18    898.3841    994.8096 307.5279602  +6.2901500      9098.26        14054     14877.37     80.81681     161.5049     323.3315      1.660     3.55      921.355     57.00945     1173.087        36     1.448     1.117  50.73   0
        19    736.5476   1021.8879 307.5942446  +6.2735629     1331.871     2024.833     1669.057     81.07378     152.0176     271.4704      1.596     4.02     925.2148     57.00945     206.7521        15     1.236     0.821  57.25  24
        20    560.2440   1023.6844 307.6673811  +6.2669199     1239.004     1421.997     1273.058     70.21195       128.27     243.0074      1.078     2.59     929.4568     57.00945     389.9304         7     0.886     0.571 -17.74  24
        21    253.7996    997.9980 307.7954713  +6.2672417     956.0728     1404.404     1432.221     80.42981     161.3116     323.1063      1.561     2.43     930.4609     57.00945     179.7316         8     0.790     0.646  59.60   0
        22    993.7331    990.3687 307.4885202  +6.2951657     5054.082     7634.046      7711.39      80.9454     161.7623     323.3959      1.639     3.46      918.825     57.00945     632.3131        28     1.371     1.054  58.34   0
        23    872.0335    990.8964 307.5390319  +6.2908854     12752.44     20207.98     21519.15     81.20196     161.6336     323.5566      1.689     3.47     921.5459     57.00945     1800.956        49     1.472     1.312  47.61   0
        24    584.7900    991.4656 307.6582733  +6.2810427     1548.716     2307.513     1905.143     80.55902     161.5693     323.2994      1.583     3.74     928.0874     57.00945     206.4105        16     1.222     0.866  47.83   0
        25    516.0060    989.8258 307.6868863  +6.2794150     4440.253     6343.842     6445.622     80.55901     161.5692      323.235      1.525     3.36     929.4957     57.00945     563.2141        25     1.293     0.987  61.26   0
        26    625.6597    989.0576 307.6413858  +6.2834055     1669.779      2454.67     2341.499     81.20196     161.6979     323.4602      1.546     4.04     927.0976     57.00945     213.4903        15     1.196     0.838  25.81   0
        27     50.7030    988.5397 307.8801072  +6.2643148     808.0609     1419.101     1563.079     80.81681     161.7623     323.5245      1.730     3.21     930.9081     57.00945     147.9463         7     0.831     0.643  70.44   0
        28    469.3175    986.3402 307.7063876  +6.2792887      2446.89     3398.942     2987.078     81.20196     161.8265     323.4602      1.516     3.68     929.7263     57.00945     331.1949        19     1.202     0.951  44.20   0
        29    903.7433    978.4808 307.5262822  +6.2970700      46526.3     69918.99     72980.73     81.20196     161.7623      323.428      1.657     3.45     920.8579     57.00945     6216.836        63     1.510     1.221  52.13   0
        30    210.9498    976.7516 307.8139776  +6.2745723     1817.679     2645.615     2500.144     81.07378     161.6336     323.3959      1.525     3.52     930.3029     57.00945     266.3757        18     1.199     0.922  39.14   0
        31     98.9045    976.1815 307.8605137  +6.2710389     647.7196     909.0175     452.0549     80.94539     161.5692     323.2029      1.382     4.36     929.9072     57.00945     102.8986         6     1.081     0.501  49.10   0
        32    609.9451    974.9615 307.6483840  +6.2886985     969.2053     1305.267     1067.287     81.07378     161.8265      323.428      1.439     5.18     927.1369     57.00945     170.7532        10     1.180     0.643  65.59   0
        33    749.7974    970.2487 307.5904766  +6.2953241      6981.15     10539.84     11948.59     80.42981     161.4405     323.0097      1.660     3.45     923.9253     57.00945     984.9086        38     1.576     1.238 -86.34   0
        34    801.6301    972.0947 307.5688937  +6.2962950     2522.181     3691.128     3953.078     81.20196     161.5049     323.3315      1.578     3.55     921.7203     57.00945     361.1962        21     1.292     0.974  51.49   0
        35    536.2472    969.2091 307.6791759  +6.2886044     965.5714     1352.089     1746.133     80.55901     161.6979     323.0741      1.596     5.63     928.8665     57.00945     124.0063        11     1.131     0.821  33.72   0
        36    219.3408    969.1741 307.8107496  +6.2779825     1724.419     2179.137     1976.836     80.68801     161.7623     323.2672      1.390     3.79     930.3155     57.00945     261.0149        17     1.254     0.909  43.49   0
        37    183.6145    968.5470 307.8256031  +6.2770402     912.5667     1259.201     1081.605     80.42982     161.6979     323.1707      1.553     4.11     930.1674     57.00945      132.017         8     0.922     0.684  36.31   0
        38    938.0648    965.1730 307.5124777  +6.3037096     7157.303     11203.15     11413.09     80.68801     161.6979     323.3315      1.642     3.45     919.7177     57.00945     986.0637        35     1.384     1.144  44.81   0
        39     44.1358    967.0390 307.8835601  +6.2729693     3009.362     4451.023     4456.351     81.07378     161.6979     323.4602      1.542     3.45     930.5229     57.00945     434.6967        23     1.187     1.055  56.79   0
        40     58.6065    961.3576 307.8777445  +6.2758019     475.0261     454.0714    -4.769351     80.55902     161.4405     323.1385      1.142     4.29     930.2184     57.00945      75.9339         5     1.022     0.513  46.42   0
        41    911.9461    956.8505 307.5236012  +6.3062735      2255.02     3738.782     3847.396     81.20196     161.7623     323.4602      1.778     3.67     920.1152     57.00945     305.7968        23     1.254     1.115  38.28   0
        42    632.6210    952.7851 307.6397144  +6.2986128     5047.798     7094.042     7272.212     80.81681     161.5049     323.3315      1.490     3.27     926.2789     57.00945     744.6656        28     1.307     1.025  47.84   0
        43    981.4546    952.7669 307.4948773  +6.3102793     858.0197     1524.942      2164.32      80.9454     161.7623     323.3637      1.869     5.45       918.07     57.00945     117.4388        11     1.236     0.849  40.22   0
        44    771.2487    953.0215 307.5821481  +6.3031533      1390.31     2047.244     2079.391     80.68801     161.8265     323.3315      1.606     3.79     922.9457     57.00945     204.6318        14     1.176     0.801  53.49   0
        45    244.7302    952.9689 307.8007554  +6.2855256     4914.446     6903.907     7194.919      80.9454     161.7623     323.3959      1.483     3.25     930.2747     57.00945     727.9103        22     1.172     1.007  56.58   0
        46     13.3449    950.3241 307.8969082  +6.2788324     2388.187     3202.294     3065.251     81.07378     161.7623     323.3637      1.473     3.06     930.3347     57.00945     369.3359        19     1.119     0.972  61.40   0
        47    454.5054    951.0954 307.7137236  +6.2933418     1243.234      1736.78     1227.137     81.07378     162.4039     323.3315      1.487     3.22     929.4008     57.00945      176.512        11     0.982     0.726  19.38   0
        48    864.1762    949.3953 307.5436855  +6.3077559     992.7399     1347.207     1687.349     80.55901     161.5049     323.2672      1.399     3.59      921.206     57.00945     150.6395         8     0.879     0.661  51.67   0
        49    935.9097    946.8481 307.5139864  +6.3112028     915.3494     1467.039     1495.163     81.07378     161.6336     323.5888      1.647     6.12     919.1384     57.00945      121.001        12     1.087     0.969 -15.63   0
        50    955.8036    946.8348 307.5057265  +6.3118723     576.6235     810.3248     341.6656     80.17078     161.6336     323.2029      1.398     3.87     918.5795     57.00945     85.04816         6     0.774     0.556  44.73   0
        51    280.6582    946.5635 307.7860549  +6.2893770     888.9671     1109.652     1575.953     81.07378     161.7623     323.4602      1.538     4.69     930.2499     57.00945     134.7844         8     1.052     0.651  38.51   0
        52    988.7717    944.9336 307.4921014  +6.3137573     989.7047     1991.388     2263.518      80.8168     161.6979     323.3959      2.153     5.14     917.5955     57.00945     137.7174        13     1.292     0.936 -55.35   0
        53    557.2250    945.3663 307.6712679  +6.2991502     1887.084     2322.257     2399.718     80.42981     161.5049     323.2029      1.303     3.20      927.931     57.00945     335.3372        13     1.097     0.730  48.84   0
        54    596.5187    941.7208 307.6550759  +6.3019714      1612.09     2143.833      2014.77     81.20196     162.0192     323.5888      1.477     4.53     926.9106     57.00945     235.7979        15     1.253     0.849  60.66   0
        55     45.8112    942.1429 307.8837060  +6.2833030     593.5096     715.7883     859.1132     80.42981     161.6979     323.1385      1.279     4.71     929.9163     57.00945     85.79303         8     1.281     0.491  49.14   0
        56    276.3448    939.5631 307.7880817  +6.2921220     1693.219     2434.114     3109.423      80.9454     161.7623     323.4602      1.672     4.07     930.2209     57.00945     242.9441        17     1.193     0.974  78.53   0
        57    742.9135    935.2148 307.5945106  +6.3095569     894.6133     1254.304     1062.665     80.68801     161.5049     323.3315      1.445     3.45     923.7933     57.00945      134.406         9     0.959     0.661 -26.51   0
        58    880.7670    932.1450 307.5373751  +6.3154315      7698.46      11289.6     11514.89     80.94539     161.7623     323.3959      1.578     3.26     920.4661     57.00945     1129.255        34     1.389     1.061  49.75   0
        59    416.6411    929.2267 307.7301808  +6.3010994     2307.512     3378.761     3397.444     80.68802     161.5693     323.2672      1.563     3.34     929.2934     57.00945     332.8494        17     1.223     0.867  35.59   0
        60    318.3211    927.5679 307.7710582  +6.2984838     10839.94      15003.8     15425.91      80.9454     161.7623     323.3959      1.527     3.31     929.8942     57.00945     1569.676        32     1.317     1.044  56.74   0
        61    585.3596    929.0888 307.6601338  +6.3068125     736.5936     514.0963     390.7951     81.07378     161.6979     323.4602      1.183     3.45     926.9625     57.00945     120.3427         7     0.749     0.647  50.11   0
        62    238.3657    926.4785 307.8042913  +6.2962473     7945.045      10776.9     11251.54      80.9454     161.8265     323.4602      1.495     3.26     930.1469     57.00945     1221.447        27     1.264     0.998  56.55   0
        63    566.5784    921.1564 307.6681985  +6.3094580     1350.451     1698.599      1679.92     80.55901     161.6336      323.235      1.468     3.80     927.1182     57.00945     224.3815        15     1.210     0.867  25.59   0
        64    750.8451    920.7253 307.5917037  +6.3158038      830.208      1315.72     1346.275      80.9454     161.8265     323.4602      1.518     4.37     923.2823     57.00945     116.4379         9     1.001     0.781  38.34   0
        65    896.6071    917.1129 307.5313018  +6.3221662     1210.114      1793.13     1924.707     80.55901     161.4405     323.1707      1.621     4.51     919.4644     57.00945     163.8236        11     1.006     0.825  77.45   0
        66    200.7462    917.1353 307.8202255  +6.2988396     457.8933     752.6588     631.9741     81.07378     161.6979     323.3959      1.569     4.64     930.1038     57.00945     83.17004         6     1.555     0.393  31.52   0
        67    128.7478    916.7244 307.8501318  +6.2965876     657.1016     1039.994     926.1605     81.07378     161.8265      323.428      1.483     4.22     929.8673     57.00945      100.748         7     1.105     0.459  58.36   0
        68    853.0258    916.4132 307.5494211  +6.3209994     776.7491      1312.96      1626.63      80.8168     161.5693     323.3637      1.728     3.76     920.7365     57.00945     113.0828         6     0.835     0.487   5.94   0
        69    394.9651    915.2344 307.7396518  +6.3061483     572.1083     865.9424     1103.148      80.8168     161.5049     323.1707      1.571     3.89     929.1694     57.00945     121.1711         5     0.860     0.505  44.41   0
        70    963.7991    912.5984 307.5035534  +6.3262730     661.8172     1016.997     1400.181     80.42981     161.3116     323.1063      1.468     5.07     917.2592     57.00945     113.0228         7     1.342     0.542  31.36   0
        71    825.8453    911.0096 307.5608883  +6.3223220     769.1478     872.6668     791.5036     80.55901     161.6336     323.1063      1.375     2.78     921.0873     57.00945     132.0225         8     0.825     0.641  48.98   0
        72    732.7090    910.1299 307.5995897  +6.3195713     1908.852     2519.852     2551.717     81.07378     161.8908      323.428      1.383     3.21     923.5118     57.00945     317.7783        14     1.128     0.766  50.02   0
        73    596.7903    906.7207 307.6561396  +6.3164295     1005.848      1166.72     751.3919     80.68801      161.376     323.2672      1.395     3.60     926.0076     57.00945     160.5457        10     1.128     0.617  71.58   0
        74    964.1829    905.9209 307.5036177  +6.3290425     1326.997     2118.696     2306.923     80.68801     161.5049     323.3637      1.629     4.53     917.0394     57.00945     178.2171        14     1.188     0.886  17.77   0
        75    517.7267    905.9595 307.6889931  +6.3140946     1417.621     1738.745     1825.942      80.9454     161.8265     323.4602      1.326     3.04      927.813     57.00945     191.8046        11     0.965     0.721  20.69   0
        76    651.4142    903.5341 307.6335661  +6.3195740     2753.276     3690.177     3809.309     80.55902     161.6336     323.3637      1.458     3.19     924.8669     57.00945     446.7516        16     1.161     0.843  43.92   0
        77    941.9562    901.3934 307.5129985  +6.3301698     736.0746     893.7202     1219.173     80.55901     161.5049     323.1063      1.410     5.16     917.5511     57.00945     144.0993         8     1.055     0.713  53.54   0
        78    556.1371    910.4965 307.6728923  +6.3135088     859.7593     1045.116     1233.897     80.94539     161.8908     323.4923      1.313     3.21     927.0101     57.00945     137.1344         8     0.855     0.671  57.02   0
        79     65.4972    898.9799 307.8769916  +6.3017838     2202.664      3156.43     3456.659     80.94539     161.5692     323.2029      1.589     3.62     929.2149     57.00945     344.6587        19     1.314     0.867  67.61   0
        80     48.0553    899.6173 307.8842115  +6.3009335     3009.353     4822.937     5331.387     80.55901     161.6979     323.1707      1.653     3.54     929.0938     57.00945     405.0284        24     1.359     1.033  71.35   0
        81    812.1071    900.0698 307.5669596  +6.3263791     955.6128     1371.125     1421.855     81.07378     161.8908      323.428      1.436     3.46     921.1195     57.00945      168.383        10     1.028     0.724  45.34   0
        82    191.5227    898.5694 307.8246816  +6.3061937     2410.252     3000.206     2739.653      80.9454     161.8265      323.428      1.402     3.23     930.0367     57.00945     334.2075        17     1.131     0.857  59.03   0
        83    929.2287    898.8132 307.5183698  +6.3308101     793.2828     1085.398     1816.733     80.68801     161.5049     323.3315      1.329     2.84     917.8934     57.00945     137.8666         6     0.727     0.575 -34.11   0
        84    225.5642    895.3047 307.8106580  +6.3086859     932.5003     1196.198     1081.541     81.20196     161.6336     323.5566      1.487     5.31      929.851     57.00945     137.7422        11     1.323     0.637  73.75   0
        85    330.5459    894.8275 307.7670861  +6.3124101     1198.763     1872.098      1971.44     80.81681     161.8265     323.3315      1.726     4.68     929.5947     57.00945     156.4973        14     1.327     0.788  52.99   0
        86    646.0217    892.6450 307.6361710  +6.3238888     7718.183     10738.52     11102.43     80.68801     161.6979     323.2672      1.467     3.17     924.7296     57.00945     1120.963        29     1.290     1.000  59.36   0
        87    783.6147    893.4084 307.5790138  +6.3281767     697.3615      1236.78     1347.705     80.68802     161.5049     323.2672      1.952     4.86      921.711     57.00945     113.9626         8     1.083     0.618  36.34   0
        88      5.9376    890.8751 307.9019934  +6.3031238     1320.488     1800.102     1596.945     81.32993     161.7623     306.1487      1.452     4.34      928.497     57.00945     196.4973        12     1.174     0.796  63.53  16
        89    435.3002    890.3357 307.7237431  +6.3177804     663.3698     880.5101     700.1501     81.07378     161.8908     323.3959      1.415     5.02     928.4264     57.00945     100.6531         7     1.118     0.638  49.29   0
        90    883.7558    888.9523 307.5375819  +6.3333626     3041.836     4455.435     4708.994     81.07378     161.6979     323.3637      1.551     3.29     918.9802     57.00945     405.1358        21     1.217     0.965  44.81   0
        91     19.1277    889.3495 307.8965687  +6.3041978     1247.284     1765.424     1886.172     81.07378     161.8265     323.4602      1.530     4.09       928.58     57.00945     178.6298        14     1.140     0.992  38.38   0
        92    329.0526    885.8010 307.7680104  +6.3160862     17858.44     25252.39     26055.01     80.42981     161.3116     322.9775      1.481     3.12     929.5568     57.00945     2480.934        39     1.345     1.069  50.60   0
        93     63.6282    886.9160 307.8781752  +6.3067010      1411.04     2087.969     1590.786     81.07378     161.5049     323.2994      1.587     3.73     929.0438     57.00945     218.8767        12     0.950     0.887 -11.62   0
        94    379.1955    884.6547 307.7472295  +6.3182429     713.5229     1022.572     889.0736     80.42981     161.5693     323.1063      1.480     4.34     928.9772     57.00945     105.1704         7     0.883     0.608 -84.05   0
        95    200.1323    885.1263 307.8215606  +6.3120327     1337.452     1649.157     1615.482     81.20196     161.8908     323.3959      1.324     3.13     929.9196     57.00945     213.4982        10     0.983     0.655  16.71   0
        96    406.6828    876.5143 307.7360907  +6.3225260     1059.878     1454.326       1746.4     80.81681      161.955     323.5245      1.421     4.32     928.3398     57.00945     164.2471        10     1.066     0.721  23.39   0
        97     92.3539    876.2852 307.8666079  +6.3120565     1991.515     2902.034     3275.631     81.07378     161.6979      323.428      1.635     3.62     929.2991     57.00945     276.1592        16     1.186     0.881  58.02   0
        98    660.6196    872.8376 307.6307752  +6.3325545     942.4499     1099.672     1315.125     80.68801     161.5049     323.1707      1.295     3.99     924.1491     57.00945     148.9526        11     1.104     0.803  54.23   0
        99    486.8515    873.0883 307.7029190  +6.3266294     725.9099     1115.345     1050.634     81.07378     161.5692     323.5245      1.555     4.58     927.8613     57.00945     132.6569         5     1.046     0.570  24.38   0
       100    874.1111    870.7225 307.5421979  +6.3405663     2005.849     2885.059     2930.569     81.07378     162.0192     323.4923      1.554     3.47     918.6556     57.00945     318.5433        17     1.208     0.898  52.45   0
       101    844.9086    870.3382 307.5543367  +6.3397494     2311.905      3355.56     3367.639     81.07378     161.8908     323.5245      1.558     3.57     919.4743     57.00945     313.1865        18     1.288     0.863  44.34   0
       102    808.2950    869.8239 307.5695571  +6.3387382     3311.118     4579.834     4895.033     81.20196     161.5049     323.2994      1.470     3.50     920.6013     57.00945     479.4374        20     1.184     0.923  44.69   0
       103     75.9882    870.0084 307.8736148  +6.3140967     2705.281     3835.819      4284.85     80.68801     161.5692     323.3637      1.515     3.53      929.006     57.00945     389.1581        20     1.257     0.957  37.80   0
       104    544.1390    861.0495 307.6795371  +6.3335197       374311     519387.7       538052     81.07378     161.6979     323.4923      1.492     3.19     925.6347     57.00945     55307.22       151     1.499     1.231  55.56   4
       105    323.7316    867.6204 307.7708325  +6.3234128     729.6277     1084.882     1381.542     80.68802     161.6979     323.2994      1.510     3.44     929.4741     57.00945      125.595         5     0.721     0.473  11.48   0
       106    388.3333    863.5952 307.7441449  +6.3272434      8609.45     11770.16     11946.41     80.55902     161.5049      323.235      1.480     3.13     928.5327     57.00945     1326.421        31     1.275     1.018  50.13   0
       107    631.8909    864.1760 307.6429951  +6.3351684     1395.939     1948.262     1949.969     81.07378     161.5692     323.2672      1.415     3.30     924.2338     57.00945      225.871        15     1.124     0.868  40.37   0
       108    331.5691    861.9746 307.7677686  +6.3260067     13816.23     19493.84     20155.89     80.55901     161.5693     323.2672      1.495     3.24     929.3735     57.00945     2023.293        40     1.354     1.092  60.58   0
       109    649.9651    858.3525 307.6356859  +6.3381776     3999.046     5731.718     5640.998     80.68801     161.7623     323.3637      1.484     3.38     923.8802     57.00945     615.6992        24     1.253     0.982  54.63   0
       110    882.5007    857.2318 307.5391664  +6.3464159     5789.598     8243.294     8858.045     81.07378     161.6336     323.5566      1.572     3.44     917.9976     57.00945     881.6267        27     1.335     0.979  43.74   0
       111    721.5356    855.2266 307.6060725  +6.3418632     1014.481     1422.856     1120.274     80.68802     161.6979     323.3315      1.457     5.15     922.3992     57.00945     139.9649         9     0.953     0.787  53.54   0
       112   1015.9249    851.5067 307.4839546  +6.3532328     4895.109      7300.87     7113.721     80.94539     161.8908      323.428      1.584     3.41     913.4349     57.00945     636.8456        25     1.324     0.982  49.16  16
       113    624.7996    852.3904 307.6463357  +6.3397963     3857.783     5483.118     5606.872     80.42981     161.4405     323.1707      1.469     2.90     923.9528     57.00945     657.9664        24     1.222     1.000  52.71   0
       114    813.3156    851.5659 307.5680849  +6.3464434      1911.46     2492.858     2233.565     81.07378     161.6336     323.3959      1.471     3.79     919.8481     57.00945     282.3887        16     1.191     0.858  56.46   0
       115    617.6022    847.0072 307.6495052  +6.3417777     2445.521     3494.695     4444.489     80.42981     161.4405      323.235      1.839     3.32     923.8903     57.00945      354.287        21     1.275     0.960  73.29   2
       116    940.2913    850.0670 307.5154094  +6.3513034     835.2971     1183.924     1285.431     81.07378     161.8908     323.4602      1.516     4.81     916.2335     57.00945     120.9024         9     1.151     0.570  26.69   0
       117    311.4564    845.6103 307.7766713  +6.3320867     1121.122     1663.259     916.3312     80.42982     161.6979     323.1063      1.509     4.10     929.3089     57.00945     199.5676        12     1.205     0.789  66.98   0
       118    901.2515    845.0237 307.5317895  +6.3520820     3580.534     5107.028     5691.609     80.55901     161.7623     323.3315      1.517     3.15     917.2307     57.00945     616.8667        22     1.303     0.873  34.86   0
       119    359.4623    840.8842 307.7568977  +6.3356498     3037.393      4278.06     4921.097     81.20196     161.8265      323.428      1.613     3.47     928.6015     57.00945     493.7853        18     1.168     0.928  55.96   0
       120    234.0417    838.3489 307.8090599  +6.3324830      520.446     1426.142     2390.524     81.07378     161.7623      323.428      3.288     4.71     929.5479     57.00945     75.22961         4     0.886     0.709 -84.56   2
       121    495.7147    830.8036 307.7006618  +6.3443826     3364.878     4586.381     4860.045     80.55901      161.376     323.1385      1.421     3.08     925.9902     57.00945     484.0862        20     1.169     0.925  41.93   0
       122    840.6476    829.6115 307.5574718  +6.3564202       1196.5     1967.756     2590.585     80.55902     161.6336     323.1063      1.807     3.80     918.3115     57.00945     203.0017        15     1.287     0.859  64.08   0
       123    560.6530    828.2878 307.6737819  +6.3475978     865.8475     1020.753     1356.334     81.07378     161.6336     323.5566      1.213     3.33      923.992     57.00945     132.2454         8     0.903     0.613  82.70   0
       124    542.5735    826.8246 307.6813383  +6.3475960     6679.345     9403.983      9854.34     80.55902     161.5693     323.3315      1.535     3.15     924.1827     57.00945     959.6973        31     1.280     1.089  63.47   0
       125    253.9991    826.9159 307.8011590  +6.3378735     756.3093     998.5829     1141.489      80.3004     161.3116     323.1385      1.290     3.87     929.5413     57.00945     140.4731         7     1.047     0.586  75.44   0
       126    549.4390    826.2391 307.6785073  +6.3480678     1395.187      1997.14     2577.935     80.81681     161.7623     323.2994      1.495     3.26     924.0301     57.00945     256.9712        13     1.197     0.672  58.75   0
       127    460.3684    825.8656 307.7155049  +6.3452358     1837.018     2294.427      2206.74      80.8168     161.8265     323.3637      1.335     3.41     926.7057     57.00945     310.2324        15     1.205     0.815  48.69   0
       128    878.1989    824.9372 307.5420354  +6.3596045      1534.29     2025.157     1880.515     80.42981     161.5693     323.1385      1.430     3.04     917.2652     57.00945       270.07        14     1.082     0.800  48.21   0
       129    101.9237    824.9431 307.8643691  +6.3335731     1569.369     2356.191     1749.942     81.07378     161.6979     323.3637      1.583     3.77     928.5416     57.00945      208.222        17     1.229     0.884  32.44   0
       130    513.2393    820.7475 307.6937234  +6.3491216     22202.83     30719.85     31612.91      80.9454     161.7623     323.3959      1.481     3.23     924.9797     57.00945     3314.311        42     1.341     1.061  53.74   0
       131    354.5067    822.3288 307.7595807  +6.3431434     828.0499     1116.177     1260.719      80.9454     161.8265     323.4602      1.492     5.84     928.1534     57.00945     119.5104         9     1.229     0.782  71.25   0
       132    926.9282    818.9882 307.5219998  +6.3636877     4085.035     6099.724     6008.322     80.55901      161.376      323.235      1.563     3.35     915.9769     57.00945     588.4131        27     1.348     1.063  55.15   0
       133    159.5197    819.6754 307.8406326  +6.3376857     594.8751     686.6703     193.0012     81.32993     162.0192     323.5245      1.539     4.03     929.7238     57.00945     125.9456         5     1.093     0.448  53.21   0
       134     46.8262    816.7189 307.8875239  +6.3351131     548.7372     765.5466     894.2419      80.9454     161.5693     323.4602      1.598     3.91     928.1464     57.00945     108.4717         5     0.926     0.474  47.65   0
       135     23.5463    811.0097 307.8973828  +6.3366858     1656.962     2330.529     1821.199     80.42981     161.6979     323.1385      1.543     3.68     928.1009     57.00945     213.1935        16     1.114     0.985  47.76   0
       136    568.2229    810.8062 307.6712265  +6.3550683     578.0726     868.8228     787.9461     80.55901     161.5049     323.2672      1.879     3.40     923.2839     57.00945     80.50598         5     0.965     0.348  46.76   0
       137    305.8737    809.5025 307.7802068  +6.3468050     3686.048     5200.182     5412.748     80.68801     161.8908      323.428      1.517     3.36     929.0823     57.00945     542.5283        20     1.215     0.932  48.48   0
       138    771.4386    805.3055 307.5870264  +6.3641411     62793.82     85296.21     87842.34     81.20196     161.6336     323.5566      1.492     3.20     919.3708     57.00945     9965.386        59     1.373     1.104  53.26   0
       139      5.7411    807.5761 307.9048917  +6.3375034     2388.294     3410.003     3141.726     80.68802     161.7623      304.172      1.510     3.30      928.115     57.00945     354.6211        21     1.249     0.957  57.82  16
       140    228.2901    781.6932 307.8133597  +6.3556779     772033.5      1662708      1803216     81.07378     162.2758     323.4602      2.184     5.25      928.947     57.00945     62653.15       567     2.664     2.017  82.74   4
       141    414.6966    803.8887 307.7352093  +6.3527761     871.0998      1313.21     1202.093     81.07378     162.2117     323.4602      1.476     4.30     927.3221     57.00945     138.4952         8     1.100     0.479  36.47   0
       142    699.6693    799.9126 307.6170099  +6.3639667     23882.09     33649.23     35643.63     81.07378     162.0192     323.4602      1.493     3.16     921.0829     57.00945     3520.758        46     1.378     1.076  54.84   3
       143    693.3709    796.3854 307.6197438  +6.3652121     100140.3     136746.4     141515.4     80.68802     161.5049     323.3315      1.499     3.24     921.0692     57.00945     16226.02        70     1.366     1.148  52.46   3
       144    896.6965    800.5877 307.5351705  +6.3702745     9487.794     13559.79     13969.39      80.9454     161.5049     323.2029      1.548     3.34     916.2075     57.00945     1376.085        33     1.375     1.018  43.63   0
       145    338.2341    797.2467 307.7671830  +6.3529513     22905.07     32309.35     33129.71     80.68802     161.7623     323.3637      1.498     3.22     927.8737     57.00945     3563.316        43     1.349     1.091  56.15   0
       146    400.1299    795.0938 307.7415542  +6.3559180     24914.43     34758.05     35938.12     81.07378     161.8265      323.428      1.499     3.19     927.0437     57.00945       3674.7        46     1.327     1.120  60.86   0
       147    387.3677    797.5405 307.7467711  +6.3544796     1760.407     2330.975     2693.741     80.81681     161.8265     323.3959      1.435     3.68     927.2747     57.00945     273.6356        14     1.118     0.803  49.61   0
       148    626.5667    796.3745 307.6474847  +6.3629803     819.0828     808.7646     134.0521     80.42982     161.5693      323.235      1.249     3.62     922.2587     57.00945      134.674         9     0.912     0.725  71.02   0
       149    937.2108    793.8491 307.5185723  +6.3744092     2173.417     3213.694     2935.642     80.55901     161.6336     323.1063      1.539     3.78     914.9906     57.00945     294.3777        21     1.468     0.856  70.27   0
       150    893.6249    791.9913 307.5367342  +6.3737208     7405.219     10457.15     10431.63     80.68801     161.5693     323.2672      1.492     3.19     916.0723     57.00945     1053.084        31     1.340     1.003  60.26   0
       151    866.1945    792.5883 307.5481049  +6.3725581     895.3653      1079.33      673.025     80.68802     161.5049     323.3315      1.302     3.19     916.7057     57.00945     153.7856         8     0.954     0.572  67.28   0
       152    634.1028    790.9993 307.6445360  +6.3654517     7237.452     9952.831     9757.893     80.55901      161.376     323.0741      1.435     3.13     921.9369     57.00945     1094.827        26     1.274     0.943  47.06   0
       153    123.9588    791.0757 307.8563639  +6.3482955     554.2972     568.4279     845.8199      80.9454     161.7623     323.4602      1.271     4.30     928.4118     57.00945     91.51062         6     1.213     0.433  54.09   0
       154    374.3628    790.5151 307.7524079  +6.3569433      511.378     637.2136      640.686     81.07378     161.7623     323.3959      1.122     3.42     926.9983     57.00945     86.51556         5     1.047     0.322  69.02   0
       155    422.5529    788.9841 307.7324491  +6.3591927     1787.024     2543.129     2592.665     80.55901     161.6979     323.1707      1.403     4.21      926.429     57.00945     291.9216        16     1.332     0.794  34.16   0
       156    147.6611    788.4835 307.8466098  +6.3501631     754.4464     989.5415     798.7664     81.20196     161.7623     323.4602      1.391     3.96     928.8792     57.00945      127.384         6     0.954     0.470  86.31   0
       157   1016.8607    783.6317 307.4858385  +6.3812852     817.5328     1221.083     1385.567      80.8168     161.8265     322.3974      1.619     5.48     911.0903     57.00945     111.9566        11     1.299     0.652  43.50  16
       158    587.1099    783.4684 307.6643030  +6.3669867     1102.579     1586.513     1334.872     81.20196     161.8908     323.3959      1.440     3.77     922.0803     57.00945     169.4004        12     1.178     0.738  33.26   0
       159    862.7539    783.1023 307.5498518  +6.3763592     753.3926     994.3635     1062.211     81.07378     161.6336     323.6209      1.457     4.60     916.5506     57.00945     98.48071         8     0.857     0.701  48.92   0
       160    138.2811    782.0793 307.8507209  +6.3524912     1026.669     1417.957     1472.098     81.20196     162.0192     323.5888      1.432     5.01     928.5184     57.00945     158.2426        10     1.217     0.620  54.00   0
       161    669.1359    781.0005 307.6303244  +6.3707523     2797.033     3918.062     4184.965      80.3004     161.5049     323.1707      1.483     3.14      920.981     57.00945     439.7146        18     1.155     0.863  41.54   0
       162    113.4240    781.5723 307.8610592  +6.3518640     1267.376     1822.556     1669.447     80.55902     161.6336     323.2672      1.606     4.50     928.0181     57.00945     153.8368        14     1.165     0.904  50.15   0
       163    403.0729    777.7482 307.7409165  +6.3631774     59435.18     83370.37     86593.96     81.07378     161.8265     323.4602      1.497     3.16      926.105     57.00945     8145.672        67     1.402     1.170  48.42   0
       164    946.2578    779.5760 307.5152936  +6.3806035     884.9167     1045.754     1035.701     80.68802     161.7623     323.2672      1.294     4.86     914.2501     57.00945     143.4344        10     0.997     0.755  38.70   0
       165    520.7786    776.7512 307.6920731  +6.3675369     7851.492     10877.87     11058.65     80.68801     161.8265     323.2994      1.473     3.11     922.7422     57.00945     1130.427        27     1.238     0.978  46.52   0
       166    437.5916    775.4399 307.7266605  +6.3652885     5144.726     7137.821     7688.431     80.42982     161.5693     323.1707      1.520     3.21     925.2345     57.00945     825.5291        27     1.325     0.988  50.29   0
       167    766.0220    773.4481 307.5903450  +6.3771116     12687.21     17623.22     18360.96     80.68801     161.7623     323.2994      1.481     3.17     918.6006     57.00945     1802.768        32     1.283     1.020  43.06   0
       168    434.1793    768.7801 307.7283018  +6.3679234     2606.956     3717.115     3725.996      80.8168     161.6979     323.3637      1.579     3.40     925.0191     57.00945     372.5869        18     1.180     0.858  51.29   0
       169    787.7592    767.7115 307.5815109  +6.3802067     1525.314     2142.765     2003.776     81.07378     161.6979     323.4602      1.558     3.46     917.8414     57.00945     221.1278        13     1.145     0.742  43.96   0
       170    955.3521    767.1270 307.5119341  +6.3860465     615.1974      784.346     1204.648     81.07378     161.8265     323.4602      1.186     3.48     913.5217     57.00945     112.8119         5     0.830     0.422  71.71   0
       171    131.9410    765.5397 307.8539121  +6.3591056     3425.807     4996.686     5619.523     81.07378     161.7623     323.4602      1.569     3.14     928.0498     57.00945      497.777        24     1.372     0.923  52.09   0
       172    123.7559    765.3043 307.8573188  +6.3589273     12637.62     18116.37     18919.24     81.07378     161.6979     323.5566      1.542     3.17     927.9104     57.00945     1952.835        36     1.383     1.053  46.66   3
       173    115.8871    762.8223 307.8606699  +6.3596871     3156.507     4655.699     5338.238     81.07378     161.5692     323.2994      1.579     3.77     927.7592     57.00945     463.0895        27     1.389     1.074  45.73   3
       174    116.0611    756.3679 307.8608157  +6.3623574     2130.209     3115.463     4012.114      80.8168     161.8265     323.3637      1.562     3.78     927.6417     57.00945     303.8551        18     1.376     0.823  42.57   2
       175    911.5248    762.0046 307.5303061  +6.3866980     6988.269     9870.215     10229.94     80.68801     161.2471     323.3315      1.504     3.22     915.0013     57.00945     1053.758        29     1.346     0.975  42.19   0
       176    960.6404    761.9654 307.5099109  +6.3883539     1786.813      2490.11     3096.648      80.8168     161.7623      323.235      1.557     3.25     913.1195     57.00945     256.3267        16     1.117     0.891  56.53   0
       177    667.0549    759.5818 307.6319082  +6.3795248     1899.173     2645.651     2582.252     80.55901     161.7623     323.2029      1.557     3.14     920.2784     57.00945     263.3386        17     1.112     0.900  28.17   0
       178    553.7842    758.8641 307.6789692  +6.3760274     2589.333     3448.487     3515.759     80.55901     161.6336     323.2994      1.391     2.93     921.0864     57.00945     388.5494        18     1.118     0.893  51.99   0
       179    401.6918    758.4402 307.7421404  +6.3711017     1429.092     2175.746     2322.675     81.20196     161.6979     323.4923      1.659     4.01     925.0333     57.00945     213.6226        12     1.063     0.760  50.21   0
       180    935.1993    753.5255 307.5207588  +6.3909889     3474.884     4993.493     5223.882      80.3004     161.1826      323.235      1.518     3.22      914.153     57.00945     534.5258        24     1.244     1.066  62.03   0
       181    905.7151    754.0671 307.5329848  +6.3897809     3292.575     4502.056     4731.203     81.20196     162.0192     323.4602      1.432     3.16     914.9562     57.00945     490.6837        19     1.199     0.869  48.85   0
       182    658.3609    753.2477 307.6357313  +6.3818487     1548.399     2207.729     2535.052      80.9454     161.7623      323.235      1.673     3.91      920.147     57.00945     231.6702        15     1.228     0.864  56.70   0
       183    965.9769    753.2545 307.5079867  +6.3921281     1961.379     2607.119     2505.684     80.55901     161.7623      323.235      1.410     3.47     912.6628     57.00945     282.0471        16     1.148     0.865  39.86   0
       184    805.1896    751.3718 307.5748209  +6.3875349     1037.794     1597.401     1925.951     80.68801     161.5693     323.2994      1.609     4.94     917.0505     57.00945     149.6794        11     1.171     0.681  49.25   0
       185    880.3687    749.2597 307.5436717  +6.3909189     849.2853      1102.72     1243.038     80.81681     161.8265     323.3959      1.367     3.03     915.4337     57.00945      165.585         9     0.891     0.723  26.30   0
       186    230.5155    748.1017 307.8135692  +6.3696197     2018.484     2800.957     3050.617     81.07378     162.2117     323.4923      1.532     3.73     927.9028     57.00945     307.7034        15     1.196     0.807  56.21   0
       187    146.2411    743.3915 307.8487223  +6.3687298      840.156     1353.002     1233.541     80.42981     161.5693     323.1707      1.667     5.49     927.6584     57.00945     119.7413        12     1.164     0.855  64.69   0
       188    923.3221    743.5333 307.5260260  +6.3947174     1122.705     1511.134     1405.194     81.20196     161.8265     323.3959      1.433     2.75     914.3441     57.00945     205.8521        11     0.918     0.807  78.51   0
       189    897.4575    742.2407 307.5368104  +6.3943874      1249.15     1804.363     1332.708     81.07378     161.7623     323.4602      1.551     5.07      914.892     57.00945     160.9901        14     1.227     0.935  62.65   0
       190    250.7131    743.2980 307.8053444  +6.3722817     792.8389     1060.826     1377.951     81.07378     162.2117     323.4602      1.671     5.11     927.6612     57.00945     109.9829         9     1.030     0.717 -18.93   0
       191    950.1265    741.2418 307.5149715  +6.3965583     2661.891     3742.052      4381.06     80.94539     161.8265     323.4602      1.513     3.24     913.1329     57.00945     416.9791        19     1.213     0.865  38.62   0
       192    669.8070    740.4989 307.6314065  +6.3874949      1144.92     1402.408     1352.189     80.81681      161.376      323.235      1.296     3.68     919.5457     57.00945     150.5274        11     1.049     0.713  46.02   0
       193   1023.3601    735.0834 307.4847650  +6.4015443     6305.598     7512.796     7622.869     74.38368     133.2802     248.6762      1.148     2.81     909.5163     57.00945      1187.55        14     1.037     0.688  87.49  24
       194    460.6445    735.3416 307.7184380  +6.3826153     751.1376     985.5422     1051.207      80.9454     161.6979     323.5245      1.465     4.69     922.5983     57.00945      124.179        10     1.116     0.750 -61.71   0
       195    390.9242    735.5147 307.7473841  +6.3802044     605.7869       882.08     1228.527     81.20196     162.0834     323.4923      1.696     5.14     924.0417     57.00945     112.5081         7     1.113     0.781  87.87   0
       196    991.8714    734.6409 307.4978566  +6.4006765     1776.793     2305.795     2417.524      80.9454     161.7623     323.4923      1.343     3.19     910.9926     57.00945     280.1146        14     1.151     0.717  36.55   0
       197    617.9693    734.2475 307.6531433  +6.3883400     747.1001     1125.946     994.7274     80.68801     161.7623     323.3315      1.616     5.03     919.9116     57.00945     109.8896         7     1.065     0.671  20.37   0
       198    793.2196    733.0007 307.5804082  +6.3947189     1408.201     1968.657     1921.535     80.68801     161.3116     323.1385      1.464     3.87     916.8312     57.00945     211.2451        11     1.012     0.750  41.03   0
       199    238.6495    732.3275 307.8107239  +6.3764050     611.3361     1007.308     1728.709     81.07378     161.8265     323.4602      1.716     4.48      927.313     57.00945     82.82367         6     1.025     0.557 -53.00   0
       200    879.5579    730.3542 307.5446423  +6.3986967     1702.564     2357.968     3071.458      80.9454     161.7623     323.2672      1.688     4.05     914.9877     57.00945     238.0099        15     1.239     0.809  42.52   0
       201    853.7879    725.9234 307.5554928  +6.3996649     1101.538     1570.762     2043.744     80.68801      161.376     323.2672      1.602     6.13     915.4259     57.00945     174.7202        13     1.284     0.899  23.39   0
       202    836.4208    722.0543 307.5628348  +6.4006819       1625.9     2539.426     2247.832     80.55901     161.7623      323.235      1.590     4.28     915.6098     57.00945     235.5474        14     1.296     0.718  42.93   0
       203     99.5496    719.7103 307.8689104  +6.3769342     944.1288      1982.34     2015.898     81.07378     161.5693     323.5566      2.224     8.06      926.989     57.00945     137.7792        16     2.103     0.863  73.50   0
       204     35.3139    720.6614 307.8955515  +6.3743785     2780.849     4220.849     4737.879     81.07378     161.8908      323.428      1.627     3.36     926.4026     57.00945     391.3334        21     1.201     1.030  66.49   0
       205    552.8937    715.5022 307.6807977  +6.3938984      674.877      898.796     397.5445     81.07378     162.3399     323.3315      1.355     4.39     919.6647     57.00945     94.18939         7     0.904     0.606  82.09   0
       206    241.4894    712.6904 307.8102073  +6.3846069      734.419     1295.208     1250.755     81.07378     162.2758     323.5245      1.828     5.99      926.491     57.00945     107.1299        12     1.428     0.708  63.22   0
       207    690.7927    712.4436 307.6236343  +6.3997793     458.5823     464.2725     465.2411     80.55902     161.5049     323.1385      1.019     3.34     917.9875     57.00945     87.32336         5     0.734     0.455 -20.25   0
       208    648.1165    709.3560 307.6414606  +6.3996254     7129.721      9730.68     10773.61     81.07378     161.7623      323.428      1.469     3.13     918.7389     57.00945     1091.526        27     1.276     0.974  47.24   0
       209    594.7866    708.7049 307.6636292  +6.3981081     1511.992     1981.205     1605.049      80.8168     161.5049     323.2672      1.402     3.82     919.4163     57.00945     218.8802        15     1.229     0.777  49.25   0
       210    516.8631    708.8668 307.6959834  +6.3954299     720.2953     1156.828     1779.648     81.07378     161.7623      323.428      2.268     5.48     920.2977     57.00945      104.787         7     1.024     0.826  70.27   0
       211    505.7352    708.8349 307.7006056  +6.3950700     787.3531     1098.124      872.439      80.9454     161.7623     323.4602      1.415     4.48     920.5974     57.00945     149.5195         7     1.050     0.544  26.87   0
       212    111.0736    705.1076 307.8646186  +6.3833503     3980.898         5783     6215.674      80.9454     161.8908     323.4602      1.513     3.28     926.7266     57.00945      579.731        23     1.282     0.961  55.74   0
       213    985.0723    704.5588 307.5016878  +6.4128685     2898.349     4135.503     3778.043     80.94539     161.7623     323.4923      1.489     3.39     910.9023     57.00945      410.786        23     1.270     0.947  52.57   0
       214    621.8868    705.0196 307.6524990  +6.4005372     2307.681      3418.54     3294.427      80.8168     161.5049     323.3315      1.486     3.17     919.0566     57.00945     368.1205        19     1.178     0.947  49.98   0
       215    297.4091    705.2775 307.7872363  +6.3895464     737.6625     1271.736      903.069     80.68802     161.2471     323.2672      1.793     4.24     925.7286     57.00945      110.649         7     0.951     0.538  30.61   0
       216    233.1520    704.8550 307.8139339  +6.3875612     781.9943     1041.478     1047.273     81.07378     161.7623     323.5245      1.575     3.75     926.1793     57.00945     120.7684         7     0.843     0.679 -40.01   0
       217    764.9814    701.4276 307.5931948  +6.4068089     22686.47     30934.74     32057.46     80.68801     161.5693     323.3315      1.432     3.14     915.8188     57.00945     3341.506        43     1.289     1.105  45.27   0
       218    895.0702    701.1290 307.5391802  +6.4112799     4093.208     5616.998     5837.484     81.07378     161.8908     323.3959      1.442     3.21     913.8766     57.00945     601.5972        21     1.227     0.910  40.21   0
       219    492.6345    701.4645 307.7062941  +6.3976734      1083.51     1503.769     1404.858      80.9454     161.7623      323.428      1.644     6.04     920.7054     57.00945     129.5534        14     1.236     0.923  44.86   0
       220    464.1005    701.6304 307.7181379  +6.3966479     1613.651     2369.323     2090.322     81.07378     161.5049     323.4923      1.558     3.90     921.4606     57.00945     237.0237        17     1.216     0.964  24.94   0
       221    446.8184    702.6497 307.7252803  +6.3956474     457.3012     487.4693    -30.52093     80.55901     161.8265      323.235      0.852     1.96     921.9061     57.00945     124.4261         5     0.701     0.434  21.01   0
       222    309.7210    701.0913 307.7822648  +6.3916882     741.6697     1105.796     870.6887      80.8168      161.955     323.4923      1.785     5.34     925.2096     57.00945     127.6384         9     1.400     0.575  41.93   0
       223    266.1885    700.6327 307.8003577  +6.3904147     762.1169      797.817     627.3223     80.55901     161.4405     323.2994      1.173     3.70     925.8854     57.00945     126.7404         7     0.953     0.475   5.60   0
       224     73.6125    696.9479 307.8804500  +6.3854575     564.7192     926.0764     746.1902     80.42981     161.6979     323.1385      1.475     4.04     926.5777     57.00945     110.3275         6     1.077     0.433  76.93   0
       225    238.4533    695.0357 307.8120638  +6.3917930     6864.022     9673.561     10178.94     80.94539     161.7623     323.4602      1.495     3.15     925.7315     57.00945     1119.953        28     1.311     0.983  48.22   0
       226    645.5215    694.2125 307.6430472  +6.4057901     7709.883     11098.04     11743.06     80.68802     161.4405     323.2672      1.543     3.19     918.2768     57.00945     1295.955        35     1.356     1.075  57.48   0
       227    627.4931    695.4828 307.6504914  +6.4046620     1014.933     1510.325     1062.909     80.81681     162.0834     323.5566      1.481     5.68     918.6799     57.00945     165.9757        11     1.274     0.714  17.09   0
       228    340.8951    694.5828 307.7695388  +6.3954221     806.5366     880.6146     367.8485     80.94539     161.5692     323.2672      1.383     5.25     924.2031     57.00945     128.2933         8     1.354     0.575  44.47   0
       229    905.3774    686.9432 307.5353752  +6.4174804     1429.795     2019.593     2018.233     80.68801     161.6979      323.235      1.665     3.58     913.2677     57.00945     216.2384        12     1.062     0.739  31.54   0
       230    717.2540    682.6843 307.6136449  +6.4129502     4054.123     5674.972     6060.178     81.07378     161.7623     323.5888      1.501     3.15      915.925     57.00945     606.8323        23     1.294     0.916  61.72   0
       231    672.4080    683.3685 307.6322461  +6.4111669     1285.039     1682.866     2154.139     80.55902     161.5693     323.2029      1.591     4.02     917.3413     57.00945     214.3187        12     1.212     0.765  41.68   0
       232    983.5564    679.2919 307.5031638  +6.4232490     10089.93     14166.69     14661.19     81.07378     161.6979     323.5566      1.520     3.23     910.5698     57.00945     1625.357        30     1.304     1.004  43.27   0
       233    922.0447    679.8067 307.5286925  +6.4209832     2748.413     4035.437     3552.191     80.55901     161.5693     323.1063      1.508     3.33     912.6718     57.00945     415.7856        20     1.245     0.878  44.83   0
       234    724.6768    679.5135 307.6106688  +6.4145075     576.4616     647.1155     1117.564     81.07378     162.0834     323.4923      1.483     4.82     915.5207     57.00945     101.0609         5     1.025     0.642 -66.89   0
       235      3.0116    678.8698 307.9103781  +6.3905421     2051.781       3066.7     3224.375     80.55901     151.0568     269.9721      1.552     3.94     926.3409     57.00945     288.0026        16     1.287     0.893  42.54  24
       236    419.7348    677.2529 307.7373829  +6.4052229     756.0463     1078.587     1278.596     81.07378     161.6979     323.3959      1.645     5.32      921.768     57.00945     122.4794        10     1.121     0.712  33.04   0
       237    522.1260    674.8465 307.6949428  +6.4096507     2117.837     2815.065     3318.307     80.94539     161.8265      323.428      1.447     3.13     919.3063     57.00945        326.1        17     1.141     0.905  58.46   0
       238    259.7203    675.6943 307.8038850  +6.4004923     467.0865     599.0096     394.7247     80.81681     162.0192     323.4923      1.239     3.81     924.8542     57.00945     91.43707         5     0.930     0.448  45.47   0
       239     60.9093    673.9589 307.8865021  +6.3945197     27804.89     40001.62     41053.06     81.07378     161.7623     323.4602      1.508     3.20     926.3821     57.00945     3804.165        47     1.383     1.126  54.64   0
       240    491.0793    672.3057 307.7079215  +6.4096586     1493.655     2067.044     1851.516      80.8168     162.0192     323.4923      1.454     3.92     919.8601     57.00945       230.59        12     1.074     0.757  50.72   0
       241    911.8876    671.4506 307.5331909  +6.4240937     1045.191     1121.871     980.5051     81.07378     161.6336     323.5566      1.335     4.53     912.6696     57.00945     172.4105         8     0.983     0.627  67.48   0
       242    531.0074    668.8362 307.6914567  +6.4124296     1144.452     1699.074      1502.59     80.42981     161.5692     323.1707      1.569     3.69     918.9798     57.00945     161.1171        10     1.089     0.795  47.15   0
       243    706.8599    666.3113 307.6185115  +6.4193616     3958.286     5453.329     5634.229      80.9454     161.8908     323.5245      1.491     3.15     915.5923     57.00945     568.4377        22     1.228     0.913  47.55   0
       244    728.9803    664.5969 307.6093825  +6.4208095      4355.85     6200.123      6212.06     80.68801     161.3116     323.2029      1.489     3.20     914.8882     57.00945     645.4811        25     1.273     0.962  50.56   0
       245    560.3887    662.5590 307.6794662  +6.4160057      3665.23     4894.815     5304.483     80.42982     161.5693     323.1385      1.428     3.15     918.4476     57.00945     577.4265        22     1.226     0.931  56.27   0
       246   1001.8109    660.7898 307.4962023  +6.4314963     5474.817     7757.892     7421.868     80.68801     161.5693     323.3959      1.475     3.25     909.4813     57.00945     771.4012        25     1.291     0.967  44.49   0
       247    396.3392    662.8235 307.7475847  +6.4103944     1460.384     1985.612     1834.633     80.68801     161.6979     323.3315      1.398     2.82     921.8383     57.00945     229.2311        13     0.955     0.845  17.30   0
       248    220.9203    661.9105 307.8204626  +6.4048780     1924.102      2909.29     2863.833      80.8168     162.0192     323.5245      1.542     3.43     924.4752     57.00945     272.9192        16     1.151     0.886  59.82   0
       249    304.4255    661.3704 307.7858034  +6.4079077     1546.968     2189.934     2110.284     80.55902     161.5693     323.2672      1.569     3.52     923.9311     57.00945     216.2693        13     1.094     0.799  37.84   0
       250    967.2244    659.6136 307.5106059  +6.4308278     8933.845     12423.49     12746.38     80.81681     161.5693     323.3637      1.473     3.17     910.6143     57.00945     1352.371        28     1.267     0.982  46.46   0
       251   1016.2168    658.1351 307.4903083  +6.4330729     845.2079     1306.467     1136.915     80.55901     161.6336     323.3315      1.667     5.75     908.9136     57.00945     108.1082        10     1.079     0.863  43.72   0
       252    687.1389    658.3748 307.6269682  +6.4219780     1143.842      1267.09     1646.036     80.68801     161.7623     323.3315      1.329     4.39     915.9398     57.00945     160.9531        11     1.019     0.745  72.85   0
       253     79.0989    656.4211 307.8795416  +6.4023720     886.0085     1139.838     1862.064     81.07378     161.5692     323.2029      1.675     4.36     925.9708     57.00945     174.0302         9     1.190     0.617  49.48   0
       254    412.5952    653.9512 307.7411328  +6.4146027     3062.925     4503.173     4873.339     80.42981     161.5693     323.1063      1.554     3.27     920.9983     57.00945     465.5673        23     1.271     1.042  61.02   0
       255    125.6900    652.8944 307.8603131  +6.4053963     26083.95     37158.23     37452.48     81.07378     162.2758     323.4602      1.516     3.16      925.293     57.00945     3747.454        45     1.360     1.112  52.48   0
       256    793.8702    653.4195 307.5828089  +6.4275940     1302.447     1816.789     1898.735     80.68801     161.6336     323.3637      1.447     3.32     913.8192     57.00945     213.6816        12     1.055     0.790  47.25   0
       257    344.6648    647.5323 307.7695595  +6.4149719     713.9749     1151.411     1226.782     81.07378     161.7623     323.4602      1.821     5.93     922.3734     57.00945      87.9549         9     1.125     0.880 -56.90   0
       258    962.1752    642.6019 307.5132729  +6.4376822     7710.069     11412.27     11888.55     80.68801     161.4405     323.2029      1.566     3.26     910.2126     57.00945     1117.129        33     1.510     0.965  41.55   0
       259      6.7504    641.7925 307.9100797  +6.4059737     1208.501     1593.102     1385.414     80.55901     161.5049     313.3342      1.445     3.76      926.493     57.00945     199.8568        13     1.213     0.837  48.79  16
       260   1017.4867    637.7395 307.4904639  +6.4415352     103823.9     142730.3     147580.2     81.20196     161.8908     319.3506      1.507     3.17     908.2061     57.00945     14659.54        79     1.429     1.137  51.00  16
       261    555.6802    637.7799 307.6822553  +6.4260773     52887.25     74346.43     76627.56     80.81681     161.4405     323.3959      1.519     3.21     917.8302     57.00945      7853.99        60     1.402     1.147  53.00   0
       262    920.2703    639.4467 307.5307824  +6.4375858     755.6216     974.2086     487.4095     81.07378     161.6979      323.428      1.477     5.05     911.4941     57.00945      123.152        10     1.040     0.798  73.88   0
       263    424.2065    639.8683 307.7367852  +6.4208061     468.7837     745.5267     883.0125     80.55901     161.4405     323.2672      1.455     3.81     920.1819     57.00945     79.38062         5     1.198     0.348  79.59   0
       264    198.2733    638.4012 307.8306610  +6.4138213      655.838     1010.774     937.8573     80.42981     161.2471     323.2994      1.466     3.48     923.8651     57.00945     100.5109         5     1.091     0.321 -68.60   2
       265    515.0465    637.8530 307.6991278  +6.4246851     834.3659     1159.165     1159.005     81.07378     161.7623     323.4602      1.445     5.19     918.5664     57.00945     132.9188        10     1.245     0.612  60.75   0
       266    780.3726    637.2317 307.5889579  +6.4338255     708.7512     1007.787     1429.243     80.55902     161.5049      323.235      1.157     3.50     913.7333     57.00945     150.9745         6     1.127     0.365  58.15   0
       267    163.2861    634.5015 307.8453220  +6.4142542     3069.493     4317.202     4314.585     81.07378     162.2117     323.4923      1.511     3.37     924.1132     57.00945     474.7629        20     1.255     0.912  55.27   0
       268    966.4021    634.1415 307.5118009  +6.4413160     727.2493     1109.955     1441.111     80.42981     161.5049     323.1385      1.873     6.06     909.7778     57.00945     108.2928        10     1.223     0.844  51.62   0
       269    485.7434    634.5607 307.7114081  +6.4250616     756.7878     886.8759     1050.661     81.07378     161.8265     323.3959      1.165     3.90     919.0601     57.00945      105.756         7     0.947     0.491  -5.17   0
       270     55.7026    628.7080 307.8901941  +6.4130243     1537.053     2015.504     1963.833     81.07378     162.2758     323.3637      1.449     3.39     925.7149     57.00945     198.7028        14     1.077     0.843  51.85   0
       271    452.9767    621.5641 307.7254537  +6.4293277     66225.32     95146.62     98861.11     80.68801     161.5049     323.2029      1.523     3.24     919.1342     57.00945     9274.338        72     1.443     1.183  52.38   0
       272    638.4728    618.1891 307.6485300  +6.4369385     862.9174     1183.915     642.7594     80.55902      161.376     323.2994      1.380     3.94     915.6048     57.00945     138.4347         9     1.074     0.694  73.69   0
       273    127.4543    616.6266 307.8608059  +6.4204274     1785.204     2349.462     2194.907     80.68802     161.8908     323.2672      1.397     3.21      924.131     57.00945     285.0988        15     1.163     0.791  47.72   0
       274    406.5408    614.2256 307.7449856  +6.4307990     928.1876     1144.468     633.2142     80.68802     161.7623     323.2672      1.388     4.16     919.3517     57.00945      146.606        11     1.067     0.861  56.52   0
       275    922.2265    614.2520 307.5308145  +6.4480523     620.0848     863.2687     906.1265     80.68802     161.8908     323.3315      1.345     3.65     910.6465     57.00945     109.9551         5     0.911     0.421  45.58   0
       276    480.8997    612.5834 307.7141597  +6.4339718     600.4561     873.6567     1005.182     81.07378     161.5049      323.235      1.686     5.91     918.6194     57.00945     95.94684         7     1.323     0.743  84.77   0
       277    598.8063    613.4880 307.6651619  +6.4375506     749.5783      1059.39     1306.053     80.55902     161.4405     323.1707      1.268     2.68     916.3293     57.00945      147.879         5     0.729     0.433  25.28   0
       278    298.3156    610.9313 307.7900420  +6.4285244     2254.647     3501.445     3267.674     81.32993     162.0192     323.4602      1.648     3.82     922.3002     57.00945     332.4472        20     1.245     1.051  65.78   0
       279    450.8170    609.7314 307.7267491  +6.4341401     923.1044     1224.993     1796.697     80.55901     161.6336     323.3315      1.624     5.42     918.7556     57.00945     197.1854        10     1.328     0.630  47.16   0
       280      6.0113    610.5452 307.9114436  +6.4188479     580.5923     850.2418     550.9585     80.42981     161.6979     306.7596      1.225     3.06     926.6334     57.00945     97.50085         6     0.778     0.496   4.07  16
       281    725.0174    605.0831 307.6130273  +6.4452458     5980.658     8301.456     8839.059     80.68801     161.4405     323.3637      1.446     3.32     913.8515     57.00945     877.0896        22     1.211     0.929  47.46   0
       282    778.5768    600.3923 307.5909405  +6.4489738     15415.44     21099.33     21671.31     80.55902     161.5693     323.2672      1.490     3.28     913.2255     57.00945     2597.935        38     1.343     1.037  55.43   0
       283   1018.1641    599.5511 307.4914616  +6.4573232     2176.886     2789.075     2666.377      80.8168     161.7623     314.3284      1.399     3.30     906.8451     57.00945     385.7416        15     1.178     0.787  45.50  16
       284    995.6628    600.8090 307.5007649  +6.4560533     1176.476     1724.516     2194.337     80.55901     161.5693      323.235      1.543     3.70     907.6242     57.00945     166.7385        11     0.956     0.815  47.16   0
       285    520.9106    600.0793 307.6979638  +6.4404755     1360.143     2151.657     2398.128      80.8168     162.0192     323.5245      1.697     4.42     917.4178     57.00945     210.3634        12     1.062     0.812  54.94   0
       286    602.5796    598.3991 307.6641023  +6.4439061     3115.475      4489.83     4789.122     80.68802     161.4405     323.1385      1.625     3.72     915.7533     57.00945     462.8779        21     1.379     0.886  50.93   0
       287     23.6383    599.4769 307.9044980  +6.4240109     649.3713     945.5135     1302.839      80.9454     161.8265      323.428      1.494     4.45     925.9447     57.00945     105.9116         6     0.956     0.786  42.67   0
       288    919.7423    594.7130 307.5325013  +6.4560357     1330.112     1713.149     2149.381     81.07378     161.7623     323.5566      1.448     3.76     910.0237     57.00945     190.3746        14     1.119     0.790  28.77   0
       289    361.1427    592.1071 307.7645849  +6.4384057     1042.837     1522.587     1658.515     80.94539     161.6979     323.5566      1.508     5.09      919.491     57.00945     187.8535        10     1.188     0.644  47.99   0
       290    214.8441    591.7694 307.8253537  +6.4336288     1421.175     1980.583     2073.704     80.68801     161.7623     323.2994      1.484     3.72     922.0981     57.00945     193.5416        14     1.119     0.879   4.16   0
       291    854.5712    583.6788 307.5599389  +6.4584139     3182.436     4415.644     4824.104      80.9454     161.7623     323.3959      1.488     3.17     911.9481     57.00945     534.7816        19     1.224     0.836  51.52   0
       292    149.8788    583.6208 307.8526084  +6.4348072     735.7957     1120.235     1262.574     80.68801     161.4405      323.428      1.667     4.77     923.1684     57.00945     119.7554         9     1.121     0.576  63.75   0
       293    813.4019    581.1559 307.5771224  +6.4580795     2871.533     3848.547     3925.311     80.42981     161.3116     323.0741      1.428     3.45     912.5917     57.00945     452.4969        18     1.253     0.779  47.23   0
       294    784.3347    577.2635 307.5893256  +6.4587146       2700.3     3847.078     4620.205     81.07378     161.7623      323.428      1.593     3.67     912.9398     57.00945     394.7736        19     1.300     0.895  61.81   0
       295    726.9387    577.1342 307.6131681  +6.4568482     906.1976     1458.603     2351.551     81.07378     161.6979      323.428      2.440     4.49     913.4453     57.00945     140.9397         9     1.003     0.755  65.06   0
       296    793.9538    572.2825 307.5854977  +6.4610925       173955     241013.8     249389.1     81.07378     161.7623      323.428      1.470     3.15     912.7957     57.00945     27575.62       100     1.449     1.168  52.35   0
       297    241.4356    575.9003 307.8148460  +6.4410739     8623.693     12438.26     13387.14     81.07378     161.6336     323.5888      1.540     3.23     921.1428     57.00945     1306.053        34     1.364     1.061  56.54   0
       298    175.5852    570.4973 307.8423760  +6.4410896     62741.68     91003.68     95576.62      80.9454     161.5049     323.2029      1.599     3.20     922.4297     57.00945     9379.648        78     1.482     1.263  61.82   0
       299     99.5868    566.7311 307.8740650  +6.4400865     6677.856     9725.791     10027.75     80.55902     161.6336     323.2994      1.554     3.22     923.6241     57.00945     972.0103        30     1.331     1.049  39.51   0
       300    964.8129    564.3791 307.5147986  +6.4700631     1428.145     2079.664     2162.869      80.8168     161.4405     323.3315      1.448     3.68     907.2429     57.00945     240.1125        13     1.167     0.732  42.73   0
       301    985.7241    563.0699 307.5061572  +6.4713015     741.5839     1082.257      997.637     81.32993     161.8908      323.428      1.711     4.88     906.4917     57.00945     112.6938         7     1.043     0.646  75.14   0
       302    181.5052    563.2875 307.8401609  +6.4442651     540.8832     1039.013     1892.872     81.07378     162.1476     323.4923      1.515     3.40     922.1202     57.00945     125.7028         5     0.797     0.420 -66.35   0
       303    213.8446    562.0701 307.8267715  +6.4458554     837.8715     1394.998     2014.526     81.07378     161.7623      323.428      1.600     3.52     921.0873     57.00945     156.7679         8     0.931     0.678  61.56   0
       304    830.4891    559.5963 307.5707490  +6.4675511     5058.854     6810.619     7013.662     80.55902     161.4405     323.1063      1.463     3.22     911.7172     57.00945     863.1954        23     1.228     0.993  47.26   0
       305    348.9780    557.6731 307.7707979  +6.4522122     18136.01     26340.12     26786.46     80.68801     161.5693     323.3637      1.540     3.19     918.7781     57.00945     2571.037        44     1.415     1.098  49.10   0
       306    439.5218    557.3772 307.7332036  +6.4553739      794.403     1370.178     1409.298     80.68802     161.5693     323.3959      1.806     6.17     917.5215     57.00945     117.2814        11     1.271     0.843 -11.99   0
       307    150.9096    556.4705 307.8530975  +6.4460498     2001.712     2920.522     3572.847     80.94539     162.0192      323.428      1.505     3.58     922.8198     57.00945     273.7872        16     1.236     0.827  53.69   0
       308    515.3248    552.6047 307.7018817  +6.4598867     7078.297     10125.19      10152.1     80.68802     161.2471     323.3637      1.554     3.27     915.8583     57.00945     1078.138        28     1.291     1.009  53.60   0
       309    225.9214    554.2366 307.8220204  +6.4494953     1147.283     1868.245     2636.673     80.94539     161.8265      323.428      1.933     4.36     920.4106     57.00945     152.6516        14     1.208     0.822  37.56   0
       310     88.0086    553.4654 307.8793217  +6.4451729     999.5067     1577.451     1956.577     80.55901     161.5049     323.2994      1.795     4.50     923.5829     57.00945     170.1509        11     1.311     0.788  51.51   0
       311    784.4910    552.9223 307.5900778  +6.4687685     6542.461     9001.525     8548.698      80.8168     162.0192     323.4602      1.458     3.14     912.6989     57.00945     990.6127        28     1.266     0.988  46.58   0
       312    373.6038    549.2001 307.7608561  +6.4565369     1515.747     2173.801     2430.132     80.42981     161.3116     323.1707      1.637     4.17     918.1266     57.00945     243.8495        12     1.191     0.703  48.21   0
       313    162.3048    545.6772 307.8487297  +6.4508888     7202.916     10339.43     10796.02     80.81681     161.8908     323.5245      1.543     3.21     922.5525     57.00945     1034.373        32     1.307     1.098  53.03   0
       314    843.2584    545.9644 307.5659029  +6.4736055     611.7424      732.415     844.0336     81.07378     161.7623      323.428      1.198     3.80     910.8255     57.00945     107.6953         5     0.813     0.510  34.99   0
       315    801.1370    545.1292 307.5834257  +6.4725423     1635.595     2104.859     2006.988     81.07378     161.7623     323.4923      1.378     3.09     912.4849     57.00945      233.629        14     1.091     0.771  72.69   0
       316    559.8491    545.4778 307.6836294  +6.4643214     2452.148     4038.031     3821.997     81.07378     161.8265     323.3959      1.714     3.93     914.1968     57.00945      349.765        22     1.325     1.061 -23.23   0
       317    257.5962    542.1439 307.8092737  +6.4555523      90102.7     132255.5     136995.5     80.42981     161.5692     323.1063      1.568     3.14      919.366     57.00945     13780.42        82     1.489     1.215  52.50   0
       318     33.8927    544.3932 307.9021025  +6.4470952     5244.384     7828.875     7675.911     80.68801     161.4405      323.235      1.570     3.35     924.3775     57.00945     792.5918        28     1.332     1.042  46.66   0
       319    546.6832    539.7211 307.6892914  +6.4662566     1039.097     1263.124     1166.737     81.20196     162.0192     323.5566      1.437     3.18     914.1346     57.00945     158.6349        10     1.012     0.661  15.64   0
       320    241.5088    537.1509 307.8161235  +6.4570726     1738.548       2404.7     3071.266     81.07378     161.6336     323.5888      1.632     3.77     919.4584     57.00945     267.4027        16     1.206     0.923  30.37   0
       321    956.9767    535.9888 307.5190048  +6.4815220     1781.814     2406.547     2639.447     80.68801     161.5692     323.2994      1.436     3.86     906.4779     57.00945     249.7577        14     1.181     0.771  42.33   0
       322    780.6859    534.6716 307.5922710  +6.4761757     17635.16     24314.17     25256.78     81.20196     162.0192     323.4602      1.487     3.17     912.2245     57.00945     2807.413        37     1.321     1.014  51.32   0
       323    484.3351    532.9977 307.7154127  +6.4669416     42590.59     67180.17     71098.95     80.42981     161.5049     323.2029      1.660     3.36     916.4244     57.00945     6422.795        72     1.600     1.297  32.89   0
       324    634.4656    531.5897 307.6531058  +6.4725546     1047.498     1429.399     1577.881     80.55902     161.5693     323.2994      1.583     3.70     913.2074     57.00945     160.2911        10     0.995     0.775  27.55   0
       325    706.4174    527.5875 307.6233558  +6.4766157     1381.858     2225.221     2452.725     80.81681     161.4405     323.3315      1.827     6.10      912.398     57.00945     187.3394        16     1.618     0.775  68.01   0
       326    196.4996    529.2401 307.8350834  +6.4588247     2038.703     2957.469     2959.218     81.07378     161.6336      323.653      1.516     3.51     920.7546     57.00945     267.6858        16     1.134     0.890  39.46   0
       327     32.3831    529.5972 307.9032299  +6.4531522      1414.46     1999.014     1779.507     80.68802     161.3116      323.235      1.574     3.65     924.2438     57.00945     230.4575        12     1.043     0.816  50.17   0
       328    654.3423    527.9771 307.6449717  +6.4747116     1572.158     2097.223     2254.886     80.68801     161.7623      323.235      1.398     2.88     912.7512     57.00945     251.5956        12     0.956     0.800  29.12   0
       329    644.2541    528.0437 307.6491595  +6.4743463     3290.643     4699.395     5459.574     81.07378     161.7623      323.428      1.543     3.21      912.907     57.00945     522.3504        19     1.210     0.902  48.00   0
       330     82.4815    529.0259 307.8824433  +6.4550755      661.764     964.5826     1054.048     80.94539     161.5692      323.428      1.540     3.81     923.1837     57.00945     95.79492         6     0.834     0.499 -87.28   0
       331    381.9816    523.7807 307.7582335  +6.4673118      1768.46     2571.986     2611.558      80.8168     161.6979     323.3637      1.439     3.04      917.147     57.00945     260.6339        18     1.149     0.907  47.86   0
       332    313.5361    521.9815 307.7867212  +6.4657556     4065.016     6014.957     6590.422     80.68801     161.7623     323.2672      1.601     3.30     917.6846     57.00945     580.3763        24     1.329     0.970  57.39   0
       333    128.6911    520.5114 307.8635399  +6.4601462     27555.12     39697.07     41312.48     81.07378     162.2758     323.5245      1.549     3.10     922.3964     57.00945     4183.993        47     1.405     1.122  50.33   0
       334    856.4782    520.4733 307.5612673  +6.4845708     1676.645     2263.433     1760.189     81.32993     162.0192     323.4602      1.445     3.91     909.1044     57.00945     242.5629        15     1.196     0.771  50.83   0
       335     62.8209    525.4401 307.8907297  +6.4558937      709.147     1479.841     1864.732     80.68802     161.5693     323.2029      2.533     4.33     923.5083     57.00945     106.7212         7     0.992     0.720 -15.86   0
       336     93.8806    518.6453 307.8780601  +6.4597446     2979.724     4372.552     4994.248     81.07378     161.7623      323.428      1.634     3.29     922.6852     57.00945     404.3068        24     1.283     1.059  70.81   0
       337    330.5580    517.3474 307.7798079  +6.4682405     997.9594       1234.7     1484.265     81.07378     161.8265     323.4602      1.417     4.19     917.3696     57.00945     166.6154         9     1.193     0.503  35.81   0
       338    954.2123    515.2322 307.5208487  +6.4899987     5622.894     7906.156     7927.551     80.55901     161.5049     323.3315      1.452     3.50     905.8657     57.00945      904.488        25     1.275     0.914  47.72   0
       339    493.3709    521.3301 307.7120527  +6.4720613     2168.334     2927.613     2230.169     80.81681     161.7623     323.3637      1.436     3.49     915.5887     57.00945     341.2854        15     1.141     0.793  50.46   0
       340    527.4127    507.6834 307.6983733  +6.4788365     1702.818      2270.16     2549.689     80.68802     161.5693     323.2672      1.395     3.60     914.0732     57.00945     239.2012        15     1.113     0.907  29.06   0
       341    633.6695    501.3596 307.6544530  +6.4850077     13131.82     18363.97     19032.65      80.9454     161.7623     323.4923      1.509     3.20     912.0861     57.00945     2137.419        39     1.359     1.062  55.87   0
       342    425.6669    501.6908 307.7408340  +6.4778973     45233.95     65176.46     67405.76     81.20196     161.8908     323.4602      1.556     3.27     915.9015     57.00945     6630.416        59     1.436     1.159  44.84   0
       343    273.6109    501.9358 307.8039794  +6.4726891     1162.452     1630.879     1624.556     80.55901     161.5693     323.3315      1.505     4.51      917.249     57.00945     171.6856        14     1.123     0.910  41.63   0
       344    190.8682    499.2323 307.8384357  +6.4710227     20083.08     30759.86     31657.68     80.94539     161.7623      323.428      1.611     3.36     920.1603     57.00945     2994.155        46     1.500     1.124  46.37   0
       345    967.5676    499.9665 307.5158131  +6.4967466     1127.683     1711.444     2301.002     80.55901     161.5049     323.1707      1.760     3.70     904.8798     57.00945     195.4292        11     1.111     0.646  41.29   0
       346    156.4942    500.2603 307.8526772  +6.4694418     1794.816      2545.82     2473.714      80.9454     161.7623     323.4923      1.523     3.70     921.7603     57.00945     248.3229        16     1.191     0.862  44.43   0
       347    896.2658    499.2163 307.5454543  +6.4946755     747.4892     930.4791     1307.532     80.55901     161.6336     323.2994      1.411     3.58     906.9815     57.00945     133.9769         5     0.975     0.379  75.42   0
       348    807.5182    499.2289 307.5823160  +6.4917046     1071.921     1595.357     1293.124      80.9454     161.5693     323.3637      1.470     3.66     910.1826     57.00945     169.4238         8     0.958     0.588  26.70   0
       349    555.4359    498.1199 307.6870560  +6.4837239      2974.97     4021.988     3769.738      80.9454     161.8265     323.4602      1.451     3.25     913.2038     57.00945      417.026        20     1.202     0.932  61.53   0
       350    929.3695    495.3674 307.5318334  +6.4973700     5277.668     7080.257     6728.465     80.55902     161.5049     323.1385      1.455     3.11     906.0344     57.00945     892.0097        24     1.209     0.945  46.23   0
       351    602.4678    493.7611 307.6676681  +6.4870994     6977.709     9518.312     9424.514      80.9454     161.6979     323.5566      1.468     3.12     912.3336     57.00945     1033.343        27     1.265     0.973  43.60   0
       352     90.2439    494.1230 307.8803995  +6.4697451     1149.315     1518.381     1580.008     80.94539     161.7623     323.4602      1.430     4.41     922.1802     57.00945     164.4957        12     1.112     0.898  65.45   0
       353    502.6401    492.6734 307.7091677  +6.4842023      580.821     821.0181     604.0932      80.9454     161.8265     323.4923      1.225     3.46      914.238     57.00945      110.255         5     0.747     0.463  77.50   0
       354    951.8068    487.6833 307.5227713  +6.5012914     3906.612     5657.954     6053.847     80.68801     161.4405     323.2994      1.517     3.21     905.0151     57.00945     548.8303        24     1.262     1.054  51.09   0
       355    514.6222    484.9959 307.7044495  +6.4877735     7797.889      11264.8     11285.51     80.68801     161.5049     323.2029      1.520     3.15     913.7128     57.00945     1104.965        32     1.330     1.069  46.45   0
       356    390.4348    486.8306 307.7559681  +6.4828492     757.1288     1014.789     1198.934     80.68801     161.5049     323.2029      1.638     5.40     915.7803     57.00945     150.4603         9     1.195     0.755  10.42   0
       357    360.6810    485.1270 307.7683834  +6.4825534      2896.19     4305.691     4289.419     81.32993     162.0192     323.4602      1.586     3.12     915.9225     57.00945     409.8821        22     1.334     0.888  48.70   0
       358    871.1944    480.9295 307.5564815  +6.5013873     3389.651     4632.052     5752.195     80.55901      161.376     323.2994      1.509     3.40     906.7722     57.00945      542.193        17     1.218     0.791  48.70   0
       359    523.9081    481.5275 307.7007094  +6.4895167     774.6379     1280.214     1678.523     80.94539     161.8908     323.4602      1.937     4.76     913.4524     57.00945     120.8066         6     0.935     0.688 -79.76   0
       360    218.7310    480.1537 307.8275078  +6.4798358     673.5032     1093.919     1445.153     81.07378     161.6979      323.428      1.751     2.35     918.0579     57.00945     138.9324         5     0.693     0.629  18.70   0
       361    878.6414    475.3611 307.5535750  +6.5039349     2399.305     3436.388     4371.602     80.81681     161.7623     323.2994      1.569     3.40     906.4568     57.00945     414.5072        19     1.333     0.830  52.24   0
       362    917.7316    474.4996 307.5373670  +6.5055963     1436.597     1850.204     1472.314     81.07378     161.8908     323.3959      1.376     3.50     905.5675     57.00945     227.6384        12     1.068     0.752  38.17   0
       363     96.9032    474.0797 307.8783113  +6.4782434      826.284     1140.834     602.0251      80.8168     162.0192     323.5245      1.265     3.96     921.4916     57.00945     191.6221         9     1.314     0.532  31.59   0
       364    702.5724    471.3257 307.6268434  +6.4997133      3235.09     4560.861     4627.349      80.9454     161.6979     323.3959      1.524     3.57     910.1885     57.00945     490.4683        24     1.325     0.994  51.35   0
       365    373.4534    469.3860 307.7636092  +6.4894805     3912.564     5641.193     6342.079     80.42982     161.6979     323.1707      1.590     3.53     915.1057     57.00945     604.6145        23     1.276     1.005  43.54   0
       366     64.4758    470.0051 307.8919168  +6.4788333     1965.353     2848.856     2859.128     80.68801     161.2471     323.2994      1.565     3.99      922.307     57.00945     274.7065        18     1.205     0.993  88.44   0
       367    413.5668    469.6617 307.7469390  +6.4907134     1181.627     1672.089     2188.724     80.81681     161.8265     323.3637      1.589     4.23     914.7581     57.00945     170.6114        12     1.082     0.770  54.76   0
       368    601.1567    465.9473 307.6691482  +6.4985376     11007.37     15612.27     16403.56     81.07378     161.7623      323.428      1.492     3.19     911.3042     57.00945     1616.771        34     1.312     1.065  58.64   0
       369    763.8404    462.5845 307.6016885  +6.5053718      17629.2     24600.93      25845.8     80.55901     161.5693     323.2029      1.480     3.25      909.351     57.00945     2711.027        38     1.340     1.029  49.94   2
       370    767.6588    457.7235 307.6002657  +6.5075062     1550.124     2445.528     3185.865     81.20196     161.8265     323.3959      1.760     3.34     909.0698     57.00945     244.0833        14     1.068     0.879  21.26   3
       371    283.6300    462.8427 307.8011373  +6.4891639     2737.237     4052.829      4363.28     80.68801     161.6979     323.2672      1.584     3.17     915.5017     57.00945      407.388        21     1.223     0.959  51.67   0
       372    407.1442    462.1837 307.7498587  +6.4935848     605.9525     958.8978     957.4428     80.42981     161.6979     323.1707      1.491     5.26     914.3622     57.00945      79.8316         7     1.051     0.743  59.49   0
       373    792.8803    459.5201 307.5897291  +6.5076080     1555.221     2049.711     1706.907     81.32993     162.0192     323.5888      1.461     3.35     908.8726     57.00945     251.4411        14     1.157     0.853  47.74   0
       374    366.6023    459.3704 307.7667925  +6.4933850     1687.749     2493.947      2785.17     80.55902     161.5693      323.235      1.651     3.61     914.6961     57.00945     271.7687        17     1.268     0.848  53.07   0
       375    949.0298    457.5460 307.5249350  +6.5136403     2260.144     2849.834      3061.69      80.8168     161.8265     323.3315      1.379     3.62     904.1388     57.00945     321.9509        14     1.102     0.814  44.95   0
       376    101.3452    454.4106 307.8771313  +6.4865125     4704.091     7008.686     7363.106     80.42981     161.6979     323.1063      1.599     3.35     920.9513     57.00945     750.2139        29     1.375     1.015  51.40   0
       377    696.7814    456.0483 307.6297622  +6.5058263     766.4497     1022.032     1021.276     80.55901     161.8265      323.235      1.292     4.98     909.4878     57.00945     117.0419         8     0.924     0.758  11.06   0
       378    355.3300    455.5121 307.7716045  +6.4945992     888.2015     1320.096     1751.148     81.20196     162.0192      323.428      1.933     5.67     914.7175     57.00945      112.068        10     1.484     0.611  42.31   0
       379    739.3438    453.5020 307.6121687  +6.5083018     2492.315     3330.607     3492.061      80.9454     161.7623      323.653      1.512     3.11     909.2044     57.00945     407.9228        17     1.150     0.867  55.29   0
       380   1002.9792    452.1984 307.5027048  +6.5176486     4328.131     6973.225     7393.116     80.68801     161.4405     323.1385      1.643     3.84     902.2096     57.00945     591.8357        26     1.545     0.915  35.31   0
       381    259.2809    451.3721 307.8116376  +6.4930807     1564.448     2334.286     2955.197      80.9454     161.5693     323.3959      1.650     4.32     915.8834     57.00945      219.545        15     1.307     0.807  71.10   0
       382    337.2357    449.0484 307.7793379  +6.4966597     3319.399     4844.198     4348.768      80.8168     161.7623     323.3637      1.512     3.23     914.5772     57.00945     489.1835        21     1.166     0.961  48.64   0
       383    693.2118    446.9805 307.6315496  +6.5094503     1820.978     2473.935     2848.616     80.68801     161.4405     323.3315      1.465     3.23     909.0721     57.00945     312.8364        14     1.126     0.753  43.55   0
       384    966.6679    445.5508 307.5180106  +6.5191810     704.1597     1103.281     1559.602      80.9454     161.6979      323.428      1.551     4.18     903.1807     57.00945     103.7174         6     1.048     0.476  53.30   0
       385    224.9837    444.5926 307.8261115  +6.4947261     836.2084      1223.25     785.1959     80.68801     161.5049     323.2672      1.591     5.93     916.6657     57.00945     101.1049        10     1.030     0.960 -55.76   0
       386    646.8000    443.0284 307.6509605  +6.5095279     374.6849     504.7818     550.9608      80.3004     161.5049     323.2029      1.330     3.76     909.5164     57.00945     80.83466         5     1.230     0.330  25.45   0
       387    436.4527    442.0461 307.7383639  +6.5028817     512.5565      784.866     557.1925     81.07378     161.7623     323.4923      1.532     4.32     912.4981     57.00945     85.32098         5     0.793     0.671   8.22   0
       388    534.4086    439.8583 307.6977507  +6.5070706      1076.61     1395.777      1962.74     80.42981     161.6979     323.1385      1.542     4.24     910.7404     57.00945      162.299        10     1.072     0.690  26.85   0
       389    819.4162    436.9615 307.5794641  +6.5178081     1627.105     1954.434     2360.825     80.68801     161.5693     323.2029      1.368     2.82     907.2526     57.00945     286.4329        14     1.066     0.822  36.13   0
       390    456.7168    437.8597 307.7300881  +6.5052899     1525.428     2250.427     1958.605     81.20196     161.8265     323.4602      1.528     3.34     911.6293     57.00945      230.282        15     1.124     0.866  15.85   0
       391    805.0323    436.0403 307.5854698  +6.5177075     2177.807     3064.868     3268.585     80.68801     161.5692     323.2994      1.451     3.22      907.615     57.00945     329.5019        16     1.146     0.828  48.02   0
       392    702.3454    434.2406 307.6281840  +6.5150153     16243.97     22319.05     23764.51      80.9454     161.7623      323.428      1.491     3.23      908.405     57.00945     2633.864        35     1.321     1.025  51.82   0
       393    604.6184    436.0949 307.6687145  +6.5109773     787.8526     1135.581     1070.802      80.9454     161.5049     323.2672      1.677     3.51     910.0753     57.00945     139.8084         8     1.096     0.544  54.48   0
       394    623.5185    430.3306 307.6610579  +6.5139901     2818.233     3806.124      4735.63     81.32993     162.0192     323.4602      1.572     3.33      909.481     57.00945     444.7148        17     1.151     0.883  59.24   0
       395    695.9656    428.8748 307.6310143  +6.5170169     851.4078     1251.912     1953.576      80.9454     161.7623     323.3959      1.575     3.50     908.1934     57.00945      132.301         8     0.835     0.738   4.95   0
       396    595.7855    425.3869 307.6727437  +6.5151018     12920.97      26454.4     30597.71      80.9454     161.4405     323.3637      2.224     6.61     909.6703     57.00945     2115.624        60     2.392     1.099  36.21   0
       397    927.6119    424.2363 307.5349484  +6.5266764     4264.698     5550.753     5551.514     80.55902     161.5693     323.1385      1.418     3.19     903.6846     57.00945     736.1911        21     1.232     0.896  63.19   0
       398    366.7790    420.0617 307.7680445  +6.5096182     30284.32     44520.87     45797.46     80.68801     161.7623     323.3315      1.550     3.19      912.866     57.00945     4285.477        52     1.424     1.149  51.63   0
       399    403.5331    421.7160 307.7527225  +6.5101693      564.282      632.725     578.0692     81.32993     162.0192     323.4923      1.230     4.36     912.1132     57.00945     94.21222         5     0.785     0.731 -31.82   0
       400    112.6956    419.4393 307.8735992  +6.5013310     2427.921     3486.182     3868.858     81.07378     161.6336     323.5566      1.560     3.33     919.6228     57.00945     340.2045        20     1.225     0.978  40.02   0
       401    883.2302    419.7227 307.5535354  +6.5270574     1610.569     2323.102     2379.559      80.9454     161.8265      323.428      1.522     2.93      904.976     57.00945     258.5979        12     1.082     0.673  46.09   2
       402    879.6906    415.9253 307.5551331  +6.5285068     870.9984     1239.599     884.4362     81.07378      161.955     323.4923      1.462     5.06     904.9649     57.00945      134.461         8     1.019     0.711  77.78   2
       403    896.4802    414.5782 307.5482041  +6.5296238     5618.732     7705.921     8191.492     80.68802     161.4405     323.3959      1.474     3.35     904.4194     57.00945     918.8754        26     1.287     0.921  45.17   0
       404     46.2532    415.0406 307.9013442  +6.5009090     1505.117      2163.14     2075.943      80.9454     161.8265     323.4602      1.571     4.12     920.7546     57.00945     218.8621        14     1.177     0.831  41.62   0
       405    224.3005    410.5778 307.8275438  +6.5087448     14882.02     21570.04     22316.74     81.07378     161.5049     323.2029      1.568     3.07     915.6925     57.00945     2297.112        42     1.374     1.148  52.20   0
       406    951.6124    411.8247 307.5253950  +6.5326016     651.2021     954.8537     1186.623     80.68801     161.5693     323.3637      1.448     2.69     902.5698     57.00945     130.7007         6     0.736     0.608 -22.47   0
       407    719.2241    404.6984 307.6221656  +6.5277759     807.4194     1143.481     1590.877     81.20196     161.5049     323.2672      1.970     4.51     907.0143     57.00945     131.3845         7     1.260     0.459  65.21   0
       408     59.7470    404.6303 307.8960918  +6.5056610     922.4037      1403.98     1605.711      80.9454     161.8265     323.3637      1.687     4.63     920.3487     57.00945      152.948        12     1.170     0.881  85.32   0
       409    687.1452    403.5931 307.6355278  +6.5271586     789.7599     1204.582     1378.287     80.55901     161.5692     323.1385      1.556     4.21     907.0906     57.00945     116.0667         7     0.863     0.585  27.87   0
       410    947.8209    402.6941 307.5272761  +6.5362444     1094.596     1628.577     1827.713      80.9454     161.5693     323.2672      1.526     4.11     902.4068     57.00945     159.9957        10     1.034     0.875  73.80   0
       411    336.9593    400.1107 307.7811033  +6.5168526     1384.824     2025.962     2061.447     81.07378     161.6979     323.4602      1.573     4.11     912.3665     57.00945     219.4711        15     1.245     0.829  18.28   0
       412    124.5679    399.2299 307.8693512  +6.5100733     5461.458     8069.448     8392.835     80.55902     161.5049     323.1707      1.583     3.18     918.6053     57.00945     791.5359        30     1.338     1.038  54.56   0
       413    169.5667    400.3947 307.8506216  +6.5111071      769.803     1529.448     1258.928     80.42982     161.5693     323.2029      2.010     3.54     917.1632     57.00945     139.9866         7     0.892     0.651  15.53   0
       414    229.4315    398.3075 307.8258269  +6.5139827     1294.444     1815.858     1722.011     81.20196     161.5693     323.4602      1.456     4.22     915.2131     57.00945     199.6194        12     1.177     0.715  45.36   0
       415    146.7434    394.9341 307.8602858  +6.5125932     2574.278     4339.681     4398.777     81.20196     161.6979      323.428      1.835     4.11     917.8072     57.00945     350.7036        27     1.532     1.062  75.79   0
       416    810.4890    395.5517 307.5845625  +6.5346047     790.9719     889.0586     509.2365     81.07378     161.6336     323.5245      1.466     3.74     906.0575     57.00945     132.5213         9     0.915     0.794  23.63   0
       417    542.1194    394.2790 307.6960821  +6.5261452       1072.3     1524.295     1335.046     81.32993     162.0192     323.5888      1.516     3.22     908.0941     57.00945     178.6652         9     1.002     0.632  45.41   0
       418    370.1220    389.9738 307.7676704  +6.5221512     2160.064     3317.457     3205.883      80.9454     161.6979     323.3959      1.652     3.54     910.8303     57.00945     275.7251        20     1.263     0.976  59.67   0
       419    258.3928    390.4134 307.8140641  +6.5182153     742.6058     1171.074     935.2766     80.68802     161.5693     323.2672      1.664     4.23      914.275     57.00945     132.9426         7     0.904     0.662  72.70   0
       420    958.5343    388.9186 307.5232876  +6.5422890     1075.677     1487.536     1683.168     81.32993      161.955      323.428      1.491     3.16     901.6072     57.00945     188.8295         9     0.913     0.740  64.36   0
       421    303.4858    387.5932 307.7954292  +6.5208953     762.6409     983.9114     1017.047     80.55902     161.4405     323.1707      1.478     4.37     912.9376     57.00945     102.5059         8     1.086     0.500 -89.46   0
       422     20.2273    384.2070 307.9131970  +6.5127602     3320.299     5351.572     6087.078     80.55901     161.6336      323.235      1.751     3.61     920.8627     57.00945      490.292        29     1.458     1.166 -85.59   0
       423    423.9301    383.4106 307.7455413  +6.5266671     7748.584      11165.5      11271.2     80.55901     161.5693     323.2994      1.519     3.15     909.0794     57.00945     1098.698        27     1.286     1.019  54.57   0
       424    764.5737    380.8289 307.6041298  +6.5391472     14106.83     19718.46     20446.91     80.55901     161.5693     323.2994      1.486     3.21     905.9447     57.00945     2058.518        38     1.320     1.062  47.34   0
       425    756.3955    382.4012 307.6074741  +6.5382245     2191.802     2998.475     3179.468     80.42982     161.3116     323.1707      1.487     3.42     906.0139     57.00945     339.7899        15     1.135     0.807  35.73   0
       426    327.8501    379.0189 307.7855984  +6.5252535     1136.815     1636.619     1922.693     80.55901     161.8265      323.235      1.467     3.61     911.5665     57.00945     165.3121        10     0.975     0.756   3.83   0
       427   1008.3214    375.9650 307.5030400  +6.5492983     4043.793     5673.293     5776.512     80.94539     161.8265      323.428      1.498     3.08     899.5399     57.00945     708.0354        24     1.272     0.947  37.71   0
       428    938.7772    372.4581 307.5320466  +6.5484247     608.0626      1147.18     1834.403     80.68802     161.7623     323.2672      1.937     2.56     901.7308     57.00945     116.6967         5     0.702     0.482 -14.36   0
       429    172.4931    371.5949 307.8503791  +6.5230943     712.7272     1111.443     823.8936     80.68802     161.4405     323.1707      1.540     5.24     916.5681     57.00945     109.1256        10     1.222     0.699  28.22   0
       430    889.2203    370.5652 307.5526962  +6.5475510     548.9588     817.7676     1044.904     80.55902     161.5693      323.235      1.282     3.31     903.2643     57.00945     108.0933         5     0.726     0.477 -14.43   0
       431    512.3335    369.1850 307.7092995  +6.5355057     576.1252     697.7684     757.4685     80.55901     161.6336     323.3637      1.345     5.09     906.9117     57.00945     72.67108         6     1.096     0.668  66.90   0
       432    444.2809    367.8012 307.7376140  +6.5337939     2253.285     3291.585     3021.788      80.3004     161.2471     323.1707      1.552     3.22     907.7347     57.00945     331.8285        20     1.206     0.940  48.36   0
       433    472.0305    367.0852 307.7261114  +6.5350207      3330.75     4824.862     4521.665     81.07378     161.5692     323.2994      1.504     3.26      907.158     57.00945     456.3823        22     1.180     1.015  55.46   0
       434    900.7889    366.9292 307.5480126  +6.5494385     974.7555     1124.698     1056.165     80.55901     161.4405      323.235      1.299     3.56     902.7731     57.00945     156.7531        10     0.950     0.735  61.90   0
       435    829.8949    363.8032 307.5775671  +6.5483600     35088.91     51688.58     53978.27      80.8168     161.4405     323.1707      1.573     3.36     904.6056     57.00945     4867.121        52     1.439     1.139  63.19   0
       436    975.3552    364.0001 307.5171354  +6.5531376     687.9227      801.993      584.168      80.3004      161.376     323.0097      1.234     2.96     900.2391     57.00945      121.066         7     0.741     0.686  75.93   0
       437     47.7607    360.2191 307.9025724  +6.5235903     703.2464      1097.06     814.1617     80.68801     161.5693     323.1385      1.622     4.67     919.7454     57.00945     92.03082         8     0.907     0.682  79.54   0
       438    321.9296    359.1953 307.7887264  +6.5332380     960.2337     1336.757     1345.604     80.55901      161.376     323.2994      1.401     3.24     910.9042     57.00945     144.9176         8     0.837     0.650  52.03   0
       439    601.6078    356.0186 307.6726590  +6.5439336     2906.469     4086.059      4066.52     80.68801     161.4405     323.2672      1.510     3.15      906.011     57.00945     427.4398        17     1.143     0.852  49.56   0
       440     10.0522    356.5679 307.9183584  +6.5238267     1162.231     1786.569     1558.227     80.94539     161.7623     323.3315      1.667     3.68     921.0082     57.00945      190.192        13     1.164     0.898   8.06   0
       441    132.8906    354.1384 307.8674184  +6.5289675     683.1292     1043.049     1111.825     81.07378     161.8908     323.4923      1.722     4.29     917.1965     57.00945     133.0232         7     1.173     0.566   1.91   0
       442    686.3188    349.7321 307.6376816  +6.5493659     86097.84     119953.2       124503     81.20196     162.0192     323.4923      1.512     3.15     904.7136     57.00945     12710.07        73     1.430     1.138  51.47   0
       443    844.4075    351.1310 307.5719639  +6.5540766     1376.539     1975.802      2015.43     80.55901     161.4405     323.3315      1.514     3.31     903.8406     57.00945     231.1074        14     1.165     0.770  47.04   0
       444     65.5285    348.8413 307.8955773  +6.5288857     1501.387      2242.33     2582.924      80.9454     161.7623     323.4923      1.588     3.84     918.8997     57.00945      229.927        17     1.316     0.895  40.14   0
       445     86.0110    345.1815 307.8871934  +6.5310864     6506.765     9778.955     9863.821     80.68801     161.4405     323.3315      1.565     3.44     918.1801     57.00945     1005.545        32     1.419     1.078  65.50   0
       446    548.7654    346.5810 307.6949270  +6.5460586      2835.75     4256.414      4109.27     80.55902     161.5693     323.2029      1.577     3.36     905.4706     57.00945     444.8467        21     1.244     0.971  53.27   0
       447    927.5649    346.7510 307.5375664  +6.5586629     930.6683     1415.761     1370.708      80.9454     161.8265     323.3637      1.491     3.63     901.3441     57.00945     148.8992         8     0.997     0.631  51.24   0
       448    375.9742    346.6212 307.7667014  +6.5402443     718.3289     1039.003     1263.586     80.68801     161.5693     323.3637      1.446     2.57     908.0299     57.00945     125.9442         7     0.708     0.669  -9.72   0
       449    532.0491    342.6013 307.7020049  +6.5471411     7684.437     11224.55     11960.14     80.42981      161.376     322.9775      1.520     3.17     905.3511     57.00945      1164.08        29     1.355     1.000  50.39   0
       450    755.9473    343.4939 307.6089673  +6.5542714     529.6968     481.3442     799.7405     80.94539     161.6979     323.6852      1.127     5.16     904.5582     57.00945     97.07764         6     0.927     0.810  85.10   0
       451    394.9990    337.7856 307.7590966  +6.5445306     27198.73      40121.7     41643.42     80.68801     161.4405     323.2029      1.549     3.12     907.3158     57.00945     3775.319        49     1.415     1.150  50.11   0
       452    260.8434    340.0017 307.8147479  +6.5391081     2723.206     4132.105     3849.222     80.42981     161.4405     323.1063      1.543     3.20     912.6906     57.00945     449.7572        22     1.277     0.996  47.66   0
       453    573.9134    337.2678 307.6847941  +6.5507463     599.9647     775.2488     455.5257     81.20196     162.0192     323.4602      1.411     3.76     904.8243     57.00945     118.3497         5     0.817     0.497  45.57   0
       454    502.7278    336.5083 307.7143900  +6.5486731     1419.942      2070.68     2225.457      80.9454      161.955      323.428      1.601     3.97     905.3488     57.00945     227.6243        13     1.273     0.642  40.78   0
       455    374.8799    335.6888 307.7675246  +6.5447206     1197.963     1814.986     2256.982      80.8168     162.0192     323.5245      1.712     4.62     907.7539     57.00945     157.4056        12     1.122     0.846  36.58   0
       456    474.0998    332.9225 307.7264027  +6.5491931     1268.705     1958.865     2077.413      80.8168      161.955     323.4602      1.606     3.91     905.5716     57.00945      179.789        12     1.077     0.778  35.11   0
       457    789.8547    330.4161 307.5953211  +6.5608043     973.5145     1546.437     1749.757     80.42981     161.7623     323.1385      1.637     4.22     903.9457     57.00945     169.4057        10     1.058     0.643  58.58   0
       458    626.0494    330.1810 307.6633751  +6.5554188     576.7111     806.6431     917.0883     80.55901     161.8265     323.2672      1.749     4.54     904.2415     57.00945     89.93127         6     1.359     0.431  71.31   0
       459    371.7628    330.1999 307.7690045  +6.5468818     893.7825     1215.145     1735.346     80.04095     161.5049      323.235      1.405     3.35     907.6666     57.00945     173.5577         9     1.040     0.698  77.79   0
       460    484.1540    328.1911 307.7223856  +6.5514835     8981.479     13370.51     14124.33     80.55901     161.6336     323.0741      1.570     3.32     905.1747     57.00945     1326.912        33     1.370     1.094  50.36   0
       461    753.2033    327.0237 307.6106605  +6.5609789     3432.815     4910.833      5568.72     80.68801     161.4405     323.2672      1.539     3.37     903.8687     57.00945      475.214        22     1.323     0.955  50.09   0
       462    908.6047    326.6421 307.5461171  +6.5663312     1007.467     1399.526     1619.632     80.42981     161.4405     323.1385      1.369     3.54     901.2118     57.00945     172.1428         8     1.080     0.493  52.83   0
       463    701.1309    326.7553 307.6323010  +6.5593471     769.4043     970.1287     1258.399     81.07378     161.6979      323.428      1.462     5.19     903.8214     57.00945      106.884        10     1.239     0.615  42.72   0
       464    310.6724    324.9783 307.7945569  +6.5469849     1105.459     1806.643     2199.619     80.68801     161.5693     323.3959      1.813     5.13     909.9336     57.00945     172.1496        14     1.295     0.797  45.92   0
       465    246.0406    318.5618 307.8216206  +6.5474610     678.1432     814.8228     658.5812      80.8168     161.8265     323.2994      1.893     6.09     912.3365     57.00945     97.47906        10     1.488     0.701  48.55   0
       466    145.7204    318.7950 307.8632839  +6.5439894     1221.333     1728.195     2170.842     80.68801     161.2471     323.2029      1.584     5.10      916.257     57.00945     158.5921        15     1.226     0.977 -11.65   0
       467    592.9971    317.3738 307.6775362  +6.5595985     553.1995      869.854     801.5895     80.55901     161.4405      323.235      1.579     4.53     903.5381     57.00945     83.84631         6     1.115     0.523  50.74   0
       468    422.7672    318.5812 307.7482093  +6.5533907     596.3758     558.5907     511.5102     80.55902     161.5693      323.235      1.161     3.39     906.0533     57.00945     93.74677         5     0.759     0.439  21.30   0
       469    373.9741    312.4058 307.7686860  +6.5543017     7846.042     11488.06     11744.15     80.55901     161.5693      323.235      1.555     3.28      907.127     57.00945     1183.077        32     1.384     1.045  50.98   0
       470    229.9857    312.8384 307.8284828  +6.5492837     2279.142     3611.286     3579.921      80.8168     161.5692     323.1385      1.684     3.83     912.8174     57.00945     290.0706        23     1.379     1.013  50.10   0
       471    727.4614    312.4398 307.6218441  +6.5661381     1010.454     1404.643     1661.474     81.07378     161.7623     323.4923      1.506     3.82     903.2396     57.00945     171.1582        11     1.072     0.849  29.04   0
       472    741.8450    308.2755 307.6160088  +6.5683386     58574.99     82067.93     84714.62      80.9454     161.8265     323.4602      1.489     3.14     903.0698     57.00945     9216.909        63     1.394     1.138  50.02   0
       473    413.5401    307.5771 307.7524132  +6.5576236     2544.198     3738.443     3777.562     80.68802     161.6979     323.2994      1.583     3.26       905.92     57.00945     381.9391        20     1.198     0.974  49.74   0
       474    976.6477    305.4256 307.5185619  +6.5773619     1908.811     2626.402     2568.072     80.68802     161.8265     323.3315      1.465     3.09     897.8491     57.00945     294.7224        16     1.147     0.826  46.24   0
       475    917.4797    304.5978 307.5431697  +6.5757281     2548.796     3386.074     3587.615     80.42982     161.2471     323.2029      1.443     2.91     900.2854     57.00945      458.505        17     1.189     0.813  47.24   0
       476    559.4142    304.9037 307.6919064  +6.5636208     1200.789     1834.567     1589.343      80.8168     161.5049     323.2029      1.675     4.76     902.7692     57.00945      165.837        16     1.316     0.908  31.40   0
       477    450.4822    304.0607 307.7371859  +6.5603152     1039.581     1699.279     1795.243     81.20196     161.7623     323.4602      1.706     3.98     904.9072     57.00945     183.2948        13     1.177     0.888  33.53   0
       478    399.9790    303.2899 307.7581910  +6.5589381     2149.388     3313.005     3380.324     80.94539     161.5693     323.3315      1.617     3.32     906.1564     57.00945     316.6875        18     1.185     0.917  51.55   0
       479    280.2213    302.5711 307.8079622  +6.5552113     563.6063     747.9786      279.788     80.55902     161.5693     323.3315      1.304     4.85     910.0338     57.00945     99.35693         6     0.938     0.710  15.21   0
       480    821.2076    297.7857 307.5833922  +6.5753233     1246.648     1752.026     1929.092     80.68801     161.5049     323.2672      1.468     4.63     902.0685     57.00945     179.7982        13     1.273     0.741  40.59   0
       481    450.2250    298.0038 307.7374968  +6.5628069     777.3599     1231.784     1287.213     80.55901     161.4405     323.2672      1.879     4.46     904.6785     57.00945     110.0414        12     1.039     0.942  60.64   0
       482    952.7518    295.8576 307.5288098  +6.5805141     537.5848     891.2154     1084.642     81.07378     161.7623     323.5566      1.699     3.88     898.6151     57.00945     102.5096         5     0.938     0.460  42.24   0
       483    430.5144    294.9020 307.7457892  +6.5634258     1278.442     1751.001     2018.083     81.07378     162.2117     323.4923      1.518     3.84     905.0638     57.00945     221.6411        15     1.169     0.934  44.84   0
       484    176.4243    294.6581 307.8513457  +6.5549867     2467.052     3614.915     4108.825     80.68802     161.7623     323.2994      1.609     3.15     914.5895     57.00945     375.8684        19     1.164     0.923  64.78   0
       485    740.3026    292.8301 307.6171685  +6.5746631     6581.628     9150.917     10023.11     81.20196     161.5049     323.4602      1.508     3.34     902.4313     57.00945     959.4232        28     1.294     1.011  53.35   0
       486    211.6687    293.2540 307.8367529  +6.5567522     623.8707     1045.743      1511.66     81.07378     161.6979     323.3637      2.021     5.71     913.0415     57.00945     91.45654         9     1.254     0.732  58.89   0
       487    756.6049    290.7805 307.6104650  +6.5760547     2906.355     4096.792     3815.859     80.68802      161.376      323.235      1.484     3.09     902.2994     57.00945     467.2595        19     1.163     0.911  49.46   0
       488    330.1043    292.0682 307.7875954  +6.5612235     779.6967     1095.631     1072.151      80.9454     161.8908     323.4602      1.484     5.06     907.8101     57.00945     115.2902         8     1.025     0.706  -9.03   0
       489     72.9353    291.9506 307.8944249  +6.5526198     1092.341     1549.768     1649.571      80.9454     161.6336      323.428      1.508     4.19     917.8408     57.00945     144.7666        11     1.019     0.836   9.56   0
       490    346.1300    285.4204 307.7811625  +6.5645063     1771.719     3321.969     3422.932     80.68801     161.6336     323.3637      1.996     5.82     907.2088     57.00945     223.4785        23     1.702     0.985   9.69   0
       491     59.9995    285.7827 307.9000068  +6.5547301     1315.986     1914.897     1363.263     80.68801     161.3116     323.1063      1.561     4.64     917.8325     57.00945     172.1051        15     1.253     0.900  22.32   0
       492    994.9322    281.8259 307.5117570  +6.5877148     6464.682     9009.072     9074.183     80.68801     161.6336     323.3315      1.435     3.21     896.2704     57.00945     953.6057        26     1.322     0.907  46.11   0
       493    472.8911    281.5857 307.7286343  +6.5703451      2205.87     3197.143      3043.99      80.8168     161.5692      323.235      1.530     3.51     903.3674     57.00945     324.0442        20     1.217     0.974  41.65   0
       494    235.5358    277.0870 307.8273847  +6.5642289     6245.183     9144.992     9910.602     81.07378      161.955     323.4602      1.562     3.20     911.5286     57.00945     934.2794        34     1.372     1.104  51.36   0
       495    902.9549    275.9422 307.5501650  +6.5870727     595.9999     798.1829     619.4274     81.07378     161.7623     323.4923      1.411     3.82     899.5532     57.00945     98.27234         5     0.683     0.612 -88.37   0
       496    799.5592    275.7881 307.5931242  +6.5836806       607.78      878.493     1046.963     80.42981     161.5693     323.1385      1.737     3.76     901.7228     57.00945     115.9433         5     0.889     0.496  88.55   0
       497    926.5546    272.1290 307.5404887  +6.5894352     596.8024     822.6715     466.0815     81.07378     161.7623      323.428      1.230     4.49     898.7593     57.00945     94.88092         5     1.102     0.520  32.36   0
       498    755.1054    270.6524 307.6117642  +6.5843139     741.8729     1022.116     573.7927      80.9454     161.6979     323.6852      1.487     3.78     901.9016     57.00945     125.2502         7     0.865     0.600  36.55   0
       499    369.7597    268.1067 307.7719306  +6.5724473      1858.91     2803.223     2388.952     81.20196     161.6979     323.5245      1.632     4.20     906.1118     57.00945     230.1467        19     1.260     0.967  51.41   0
       500    956.6711    266.9064 307.5281523  +6.5925968     1156.928     1780.401     2011.469      80.9454     161.8265      323.428      1.621     4.62     897.4812     57.00945     158.8308        12     1.224     0.838  28.32   0
       501    176.2155    265.2706 307.8524253  +6.5671110     579.7272     918.0468     838.4319     80.55901     161.6979     323.3315      1.625     5.28     913.6183     57.00945     78.32251         7     1.260     0.626  44.97   0
       502    139.3888    263.6189 307.8677789  +6.5665532     1780.355     2744.418     2709.475     80.68802     161.4405     323.3315      1.661     4.04     915.0059     57.00945     266.2771        19     1.390     0.885  57.23   0
       503    291.8976    263.9279 307.8044161  +6.5715561     1376.979     2054.388     1890.959      80.8168     161.8908     323.3959      1.517     3.28     908.5079     57.00945     203.3158        12     1.048     0.749  36.09   0
       504    549.1064    259.4072 307.6977201  +6.5820570     2328.602     3325.679     3008.236     80.68801     161.4405     323.2029      1.511     3.48     900.9582     57.00945     327.6053        20     1.276     0.936  45.71   0
       505    892.4871    258.7367 307.5550910  +6.5938259     1812.968     2755.049     3266.455     81.07378      161.955     323.4602      1.663     4.59     899.2931     57.00945     254.4041        19     1.507     0.807  36.26   0
       506    712.6960    257.0598 307.6298392  +6.5885061     5332.828     7545.073     7786.409      80.9454     161.7623     323.5245      1.491     3.10     901.8447     57.00945     841.6841        26     1.283     0.992  50.76   0
       507    653.3959    256.8853 307.6544802  +6.5865927     2405.124     3385.375     3931.159     80.55901      161.376     323.1385      1.514     3.60     901.5514     57.00945     333.6378        17     1.214     0.872  36.04   0
       508    950.4962    256.7258 307.5310590  +6.5965935     879.5496     1022.502      1084.54     80.81681     161.8908      323.428      1.331     4.86     897.3699     57.00945     116.4892         8     0.917     0.730  42.04   0
       509    908.5416    249.1145 307.5487441  +6.5983345     1365.142     1896.597     1917.825     81.07378     161.7623     323.5245      1.454     3.27     898.3395     57.00945       213.28        11     0.971     0.796  68.19   0
       510    212.3087    242.0744 307.8382158  +6.5779010     2494.806     3672.076     3734.741     81.07378      161.955     323.4602      1.571     3.73     911.7303     57.00945     406.3909        19     1.279     0.889  54.72   0
       511    854.8752    241.2604 307.5713031  +6.5997837      1918.86     2500.979     2563.522     81.32993     161.7623     323.3959      1.356     3.21      899.974     57.00945     293.0526        13     1.096     0.768  52.09   0
       512    745.4874    240.6842 307.6167668  +6.5963636     1702.124     2345.703     2275.646     80.81681      161.955     323.4923      1.474     3.98     901.5179     57.00945     258.4697        12     1.155     0.719  49.95   0
       513    772.2048    231.3075 307.6059823  +6.6011284     14429.29     20667.48     21745.05     80.68801     161.4405     323.1707      1.569     3.24     900.9124     57.00945     2231.265        48     1.422     1.212  24.12   0
       514    446.1529    232.1119 307.7414090  +6.5898714     23919.11     35350.35     36572.33     81.07378     161.6336     323.5245      1.549     3.21     902.2781     57.00945     3604.013        45     1.390     1.155  50.12   0
       515    307.0566    233.8226 307.7991349  +6.5844934     801.8345     1046.516     695.1625     80.68801     161.6979      323.235      1.422     4.61     907.7245     57.00945     119.3372         7     0.912     0.662 -55.72   0
       516    451.6918    226.6700 307.7392914  +6.5923037     1648.857     2217.009     2564.687     81.07378     161.8908     323.4602      1.536     3.40     901.7882     57.00945      224.719        13     1.028     0.791  52.25   0
       517    134.4547    225.3601 307.8711218  +6.5821805     2486.502     3603.695     3930.358      80.9454     161.8265      323.428      1.567     3.23     913.7375     57.00945     439.1941        19     1.295     0.878  60.68   0
       518    108.9644    224.3658 307.8817443  +6.5817325     1238.379     1754.748     1872.014      80.8168     161.5049     323.1707      1.564     3.42     914.7208     57.00945     229.4019        11     1.098     0.722  40.06   0
       519    161.2790    223.4042 307.8600449  +6.5838909     765.8743     1089.132     1044.114     80.68802     161.2471     323.1707      1.463     4.99     912.6061     57.00945     138.7289         9     1.330     0.529  43.01   0
       520    908.5210    221.7840 307.5496695  +6.6096165     1605.368     2238.762     2122.007     80.68802     161.5049     323.2672      1.538     3.63      897.284     57.00945     283.1007        13     1.152     0.723  53.33   0
       521    764.2738    223.3814 307.6095435  +6.6041351      661.313     1023.507     1237.333     80.55902     161.6979     323.3315      1.633     4.11      900.867     57.00945     92.42218         7     1.008     0.478  -5.41   0
       522    570.2158    217.8808 307.6903485  +6.5999075     4919.332     7074.975     7199.409     80.68801     161.5049     323.2672      1.513     3.26     899.9927     57.00945     706.3251        22     1.250     0.920  49.27   0
       523    532.8147    217.9945 307.7058825  +6.5986066     2335.144     3387.104     2989.663     80.68801     161.4405     323.2672      1.525     3.06     900.0051     57.00945     333.3467        20     1.138     1.006  49.17   0
       524    374.7222    216.8965 307.7715962  +6.5937542     1461.404     2181.757     1506.515      80.8168      161.955     323.4923      1.549     4.22     904.8195     57.00945     210.2682        17     1.403     0.797  54.37   0
       525    290.4913    218.5484 307.8065320  +6.5902419     1083.927     1678.883     1341.109      80.9454     161.5693     323.5888      1.685     5.59     908.4274     57.00945     132.6308        14     1.180     0.880  34.47   0
       526    931.1177    215.1122 307.5405054  +6.6131255         2917     3829.767     3967.197      80.8168      161.955     323.4923      1.407     3.32     896.1018     57.00945     459.4935        17     1.203     0.789  47.99   0
       527    877.2286    214.5231 307.5629137  +6.6115685     12387.59      17019.9     17656.94      80.9454     161.8265      323.428      1.461     3.23     898.4764     57.00945     2012.383        32     1.330     0.985  51.67   0
       528    304.9799    215.1148 307.8006290  +6.5921464     844.4387     1261.204     1005.623     80.68801     161.5049     323.3637      1.512     3.71     907.8207     57.00945     168.4417         7     1.013     0.522  58.73   0
       529    552.2854    214.2837 307.6979186  +6.6007913     1052.422     1336.328     1506.583     80.81681      161.955     323.5245      1.403     3.32     899.9193     57.00945     181.2879        11     0.997     0.836  34.04   0
       530    196.0461    214.0630 307.8459178  +6.5889171     743.0182     961.5031     586.9882      80.9454     161.6979     323.4602      1.340     4.16     911.6092     57.00945     117.2583         7     1.004     0.616  65.31   0
       531    963.9161    212.3524 307.5269716  +6.6153600      10850.6     14991.37     14970.86     81.07378     161.7623     323.4602      1.450     3.12     895.7428     57.00945     1794.122        33     1.337     0.964  47.20   0
       532      3.4509    211.0107 307.9260269  +6.5836901     26564.28     39343.34     40739.55     80.42981     155.2668     275.9163      1.579     3.37     919.1874     57.00945     3877.356        52     1.445     1.174  55.93  24
       533    675.2572    212.2634 307.6468988  +6.6057456     3089.818     4491.799     5088.542     81.20196     161.6979     323.4602      1.642     3.52     901.1306     57.00945     477.7485        21     1.288     0.904  37.16   0
       534    249.5630    211.7431 307.8237643  +6.5916750     1144.946     1677.546     2225.852     81.07378     161.7623      323.428      1.632     3.31     910.0074     57.00945     161.9995        11     0.967     0.792  36.74   0
       535    483.9299    207.1947 307.7265548  +6.6014252      2097.27     2956.016     2904.955     80.55901      161.376     323.2672      1.448     3.45     900.0458     57.00945     308.4994        18     1.239     0.855  36.06   0
       536    815.8275    203.9145 307.5887793  +6.6138957     2193.166     3111.936     3095.762     81.20196     161.5049     323.2994      1.476     3.67     899.2546     57.00945     334.0099        18     1.237     0.962  39.65   0
       537    496.0765    203.0780 307.7216473  +6.6035321     2791.575     4113.925     3716.536     81.32993     162.0192     323.5245      1.540     3.65     899.9537     57.00945     383.9753        25     1.364     1.078  66.29   0
       538    868.0818    202.8303 307.5671062  +6.6160899     2134.315     2874.442     2549.293     80.94539     161.5692      323.428      1.492     3.67     898.2841     57.00945     302.9537        16     1.215     0.805  53.82   0
       539    727.4272    200.4461 307.6256221  +6.6123704     43885.89     61019.88     62726.58     80.55902     161.8265     323.3315      1.524     3.20     900.7704     57.00945     7166.187        54     1.389     1.102  51.24   0
       540    330.5461    199.8600 307.7905230  +6.5993029     6047.498      12032.6     13351.19     81.20196     161.6979     323.3959      2.112     5.86      906.856     57.00945     682.5823        46     1.920     1.259 -89.52   0
       541    961.2402    199.2984 307.5285211  +6.6206597     3235.039     4582.159     4575.432     81.07378     161.6336      323.653      1.502     3.49     895.4081     57.00945     570.4149        20     1.221     0.918  55.83   0
       542    895.3808    197.5653 307.5559413  +6.6191756     8327.565     11351.37     11869.32     80.55902     161.5693     323.2029      1.470     3.44     896.9563     57.00945     1306.617        29     1.300     0.967  50.62   0
       543    999.4348    197.9088 307.5126992  +6.6225083     1933.845     2330.171     1868.628     81.20196     161.6336     323.4602      1.366     4.05     895.1205     57.00945     324.3076        13     1.066     0.768  33.50   0
       544    438.7859    196.5628 307.7456677  +6.6042992     5221.219     7678.116     7217.631     80.55902     161.5693     323.1707      1.549     3.17     901.3389     57.00945     785.1296        29     1.316     1.062  48.16   0
       545    213.3942    193.2544 307.8394141  +6.5980907     702.3926     1120.791     981.9123     80.55902     161.5049     323.1063      1.585     4.97     911.1346     57.00945     110.6027         8     1.076     0.650  54.16   0
       546     96.1874    187.8404 307.8882872  +6.5963799     5038.623     7464.961     8029.989     80.55901     161.5693     323.1707      1.576     3.33     914.4172     57.00945     727.8419        24     1.326     0.985  49.19   0
       547    241.8269    185.6792 307.8278582  +6.6021742     6975.455     10447.39     10978.41      80.9454     161.6979      323.428      1.599     3.19     910.3761     57.00945     960.5223        32     1.328     1.112  57.09   0
       548    915.3698    186.8884 307.5479948  +6.6242510     1025.862     1268.182     1863.065     81.20196     161.5692     323.3637      1.389     3.85     895.7729     57.00945     179.0214         9     1.008     0.678  61.19   0
       549    266.5153    184.5598 307.8176397  +6.6034666     36390.62     53240.39      54966.2     81.07378     161.6979     323.3959      1.615     3.14     909.5405     57.00945     5290.721        59     1.453     1.204  54.67   0
       550     66.4445    186.2298 307.9006974  +6.5960428     493.4744     715.2595     675.1728     80.68802     161.7623     323.2672      1.549     4.80     915.9871     57.00945     101.4139         6     1.136     0.575 -62.05   0
       551    695.7090    183.9074 307.6393555  +6.6181362     904.5328      1211.74     1238.338     81.07378     162.2758     323.4602      1.361     4.11     900.4437     57.00945     156.1768         8     1.022     0.757  36.04   0
       552    390.6123    180.0691 307.7662370  +6.6094906      52663.6     77679.69      80222.4     80.55901     161.5692     323.2994      1.567     3.14     903.2015     57.00945     7960.535        65     1.456     1.199  53.40   0
       553    146.5654    181.3618 307.8675782  +6.6007509      4299.66     6242.635     6548.532     80.81681     161.6336     323.2029      1.583     3.43     912.2266     57.00945     621.8344        25     1.282     1.021  53.21   0
       554    407.9177    180.5164 307.7590325  +6.6098871     1580.302      2246.48     2244.334      80.8168     162.0192     323.5245      1.547     3.61     901.9356     57.00945     209.9326        17     1.206     0.917  45.75   0
       555    677.8896    178.3305 307.6469463  +6.6198418     975.3133     1530.926     1353.481     81.20196     162.0192      323.428      1.569     5.37     900.3605     57.00945     140.5869        16     1.327     1.047  79.38   0
       556    294.6124    177.7887 307.8061959  +6.6072064      19164.9     28653.44     29878.87     80.81681     161.5049     323.3637      1.608     3.29     908.6158     57.00945     2587.639        43     1.417     1.133  51.47   0
       557    729.8915    176.3425 307.6254085  +6.6224033     36193.15     50869.27     52763.04      80.9454     161.6979     323.5245      1.491     3.15     900.1351     57.00945     5632.232        50     1.393     1.079  49.00   0
       558    561.3829    179.4734 307.6953110  +6.6154665     594.8188     834.7237      1276.34     80.55902     161.6336     323.3315      1.749     3.67     899.4949     57.00945     107.3386         6     0.935     0.414  19.41   0
       559    302.0097    177.4589 307.8031339  +6.6075912     2231.382       3847.2     4871.038     80.42981     161.6336     323.1385      2.088     5.18     908.3277     57.00945     306.1857        25     1.593     1.085 -89.99   0
       560    527.9177    177.9008 307.7092671  +6.6149936     524.7545     876.6417     568.6166     81.07378     162.2758     323.5245      1.490     3.88     899.4786     57.00945     104.8054         5     1.023     0.422  45.46   0
       561    778.1978    176.7340 307.6053259  +6.6238579     1215.165     1451.967     2063.915     80.42981     161.4405     323.2029      1.260     3.86     899.1064     57.00945     182.2042        10     1.047     0.658  50.57   0
       562     16.7026    176.5635 307.9216880  +6.5983566     566.1809      1026.44     1300.691     81.07378     161.6336     323.5888      2.082     3.53     918.6541     57.00945     108.7516         5     0.918     0.493   4.06   0
       563     46.6971    173.4868 307.9093319  +6.6006376       9604.3     14245.16     14779.22     81.07378     162.1476     323.4602      1.626     3.34     916.9219     57.00945     1382.407        34     1.360     1.104  44.16   0
       564     80.4509    171.6229 307.8953730  +6.6025444     1662.725     2423.514     2088.529     80.55902     161.7623     323.3315      1.555     3.92      914.985     57.00945     229.7469        16     1.234     0.882  16.84   0
       565    988.1175    170.6448 307.5183151  +6.6333858     1271.178     1511.235     1527.873     81.07378     161.7623      323.428      1.349     3.84     894.5164     57.00945     166.2198         9     0.903     0.701  68.79   0
       566    714.5651    164.2212 307.6321834  +6.6268942     596.8401     849.8038     802.5253     80.55902     161.5693     323.1707      1.508     3.11     899.8849     57.00945     105.2131         5     0.719     0.479 -76.38   0
       567    564.1418    160.6689 307.6947979  +6.6233218      758.892     1463.837      1847.45     81.20196     161.6979     323.3637      1.861     3.14     899.2968     57.00945     153.2784         7     0.863     0.728  43.88   0
       568    989.1990    157.0224 307.5183225  +6.6390456     2256.042     3303.871     3333.643     80.68801     161.4405     323.1385      1.552     3.83     894.0317     57.00945     332.4139        18     1.274     0.900  49.55   0
       569    572.2543    154.4497 307.6916369  +6.6261611     1172.385     1741.291     1828.534     81.07378     161.7623     323.4602      1.540     3.63     899.1544     57.00945     185.2878        12     1.186     0.738  49.88   0
       570    265.4470    150.8114 307.8192231  +6.6173622     32242.02     48049.75     50313.23     80.55902     161.5693     323.1063      1.596     3.21     909.8059     57.00945     4515.837        55     1.451     1.191  52.39   0
       571    580.5198    152.5819 307.6882658  +6.6272092      2082.61     2971.069     3550.788     80.68802     161.4405     323.3315      1.534     3.24     899.1698     57.00945     306.9573        13     1.012     0.848  48.40   0
       572    324.5149    152.5092 307.7946264  +6.6186470     1216.588     1579.564     2012.507     80.81681     162.2117     323.5566      1.444     3.75     907.5613     57.00945      184.204        12     1.014     0.870  -5.42   0
       573     10.7369    149.2846 307.9250896  +6.6094161     4883.333     6970.645     7081.661     81.20196     161.8908     323.3959      1.532     3.23     918.8617     57.00945     676.4985        25     1.264     1.008  53.11   0
       574    697.1125    147.5197 307.6399959  +6.6332047     8645.461      12128.6     12272.05      80.8168     162.0192     323.5566      1.491     3.17      899.125     57.00945     1365.214        31     1.314     1.007  47.40   0
       575    174.4331    148.7000 307.8571051  +6.6151718     1214.579     1704.518     1864.043     81.07378     161.6336     323.5888      1.481     3.82     911.1516     57.00945     184.5107        11     1.071     0.715  44.19   0
       576    107.8066    144.5854 307.8849232  +6.6146270     5240.753      7602.01     7612.174     80.68802     161.5049     323.2672      1.543     3.09     912.8836     57.00945     753.5931        25     1.301     1.000  54.27   0
       577    251.2643    145.8051 307.8252843  +6.6189518     798.5226     1280.885      922.274     80.42981     161.5049     323.2029      1.709     4.08     910.2318     57.00945      151.546         9     1.094     0.681  15.25   0
       578    569.4072    142.2853 307.6932293  +6.6310873     711.6343     1207.792     799.1471     80.68802     161.4405     323.2672      1.708     5.57     898.7857     57.00945      133.994        10     1.371     0.871 -87.81   0
       579    635.7344    141.7124 307.6656919  +6.6335465     899.1971     1249.155     1295.809     81.07378      161.955     323.4602      1.457     5.12     898.8023     57.00945      127.426        10     1.237     0.758  36.92   0
       580    446.6989    141.8951 307.7442229  +6.6271323     1367.533     1861.742     1538.191     81.07378     162.2758     323.2672      1.446     3.44     899.7449     57.00945     198.4669        14     1.124     0.829  35.49   0
       581    378.5836    140.6699 307.7725631  +6.6253510      4136.31     6837.931     6954.551     80.55902     161.6336     323.3315      1.760     3.76     903.8895     57.00945     551.0554        30     1.496     1.056  55.80   0
       582     97.1936    139.4200 307.8895069  +6.6164018     2003.039     2974.062     3090.252     80.68802     161.5049      323.235      1.564     3.27     913.0487     57.00945     321.8237        20     1.411     0.942  60.97   0
       583    342.9242    139.3945 307.7874208  +6.6246795     3402.256      4790.41     4861.293     80.68801     161.2471     323.2994      1.497     3.51     906.8711     57.00945     467.2206        21     1.284     0.921  52.10   0
       584    555.2541    139.4346 307.6992054  +6.6317897     672.9351     883.0553     978.4993      80.9454     161.7623      323.428      1.575     5.46     898.7248     57.00945     90.79895         8     1.095     0.769  33.01   0
       585    658.4404    137.6379 307.6563953  +6.6359891     931.7788     1112.614     1383.126     80.81681     161.7623     323.2994      1.336     4.40     898.5975     57.00945     144.1676        12     1.183     0.808 -38.01   0
       586    891.1734    136.3997 307.5597419  +6.6442856      494.265     702.3138     513.3941     80.68801     161.4405      323.235      1.168     4.14     894.2659     57.00945     84.26636         5     0.903     0.541 -50.22   0
       587    989.7462    133.5245 307.5188829  +6.6487643     1800.523     2514.581     2151.891     81.07378     161.7623     323.4602      1.494     3.24      892.709     57.00945     291.9162        16     1.048     0.964  68.67   0
       588    194.8645    128.3504 307.8493048  +6.6242598     5890.874     8876.217     8835.917      80.9454     161.6979     323.4602      1.589     3.12     911.0695     57.00945     856.5623        30     1.326     1.107  62.61   0
       589     77.5567    128.1957 307.8980444  +6.6203736     2214.162     3046.301     3101.409     80.42981     161.4405     323.1385      1.456     3.22      913.983     57.00945       313.11        19     1.226     0.952  64.23   0
       590    656.6183    127.2222 307.6575027  +6.6402279     6521.645     9526.438     9762.861     80.81681     161.6979     323.3637      1.567     3.30     897.9608     57.00945      1073.73        33     1.401     1.016  49.56   0
       591    804.6733    126.9237 307.5959993  +6.6453061     1186.171     1626.994     1474.324     81.32993     162.0192     323.4602      1.439     3.98     896.6891     57.00945     161.6254        12     1.129     0.758  33.07   0
       592    608.8162    124.4755 307.6774556  +6.6397603     10291.42     14884.74     15381.17     80.55902     161.5049     323.3315      1.539     3.18     897.8778     57.00945     1527.602        35     1.352     1.063  43.25   0
       593    243.3663    124.8721 307.8292724  +6.6273274     971.4537     1376.043     1016.397      80.9454     161.7623     323.3959      1.556     3.53     910.5292     57.00945      154.291        11     0.996     0.796 -87.21   0
       594      7.3351    123.1426 307.9273878  +6.6200927     1231.104     1958.597     2190.143     81.20196     161.6979     318.1107      1.740     4.22     918.6686     57.00945     173.6649        13     1.102     0.861 -48.21  16
       595    546.2560    123.4817 307.7034810  +6.6380735     663.0414     872.7371     832.5295     81.07378     161.7623     323.4602      1.322     3.31     898.4589     57.00945     118.6368         5     0.734     0.445  22.84   0
       596    335.9460    120.1033 307.7909709  +6.6324086     3662.673     6091.387      6511.47      80.9454     161.7623     323.6852      1.755     3.52     907.2812     57.00945     525.0688        29     1.450     1.209 -63.83   0
       597    517.6808    119.6324 307.7154827  +6.6387043     1811.315     2462.075      2131.73      80.9454     161.6979     323.3959      1.424     3.82     898.6017     57.00945     258.8449        13     1.164     0.765  42.23   0
       598    981.9747    118.8175 307.5226050  +6.6545763      693.251     1142.909      1436.37     80.68801     161.5692     323.3637      1.552     4.04     891.8581     57.00945     110.1819         6     0.939     0.496  37.25   0
       599    612.3413    116.0259 307.6762754  +6.6433665     57732.91     82455.94      85152.1     80.68801     161.7623     323.2672      1.516     3.28     897.4719     57.00945      9052.13        65     1.428     1.154  54.11   0
       600    291.5374    109.7773 307.8097693  +6.6351786     3715.042     5641.563     6114.337     80.68802     161.7623     323.3315      1.611     3.30     909.2752     57.00945     539.7178        23     1.248     1.012  50.89   0
       601    487.2546    107.3281 307.7285384  +6.6427629     619.6562     837.4935     785.6353      80.9454     161.6336     323.3959      1.411     4.00     898.5793     57.00945     103.3571         5     0.997     0.459   6.40   0
       602    691.1625    104.3446 307.6439198  +6.6508289     1092.223     1404.289     1274.627     81.07378     161.8265     323.4602      1.503     3.10      896.536     57.00945     197.2679        10     1.023     0.668  44.52   0
       603    662.5209    103.2687 307.6558561  +6.6503140     1458.847     2159.608     2316.198     81.20196      161.955     323.3959      1.598     3.77     896.5396     57.00945     229.3848        15     1.209     0.798  61.33   0
       604    676.7372     99.9488 307.6500611  +6.6521606       3629.3     5070.723      5113.07     81.07378     161.6979     323.3959      1.493     3.19     896.3016     57.00945     560.1756        21     1.250     0.921  54.48   0
       605    418.4858     90.9607 307.7576616  +6.6472114     4392.776     6360.291     6705.969     81.07378     161.7623      323.428      1.546     3.33     900.1761     57.00945     645.3519        24     1.255     0.997  37.63   0
       606    872.9823     87.3994 307.5689448  +6.6639061      2400.04     3220.834     2804.222     80.68801     161.3116     323.1063      1.393     3.29     892.6756     57.00945     383.8364        18     1.218     0.854  52.57   0
       607    891.0730     86.5030 307.5614582  +6.6648807     4374.104     5934.094     6169.664     80.68801      161.955     323.3959      1.449     3.21     891.9744     57.00945     669.7335        21     1.227     0.893  54.04   0
       608    583.1587     85.0380 307.6894432  +6.6551808     1834.031     2503.869      2380.15      80.8168     161.8265     323.2994      1.469     3.22     896.7172     57.00945     268.2015        16     1.056     0.939  41.97   0
       609    570.8965     86.4646 307.6944899  +6.6541808     728.2549     1065.985     1074.845     81.07378     161.8908     323.4602      1.309     4.07     897.0049     57.00945     127.0071         7     1.061     0.535  28.03   0
       610    228.9301     84.6205 307.8366297  +6.6434578      876.499     1387.307      1368.66     80.68801     161.6336     323.3637      1.655     5.67     911.0912     57.00945     119.7421        11     1.191     0.760  68.84   0
       611    381.7449     82.6794 307.7732057  +6.6493961     2202.011     3098.526     3218.622     81.20196     161.7623     323.4602      1.525     3.13     903.9016     57.00945     281.5254        17     1.096     0.905  47.10   0
       612    129.8708     79.7599 307.8779490  +6.6421300     3418.319     4926.851     4596.939     80.94539     161.7623     323.4923      1.499     3.15     911.2832     57.00945     444.6608        22     1.251     0.958  40.08   0
       613     11.7211     77.5471 307.9271093  +6.6390622     13277.22     19433.85     20726.42     81.07378     161.7623      323.428      1.599     3.35      916.127     57.00945     1895.835        41     1.444     1.094  46.36   0
       614    278.2045     78.2499 307.8163731  +6.6477449     1306.566     2105.692     2639.237     80.42981     161.5693     323.0741      1.811     3.91     910.3282     57.00945     182.1863        16     1.214     0.863  45.60   0
       615    538.8256     77.3844 307.7081206  +6.6568539     876.1171     1181.759     1212.851      80.8168     161.6336     323.3637      1.453     3.59     897.2333     57.00945     146.8143         9     1.086     0.558  63.42   0
       616    746.2980     76.6906 307.6219413  +6.6640905     805.5055     1220.181     1417.481     81.07378     162.2117     323.3959      1.261     4.28     895.0958     57.00945     154.8924         8     1.110     0.574  16.95   0
       617    551.4011     77.1971 307.7029020  +6.6573529     739.5474      1019.03     570.5917     80.42981     161.3116     323.1707      1.475     4.14     897.0511     57.00945     108.6337         8     1.030     0.662   3.51   0
       618    932.0403     76.0207 307.5447880  +6.6705765     611.1023     706.9717     854.9952     80.68801     161.5692     323.2029      1.261     3.06     890.3223     57.00945     119.9934         5     0.959     0.363  32.26   0
       619    140.9409     75.8112 307.8734834  +6.6441328     594.5907     727.4133     658.7133     80.42981     161.6336     323.1385      1.344     3.87     911.1797     57.00945     95.98206         6     0.934     0.459  34.21   0
       620    880.3604     73.7424 307.5663376  +6.6697905     693.6945     1020.786     1055.107     81.07378     161.8265     323.4602      1.392     3.51     891.9193     57.00945     123.6028         5     1.169     0.304  36.80   0
       621    813.2877     72.2547 307.5942563  +6.6681626     6907.072     9486.312     9991.194     81.07378     161.6336     323.5888      1.450     3.12       893.86     57.00945     1195.928        27     1.228     1.001  55.19   0
       622    758.4349     72.5314 307.6170383  +6.6662136     3708.298     5075.121     5484.628      80.9454     161.8265     323.5245      1.485     3.25     894.7651     57.00945      603.179        19     1.142     0.901  47.06   0
       623    403.6385     72.6818 307.7644467  +6.6542585     1057.511     1469.027     1335.691     81.07378     161.8265     323.3637      1.576     3.63     901.9563     57.00945     198.9911         9     1.112     0.624  76.27   0
       624    745.2806     72.0228 307.6225209  +6.6659833     692.1605     1017.479     1236.348     80.68801     161.4405     323.3637      1.486     4.22     894.8619     57.00945     107.9144         7     0.745     0.683  46.89   0
       625    520.9468     70.5800 307.7157781  +6.6590632     1238.801      1834.85     1977.288     80.55901     161.7623      323.235      1.527     3.69     897.2087     57.00945      176.239        11     0.923     0.855  66.65   0
       626     52.0174     69.2925 307.9106476  +6.6438281     3465.591     5298.378     4928.232      80.8168     161.5049     323.2994      1.590     3.34     913.4738     57.00945     479.0073        25     1.265     1.066  62.61   0
       627     36.3691     70.0812 307.9171221  +6.6429751     1013.803     1350.669     842.6712      80.9454     161.6336     323.3959      1.360     3.84     914.2755     57.00945      178.267        12     1.153     0.755  51.23   0
       628    640.0551     69.7259 307.6663188  +6.6634084     694.7366      903.764     1258.643      80.9454     161.6979     323.3637      1.290     4.22     895.4194     57.00945     110.6708         7     0.735     0.689 -59.45   0
       629    413.1981     68.8853 307.7606029  +6.6561467     1056.289     1227.714     1169.375     80.42981      161.376     323.1385      1.308     3.73     901.1956     57.00945     139.8433        11     0.923     0.880  21.41   0
       630    575.8795     66.1686 307.6931029  +6.6627263     1446.647     1876.508     1886.997     80.94539     161.7623     323.3959      1.404     3.25     896.1638     57.00945     251.0811        13     1.166     0.685  48.81   0
       631    246.5633     65.7908 307.8299398  +6.6518239     530.8792      847.468     930.9474     80.55902     161.5049     323.1707      1.586     4.19     911.0702     57.00945     82.39539         5     0.904     0.555 -39.24   0
       632    753.1873     59.9951 307.6196400  +6.6712132     2121.898     3152.133      3322.79     80.68801     161.5049     323.2994      1.529     3.59     894.1586     57.00945      298.197        18     1.249     0.882  49.03   0
       633    393.9443     60.1679 307.7688964  +6.6590987     1140.401     1687.044      1449.78      80.9454     161.7623     323.3959      1.557     3.99     903.1906     57.00945     177.6196         9     0.988     0.616  51.21   0
       634    644.3288     59.4906 307.6648875  +6.6677768     580.9222      950.303     1503.925      80.9454     162.0192      323.428      1.668     4.35     895.0017     57.00945     109.0256         6     1.176     0.458  46.30   0
       635     66.7412     60.3783 307.9048322  +6.6480040     903.0506     1195.337     1339.611     80.68802     161.6979     323.2672      1.381     2.92     912.4288     57.00945     157.6926         6     0.727     0.598  39.07   0
       636     91.0556     58.6914 307.8947876  +6.6495196     947.8172     1175.645     998.0079      80.9454     161.6336     323.5566      1.310     3.55      911.514     57.00945     138.9587        10     1.018     0.691  37.58   0
       637     79.6986     53.6551 307.8996764  +6.6512159     10110.96     15037.47     15561.87      80.9454     161.7623     323.6852      1.597     3.27      911.777     57.00945     1322.497        40     1.454     1.126  52.25   0
       638    408.8570     53.5319 307.7629243  +6.6623390     2792.112     3971.766     4120.413     81.20196     161.6979     323.3637      1.518     3.06     901.9557     57.00945     415.9654        20     1.247     0.887  52.89   0
       639    246.5354     47.7026 307.8305623  +6.6592898     1574.637     2419.548     2776.233     81.07378     161.8265     323.4602      1.730     3.76     911.3875     57.00945     225.9152        17     1.185     0.910  36.91   0
       640    622.5110     45.7323 307.6744157  +6.6727255     20243.51     28681.73     29483.29     81.20196      161.955     323.3959      1.532     3.24     894.8139     57.00945     2930.884        43     1.390     1.082  53.72   0
       641    651.4984     46.8661 307.6623333  +6.6732286     643.4356     836.9635      951.069     81.07378     161.8265      323.428      1.439     4.99     894.5023     57.00945     89.80695         6     1.153     0.612  63.47   0
       642    522.2731     41.8444 307.7161951  +6.6709701     5575.292     8078.205     8566.188      80.9454     161.8265     323.4602      1.535     3.28     896.1084     57.00945     807.2407        27     1.326     0.973  48.62   0
       643    678.8787     40.8123 307.6511603  +6.6766447     575.4583     950.3101     1758.714     80.68801     161.4405      323.235      1.465     3.89     893.9589     57.00945      84.8631         5     1.327     0.326  30.75   0
       644    608.8417     36.1275 307.6804185  +6.6762324     3370.973     5623.659      6388.48     80.94539     161.7623     323.4602      1.853     5.13     894.6826     57.00945     581.8749        30     1.906     0.959  68.95   0
       645    427.8605     37.3874 307.7555730  +6.6696416     24499.56     35564.64     36433.07     80.42981     161.5692     323.1063      1.542     3.11     900.8494     57.00945     3553.897        45     1.401     1.101  49.59   0
       646    248.4277     37.8236 307.8301098  +6.6634316     9926.429     14469.64     15479.53     80.55902     161.6336     323.2672      1.577     3.28     911.5619     57.00945     1435.303        36     1.392     1.066  55.55   0
       647     13.8141     37.4410 307.9275976  +6.6556883     2458.089     3590.489     3849.332     80.55902     161.5693     323.1707      1.597     3.08     912.3561     57.00945     379.0303        20     1.214     0.907  48.07   0
       648    905.5045     37.4098 307.5571095  +6.6856295     2153.238     2961.426     3085.369     80.81681      161.376     323.2029      1.409     3.39     890.2719     57.00945     318.1339        17     1.161     0.880  39.45   0
       649    240.5797     42.0493 307.8332278  +6.6614232     2027.513     2801.836     3647.692     80.55901     161.8265     323.2672      1.525     3.28     911.5138     57.00945     307.8996        19     1.216     0.902  52.34   0
       650    307.7840     38.1388 307.8054378  +6.6652974     961.5461     1468.015      1072.62     80.55901     161.6979      323.235      1.504     3.03     910.2043     57.00945     192.9566         8     0.964     0.664  -2.77   0
       651    540.7847     37.0587 307.7086648  +6.6735665     724.0939     1009.346     422.8067     80.42981     161.6979     323.1707      1.348     3.44     895.5377     57.00945     136.6821         7     0.981     0.662  16.77   0
       652    236.2206     34.3500 307.8352989  +6.6644549     3210.437     4890.727     5626.277     80.55902     161.8265     323.2994      1.638     3.31     911.6385     57.00945     472.4504        24     1.282     1.024  34.32   0
       653    289.5001     32.5613 307.8132228  +6.6669851     1071.719     1703.891     1711.581     81.07378     161.6336      323.653      1.657     5.31     911.5826     57.00945     145.7842        12     1.171     0.764  46.21   0
       654    926.3004     27.4963 307.5488011  +6.6904166     1239.061     1607.514     1252.793     81.07378     162.2758     323.2672      1.385     4.04      889.954     57.00945      189.535         9     1.022     0.627  75.08   0
       655    677.6732     27.0746 307.6521233  +6.6822754      2089.22     2980.411      3179.43     81.32993     162.0192     323.4923      1.478     3.28     893.4282     57.00945        348.7        17     1.205     0.842  58.41   0
       656     82.7745     27.3096 307.8992899  +6.6621949     700.2926      994.059     264.9495     81.20196     161.5049     323.2672      1.526     3.23     911.0122     57.00945     102.4971         6     0.734     0.622  62.58   0
       657      1.2960     22.3140 307.9333105  +6.6615105     527.9927     1033.301      792.435     70.06367       128.27     242.7933      2.120     4.97     911.0404     57.00945     104.5618         6     0.948     0.737  71.27  26
       658    188.4011     22.7160 307.8555601  +6.6676482     746.1624      1058.88     1134.958      80.3004     161.3116     323.1385      1.583     3.24     911.3027     57.00945     121.2321         8     0.931     0.603  19.84   0
       659    243.4346     22.0572 307.8327170  +6.6697720     758.3011     986.6061     1293.981     80.94539     161.7623     323.4602      1.475     4.35     911.8291     57.00945      139.892         7     1.179     0.547  35.47   0
       660    943.8173   1016.1360 307.5083821  +6.2828625     6681.619     10691.89     10904.15     80.55901     161.6979     323.2672      1.670     3.60     921.3135     57.00945     847.3972        37     1.492     1.165  52.08  16
       661    698.2596   1016.6608 307.6103164  +6.2744401     1022.026     1457.023     2126.633     81.07378     161.7623     323.1385      1.515     5.27     926.2845     57.00945      164.635        11     1.401     0.559  40.87  16
       662    426.6115   1015.2277 307.7231456  +6.2659311     1133.039     1630.226     1846.966     80.68802     161.5693     323.3315      1.572     5.59     929.4222     57.00945     145.3798        13     1.376     0.745  62.37  16
       663    228.2211   1015.7817 307.8054905  +6.2590408     1381.314     1863.855     2368.407      80.8168     161.6979     323.3315      1.448     3.59     930.5353     57.00945     229.6415        12     1.137     0.714  64.73   0
       664    703.5082   1014.1732 307.6082208  +6.2756426     3044.078     4323.093     4478.285     81.20196     161.5049     323.2672      1.544     3.32     926.0499     57.00945     427.9266        19     1.143     0.952  58.80   0
       665    719.1669   1013.4803 307.6017429  +6.2764525     1078.525     1588.218     1324.035      80.9454     161.6979      323.428      1.549     4.09     925.6021     57.00945     172.4744        12     1.179     0.674  50.05   0
       666    350.2048   1011.7032 307.7549856  +6.2648219     1933.314      2983.79     3337.822      80.8168     161.4405     323.1707      1.652     3.28     930.0182     57.00945     303.9304        16     1.250     0.811  29.13   0
       667    197.9319   1010.9854 307.8182270  +6.2600025     481.0062     538.3904     124.3898     80.55901     161.6336     323.3315      1.373     4.84     930.2805     57.00945      93.0791         7     1.152     0.576 -89.94   0
       668    959.8756   1008.8510 307.5019588  +6.2864059     570.1536     812.2621     248.0506     81.07378     161.8265      323.428      1.267     3.47     920.5366     57.00945     111.9778         5     1.098     0.317  -8.83   0
       669    502.5677   1003.2289 307.6920147  +6.2734315     1417.544     1768.508     1600.708     80.55902     161.5049     323.2029      1.426     4.46     929.8152     57.00945     191.4353        12     1.092     0.826  55.64   0
       670    282.7838   1000.4268 307.7833563  +6.2672129     15972.99     23664.52     25861.98     80.68802     161.5693     323.3315      1.663     3.54     930.4691     57.00945     2438.465        59     1.598     1.389 -29.71   0
       671    737.0486   1001.2286 307.5947300  +6.2821084      8548.51     12713.96     13124.97     80.68801     161.8265     323.3315      1.578     3.30     924.9197     57.00945     1195.867        33     1.375     1.076  49.93   0
       672    532.6198   1001.8532 307.6795841  +6.2750066     4595.646     6732.781      7604.82     80.55901     161.7623      323.235      1.593     3.30     929.5479     57.00945     660.7717        28     1.344     1.047  64.20   2
       673    529.7064    994.0062 307.6810576  +6.2781484     9029.995     12974.02     13609.26     80.68801     161.4405      323.235      1.524     3.16     929.4227     57.00945     1285.805        30     1.303     1.021  53.26   2
       674    798.0249   1000.7581 307.5694291  +6.2843414     1300.177     2009.906     2564.236     80.68801     161.6979     323.2029      1.706     4.67     921.7668     57.00945     176.3296        14     1.232     0.917  48.03   0
       675    407.1506   1000.9501 307.7317059  +6.2711722     1213.205     1646.601     1333.785     81.07378     161.6336     323.3637      1.399     3.67      929.394     57.00945     188.5839        13     1.059     0.886  -1.50   0
