#   1 NUMBER                 Running object number                                     
#   2 X_IMAGE                Object position along x                                    [pixel]
#   3 Y_IMAGE                Object position along y                                    [pixel]
#   4 ALPHA_J2000            Right ascension of barycenter (J2000)                      [deg]
#   5 DELTA_J2000            Declination of barycenter (J2000)                          [deg]
#   6 FLUX_APER              Flux vector within fixed circular aperture(s)              [count]
#   9 FLUXERR_APER           RMS error vector for aperture flux(es)                     [count]
#  12 FLUX_RADIUS            Fraction-of-light radii                                    [pixel]
#  13 FWHM_IMAGE             FWHM assuming a gaussian core                              [pixel]
#  14 BACKGROUND             Background at centroid position                            [count]
#  15 THRESHOLD              Detection threshold above background                       [count]
#  16 FLUX_MAX               Peak flux above background                                 [count]
#  17 ISOAREA_IMAGE          Isophotal area above Analysis threshold                    [pixel**2]
#  18 A_IMAGE                Profile RMS along major axis                               [pixel]
#  19 B_IMAGE                Profile RMS along minor axis                               [pixel]
#  20 THETA_IMAGE            Position angle (CCW/x)                                     [deg]
#  21 FLAGS                  Extraction flags                                          
         1    472.9659     27.6260 307.7478678  +6.6790224     1907.589     2853.825     2557.919     81.43808     163.5947     327.2545      1.603     3.72     929.3707     57.72412     228.1752        17     1.173     0.951  66.07   0
         2    440.7242     16.9559 307.7616265  +6.6823459     6454.789     9689.984     10238.64     81.96013     163.8552     327.5151      1.612     3.21     931.2896     57.72412     870.4873        35     1.434     1.127  54.71   0
         3     41.7026     16.5724 307.9274516  +6.6690843     9044.352     13231.56      13580.2     82.21991     163.5295       327.45      1.608     3.28     949.4748     57.72412     1207.625        33     1.407     1.049  57.72   0
         4    337.3487     11.8873 307.8047562  +6.6809672     13383.73      20389.3     21561.43     82.09012     163.6599     327.5802      1.625     3.29     942.1694     57.72412     1637.627        42     1.410     1.200  63.68   0
         5    516.4750     13.5936 307.7302607  +6.6862756     880.1544     1342.157     1425.065     81.69952     163.2685     327.3197      1.629     4.19     927.9211     57.72412     134.6082         9     0.960     0.729  14.56   0
         6    111.1184     12.2544 307.8987532  +6.6732056     2745.678     4158.743     4137.618     82.09012     163.7901     327.5477      1.593     3.49       950.29     57.72412     370.4141        23     1.355     0.977  41.55   0
         7    432.5782     12.4821 307.7651626  +6.6839196     828.3676     1277.577     1641.708     81.82993     163.4643     327.4174      1.658     4.31     931.7785     57.72412     129.8264         8     1.072     0.494 -89.16   0
         8    967.6091     12.2092 307.5428255  +6.7019412     652.3978     1107.402     1814.091     81.69952     163.5947     327.3523      2.247     4.90     916.2279     57.72412     106.8514         7     1.094     0.621  25.32   0
         9    102.3116     11.1240 307.9024511  +6.6733757     1550.276     2366.523     2521.822     82.09012     164.1153     327.5802      1.576     4.31     950.5494     57.72412     209.7117        16     1.310     0.831  57.97   0
        10    805.6422     10.4437 307.6101961  +6.6972593      887.675     1037.937     1028.993     81.82993     163.7901     327.3197      1.323     5.00     921.6595     57.72412     142.2808        10     1.135     0.705  77.38   0
        11    403.5038      9.8511 307.7773337  +6.6840299     2357.794     3483.135     3543.204     81.96013      163.725     327.6778      1.577     4.02     934.3958     57.72412     283.8044        21     1.299     1.032  32.98   0
        12    829.0016      4.9716 307.6006724  +6.7002995     1879.291      2706.06     3161.607     81.56891     163.5295     299.2761      1.465     3.85     920.6054     57.72412     296.8142        19     1.457     0.801  49.93  16
        13    664.2628      5.3732 307.6691213  +6.6946222     11819.69     16659.65     17193.67     81.69952      163.725     303.9777      1.498     3.01     925.6362     57.72412     1743.903        35     1.342     1.034  54.68  16
        14     82.4409      6.2756 307.9108724  +6.6747081     685.6405     974.3942     929.5787     81.96013     163.7901     313.4074      1.441     3.51     950.0908     57.72412     101.7164         5     0.772     0.460  72.41  16
        15    542.0211      4.9440 307.7199363  +6.6907035      1233.48     2052.252     1854.048     81.69952     163.7901     299.0266      1.735     3.37     927.2507     57.72412     195.7992        11     1.080     0.699  54.69  16
        16    899.4329      2.7734 307.5714759  +6.7035607     1712.253     2160.512     2708.849     81.56891     149.8517     269.5463      1.315     2.91      919.345     57.72412     296.9628        14     1.056     0.814  64.61  24
        17    264.6458      2.3893 307.8352894  +6.6824450     6644.542     9384.817     9834.688     81.30705     145.2998     263.5863      1.585     3.54     947.4454     57.72412     828.6088        29     1.495     1.068  -5.44  24
        18    786.6016      2.8094 307.6183659  +6.6997746     469.1672     602.9224     766.3622     81.43808     150.4198     270.0206      1.210     2.65     922.2731     57.72412     95.96466         5     0.719     0.450  69.99  16
        19    656.1074      1.6041 307.6726375  +6.6959052     6949.642         8467     8595.312     74.89024     134.3175     251.0303      1.195     3.18     925.7246     57.72412      1395.28        17     1.144     0.726   7.22  24
        20    425.9270      1.7233 307.7682900  +6.6881385     6254.476     7762.808     7983.968     76.44035      136.444     253.0187      1.274     3.09     932.1794     57.72412     1093.368        19     1.203     0.781   1.98  24
        21    967.3926      2.1053 307.5432549  +6.7061057     592.7222     744.3627     1002.359     79.44987     141.2815     259.0984      1.475     3.39     915.7738     57.72412     93.89056         5     0.777     0.429  68.81  24
        22    686.0562      1.3769 307.6601991  +6.6970018       3763.8     4594.737     4844.152     71.68955     130.6964     247.0485      1.164     2.87     925.2302     57.72412     968.5879        16     1.225     0.593   2.48  24
        23     75.7183    999.6524 307.8800302  +6.2643412     1107.395     1629.837      1663.54     82.09012     163.7901     327.5151      1.621     4.72     970.4078     57.72412     156.9509         9     0.945     0.707  72.59   0
        24    743.7728   1023.7126 307.6018240  +6.2768156     814.4594     855.2288     1096.162     70.94199     129.3845     245.5332      0.894     2.33     961.6781     57.72412     227.4952         5     0.725     0.430  14.05  24
        25    727.8127   1023.8035 307.6084483  +6.2762444     1075.312     1192.137     1200.576     69.11485     127.6421     243.8774      0.817     1.75     962.1702     57.72412      381.153         5     0.690     0.387   9.12  24
        26    374.8142   1022.5468 307.7550671  +6.2649391      2070.11     2677.519      2680.47     81.43808     146.2507     264.5151      1.367     3.12     968.8665     57.72412      310.971        15     1.111     0.842  45.79  24
        27    806.3881    999.0472 307.5766519  +6.2890927      708.757     824.4263     1057.351     81.43808     163.6599     327.1568      1.351     3.40     959.3255     57.72412     122.3804         7     0.901     0.615  35.09   0
        28    493.9116    997.4324 307.7064610  +6.2793025     2582.827     3444.263     3670.827      82.2199     163.5947     327.4825      1.364     2.83     966.7416     57.72412     421.2993        16     1.096     0.814  52.31   0
        29    928.4103    989.5110 307.5263014  +6.2971050     52468.39     70492.91     72909.47     81.82993     163.4643     327.2871      1.430     2.86     955.8704     57.72412     8423.127        54     1.378     1.047  57.04   0
        30    529.3818    992.8185 307.6918878  +6.2823961      421.231     721.9531     817.2938     81.82993     163.5295     327.4174      1.636     3.40     966.0632     57.72412     84.42834         5     0.759     0.440 -70.56   0
        31    333.0052    990.8625 307.7734964  +6.2766180     586.3627      819.187     550.1069     81.43808     163.5295     327.2545      1.462     4.02     969.1821     57.72412     94.32751         5     0.864     0.534  55.35   0
        32      1.6050    989.4939 307.9111465  +6.2660405     2999.929     3718.154     3742.396     75.03249     134.3175     251.0303      1.254     3.00     971.2045     57.72412     579.3369        15     1.162     0.703  83.48  24
        33    235.5740    987.7188 307.8140587  +6.2746438     2038.445     2937.451     2423.135     81.96013     163.5947     327.4825      1.490     3.60     969.2146     57.72412     324.8749        17     1.247     0.852  79.35   0
        34    123.6412    986.8064 307.8605665  +6.2712574     656.1931     893.9035      1132.96     81.43808     163.4643     327.1894      1.459     3.93     969.9579     57.72412     116.5354         6     1.326     0.333  74.40   0
        35    774.5615    981.2703 307.5904653  +6.2953692     7850.239     10791.99     12119.84     81.96013     163.7901     327.5477      1.494     3.05     959.6353     57.72412     1170.251        34     1.504     1.034  88.20   0
        36    634.5986    985.7703 307.6484342  +6.2888298     979.1379     1372.081     1421.371     81.43809     163.5947     327.2871      1.410     2.98     963.4958     57.72412     150.7881        10     0.840     0.820  52.43   0
        37    826.4143    983.2438 307.5688667  +6.2962870     2894.017     3771.004     3926.169     81.43809     163.5947      327.222      1.451     3.20     958.2153     57.72412     414.8806        21     1.248     0.926  53.79   0
        38    243.8495    980.2697 307.8108742  +6.2779975     1642.304     2155.146     2244.187     82.09012      163.725     327.5151      1.352     3.62     969.1082     57.72412     233.7943        15     1.130     0.916  43.54   0
        39    208.0317    979.9092 307.8257588  +6.2769426     976.9127     1542.359     1871.552     82.21991     163.5947     327.5151      1.629     4.85      969.285     57.72412     157.3631        12     1.154     0.829  52.41   0
        40    561.0818    980.1918 307.6791497  +6.2886716     935.1984     1334.038     829.4823     81.69952      163.399     327.3523      1.276     2.62     965.0516     57.72412     183.8671         7     0.836     0.540  46.39   0
        41     69.0468    978.2486 307.8835245  +6.2729539     3226.838     4295.653      4153.24     82.09012     163.6599     327.4825      1.408     3.22     970.2503     57.72412     498.2331        21     1.223     0.912  49.46   0
        42    962.7383    976.2748 307.5124901  +6.3037157     8015.891     10774.83     10455.93     82.34949     163.7901     327.4825      1.402     2.90     954.2617     57.72412     1189.493        28     1.277     0.935  53.83   0
        43    218.7910    972.6858 307.8215354  +6.2802867     702.7702     885.0889     1012.987     81.69952     163.4643     327.3197      1.375     3.74     969.0808     57.72412     113.6547         5     0.876     0.458  47.58   0
        44    645.0887    970.2460 307.6446005  +6.2955907     841.4604     917.3323     578.6929     82.09012     163.6599     327.5802      1.217     4.56     962.9442     57.72412     120.3993         9     1.028     0.619  31.17   0
        45    936.6342    967.9199 307.5236106  +6.3062945     2527.124     3337.069      3333.21     81.96013     163.8552     327.5151      1.373     3.20     954.8801     57.72412     446.5493        16     1.190     0.780  50.61   0
        46    796.0084    964.4849 307.5821232  +6.3030166     1610.395     2189.555     2368.402     81.69952     163.4643     327.3197      1.410     3.27     958.5081     57.72412     269.8766        13     1.033     0.881  40.09   0
        47    657.2254    963.7490 307.6397792  +6.2986795     5474.135     7054.725     7159.646     81.69952     163.7901     327.3849      1.362     2.78     962.5273     57.72412     904.0562        23     1.209     0.916  67.64   0
        48    269.3646    964.0696 307.8008266  +6.2855434     5026.383     6826.577     6611.633     81.96013     163.8552     327.5802      1.399     2.76     968.8799     57.72412     854.0557        23     1.150     0.963  44.67   0
        49   1006.9438    963.4741 307.4945621  +6.3104757      804.142     1239.315     1767.585     81.96013     163.6599     327.4174      1.961     5.24     952.2236     57.72412     119.9479         8     1.147     0.676  35.92   0
        50    479.3351    962.1623 307.7137023  +6.2933766      1318.21     1706.633     1295.631     81.96013      163.725     327.5802      1.335     2.76     966.3729     57.72412     242.8903        10     0.898     0.726  77.41   0
        51     38.2674    961.5574 307.8968695  +6.2788092     2703.473     3627.984     3561.567     82.09012      163.725     327.5477      1.457     3.29     970.4448     57.72412     398.9661        19     1.141     0.952  78.80   0
        52    888.6190    960.2353 307.5438078  +6.3078647     1099.689     1504.277     1204.297     81.56891     163.5947     327.2545      1.316     4.52     955.9449     57.72412     176.7949        11     1.084     0.902  74.47   0
        53    980.8317    958.5248 307.5055718  +6.3116483     675.1674     854.6544     681.7535     81.96013     163.8552       327.45      1.219     4.05     952.9949     57.72412     109.5817         6     1.022     0.458  60.91   0
        54    960.3059    957.4615 307.5141313  +6.3114026     990.4813     1382.571     1743.474     81.96013     163.8552     327.5151      1.518     3.18     953.6835     57.72412     155.1217        12     1.030     0.754  55.28   0
        55    581.8754    956.5841 307.6713100  +6.2991154     2009.601     2644.077     2547.111     81.56891     163.5295     327.3523      1.357     3.27     964.0876     57.72412     292.4096        12     1.068     0.687  74.45   0
        56    305.3440    957.4606 307.7861098  +6.2894805      935.802     1297.662     1747.644     82.21991     163.7901     327.5151      1.713     4.22     968.6628     57.72412     178.6375        10     1.232     0.623  67.81   0
        57   1013.3179    955.6498 307.4921774  +6.3139189     849.0392     1485.087      1878.51     82.09012     163.7901     327.5151      2.222     5.07     951.7069     57.72412     141.1801        12     1.651     0.715 -84.04  16
        58    621.0148    952.7905 307.6551847  +6.3019923     1658.643     2230.922     2259.604     81.82993     163.5295     327.3849      1.354     3.36     963.1447     57.72412     263.0887        13     1.091     0.793  64.43   0
        59     71.0537    953.5898 307.8835255  +6.2832025     915.9921     1217.094     1232.422     81.43808      163.725     327.1894      1.374     3.43     969.9587     57.72412     149.4001         9     0.943     0.753  33.13   0
        60    301.0270    950.3927 307.7881410  +6.2922537     1830.679     2413.072     2084.671     81.56891     163.5947     327.2871      1.381     2.72     968.5767     57.72412     301.2506        11     0.952     0.717  55.97   0
        61    568.9194    948.5470 307.6769607  +6.3020000     709.1123     1126.815     1308.934     82.09012     163.7901     327.5151      1.569     3.29      964.199     57.72412     148.5654         6     0.991     0.446  56.24   0
        62    767.8286    946.6802 307.5944236  +6.3094263     1159.765     1452.276     1282.562     81.96013      163.725     327.4174      1.450     4.48     958.8276     57.72412     177.1837        10     1.009     0.705  60.12   0
        63    143.4669    945.3640 307.8537357  +6.2890350     625.9858     779.7285     643.3095     81.96013     163.9203     327.5477      1.165     3.75     969.2053     57.72412     103.9692         6     0.952     0.424  72.08   0
        64    905.4713    943.1546 307.5373827  +6.3154800     8457.123     11439.23     11534.87     82.09012     163.7901     327.4825      1.409     2.82     955.0688     57.72412     1372.914        27     1.260     0.926  51.07   0
        65    441.2635    940.3262 307.7302476  +6.3011161     2627.795     3404.792     3361.057     82.21991     163.7901       327.45      1.368     2.73     966.5479     57.72412     448.0587        16     1.047     0.858  67.52   0
        66    610.0396    939.9131 307.6601758  +6.3069419      648.535     748.8798     419.7491     82.09012      163.725     327.4825      1.409     3.83     963.2448     57.72412     113.5551         5     0.815     0.517  64.00   0
        67    343.0250    938.6355 307.7710983  +6.2985182     11111.01      14879.5     15724.18     81.69952     163.5947      327.222      1.416     2.95     968.0209     57.72412     1731.689        31     1.274     0.995  64.05   0
        68    263.1325    937.6127 307.8043080  +6.2962577     8074.259     10949.12     11335.57     81.56891     163.5947     327.3849      1.409     2.95     968.5295     57.72412     1276.078        29     1.264     0.960  59.71   0
        69    590.9832    931.9490 307.6683573  +6.3095922     1232.736      1680.88     1671.002     81.56891     163.8552     327.1894      1.354     3.86     963.4698     57.72412     220.0796        10     1.208     0.588  58.68   0
        70    775.5265    931.9835 307.5917208  +6.3157519     719.8072     1025.382     1289.311     81.56891     163.5947     327.3849      1.386     3.74     958.1288     57.72412     110.6436         6     0.803     0.499 -89.76   0
        71    921.2494    928.1387 307.5313343  +6.3222067      1347.49     1730.469     2004.151     82.09012      163.725     327.5477      1.326     3.21     954.1587     57.72412     211.8096        11     1.083     0.688  63.54   0
        72    877.8008    927.3028 307.5494057  +6.3211014     1112.157     1591.852     972.7145     81.56891      163.399     327.1242      1.582     5.08     955.4941     57.72412     136.7053        10     1.081     0.675  38.66   0
        73    153.4448    928.0089 307.8501794  +6.2965362     790.2368     1122.086     564.2548     81.56891     163.6599     327.1568      1.467     4.60     968.8221     57.72412     113.4849         8     0.979     0.629  49.66   0
        74    419.5839    926.6755 307.7397105  +6.3060253     728.4304     711.0184     747.8748     81.56891     163.5295     327.3523      1.286     5.02     966.7831     57.72412      104.389         7     0.995     0.717  68.54   0
        75    988.2145    923.6734 307.5036746  +6.3262849     981.3751     1551.137     2175.683     81.56891     163.5295     327.3523      1.983     4.41     951.4004     57.72412     153.1251         9     0.975     0.619  69.68   0
        76    581.0354    922.1308 307.6728188  +6.3133129     796.9717      1142.22     394.9101     81.96013     163.8552     327.5802      1.378     4.69     963.3331     57.72412     116.4042         8     1.004     0.621  65.00   0
        77    757.4782    921.2018 307.5995781  +6.3196004     1837.824     2450.205     2606.185     81.43809     163.2032     327.2545      1.313     2.90     958.4453     57.72412     332.3308        13     1.016     0.762  67.83   0
        78      8.1606    918.3856 307.9108321  +6.2956201     1054.492     1464.735     1412.511     81.56891     163.5947     326.3737      1.379     3.01     970.2812     57.72412     203.0884        10     1.031     0.633  43.93   0
        79    988.8256    916.8884 307.5036483  +6.3291068     1311.147     1758.119     2349.136      82.2199     163.5947     327.3197      1.354     3.19     951.1511     57.72412     236.6889        11     1.053     0.657  69.16   0
        80    633.2504    917.3987 307.6512948  +6.3170150      640.655     753.9041     977.6516     81.43809      163.399     327.0264      1.151     3.59       961.83     57.72412     114.2174         6     1.063     0.588  70.78   0
        81    621.5644    917.8096 307.6561338  +6.3164542     879.7548     1307.508     1390.202     81.56891     163.5295     327.2545      1.704     3.79     962.2158     57.72412     142.0626         8     0.919     0.632  29.95   0
        82    542.6585    916.9532 307.6889299  +6.3141653     1235.887      1777.12     2123.277     82.09012     163.7901     327.6128      1.510     3.28     963.9473     57.72412     202.3911        11     1.088     0.700  56.71   0
        83    676.0869    914.6431 307.6335986  +6.3195863     2896.576     3898.713      3947.99     82.09012     163.6599     327.5151      1.372     2.70     960.4344     57.72412     498.2869        17     1.061     0.864  54.00   0
        84    483.9890    914.7028 307.7133692  +6.3131283        452.5     669.8139     987.0447     81.82993      163.399     327.2871      1.547     4.38     965.3846     57.72412     71.88373         6     0.924     0.592 -89.63   0
        85    966.2831    912.7387 307.5131491  +6.3300682     821.2717     808.4189     954.1718     82.21991     163.7901     327.5151      1.231     3.30     951.9649     57.72412     117.9677         7     0.836     0.600  57.41   0
        86    836.9151    911.1967 307.5669257  +6.3263861     885.3156     1267.709     1157.485     81.43808      163.399     327.1894      1.422     3.57     956.2538     57.72412     137.2525         9     0.971     0.619  57.95   0
        87     72.5852    910.6826 307.8843415  +6.3009695     3308.347     4600.411     4942.332     81.69952     163.5295     327.3523      1.415     2.90      969.452     57.72412     496.2137        21     1.297     0.836  75.41   0
        88    216.2110    909.7083 307.8247346  +6.3062023     2442.708     3315.268      3819.44     81.82993     163.4643     327.2871      1.459     2.93     968.4507     57.72412     425.5786        18     1.168     0.876  69.72   0
        89     90.2285    909.9955 307.8770385  +6.3018470     2321.657     3226.262     2946.252     81.56891     163.5947     327.3197      1.415     3.19     969.2452     57.72412     352.5444        16     1.130     0.819  58.94   0
        90    953.9391    909.9245 307.5183699  +6.3308184     967.3156     1331.529     1615.121     82.34949     163.7901     327.4825      1.381     4.39     952.3631     57.72412     139.9542         8     1.055     0.519  37.15   0
        91    250.4490    906.3129 307.8106320  +6.3087548     1061.014     1414.724     1154.874     82.09012     163.6599     327.5477      1.294     2.45     968.3202     57.72412     175.0614         9     0.829     0.698  77.90   0
        92    670.7913    903.7427 307.6361644  +6.3239099     8256.107     11304.83     11630.74     81.43808      163.725     327.1894      1.402     2.95     960.1776     57.72412     1229.788        29     1.287     0.979  50.56   0
        93    355.3795    905.7557 307.7670777  +6.3125086     996.1379     1496.068     1869.923     81.56891     163.6599     327.3197      1.900     5.02     967.5992     57.72412     166.5287        10     1.140     0.625  48.35   0
        94    807.8942    904.5178 307.5792020  +6.3281743     860.7035      987.435     1208.165     81.82993     164.1153     327.6128      1.209     3.31     956.8697     57.72412     159.3421         9     1.079     0.535  64.48   0
        95     30.6612    902.0388 307.9020425  +6.3031270     1227.779     1677.882     1575.078     82.09012     163.7901     327.5151      1.446     3.32     969.8307     57.72412     223.5491        11     1.036     0.800  24.88   0
        96    908.4324    900.0734 307.5375989  +6.3333672     3438.123     4481.038     4348.839     81.96013     163.7901     327.4825      1.378     3.03     953.8441     57.72412     543.3905        21     1.245     0.903  61.90   0
        97     43.7089    900.6032 307.8966732  +6.3041590     1294.011     1499.131     896.3423     81.56891     163.4643      327.222      1.244     3.48     969.6702     57.72412     195.2479        10     1.039     0.653  46.38   0
        98    353.7686    896.9122 307.7680450  +6.3161058     18683.59     25707.38      27157.1      82.2199     163.5947     327.4174      1.445     2.97     967.5967     57.72412     2816.759        42     1.368     1.030  60.73   0
        99     88.3269    898.0012 307.8782340  +6.3067352     1450.853     2097.381     2001.923     81.43808     163.2685     327.3523      1.413     3.41      969.132     57.72412     248.7877        14     1.139     0.877  66.62   0
       100    404.2356    896.1241 307.7471145  +6.3181248      764.406     1215.014     1396.598     81.96013     163.8552     327.5151      1.752     4.47     966.3035     57.72412     131.3922         9     1.058     0.841  80.62   0
       101    224.5134    896.1812 307.8217441  +6.3120665      1351.54     1951.275     2325.916     81.82993     163.5295     327.3523      1.527     3.68     968.4144     57.72412     205.0147        11     1.115     0.661  52.37   0
       102    116.9865    887.7007 307.8666817  +6.3119524     1840.117     2485.749      2591.91     81.82993     163.5295      327.222      1.393     3.40     968.7212     57.72412     305.3053        13     1.107     0.756  58.02   0
       103    431.4658    887.6035 307.7360940  +6.3225563     1166.226     1628.671     1558.932     81.30705     163.5295     327.2545      1.405     3.64      965.544     57.72412     190.1788         8     0.928     0.731  53.26   0
       104    463.5788    886.8316 307.7227844  +6.3239518     332.5592     478.7596     413.2097     81.56891     163.5947     327.3197      1.131     3.46     965.0472     57.72412     79.96307         5     0.758     0.456  71.74   0
       105    684.9209    883.8554 307.6309656  +6.3325941     948.7165     1295.839     2223.975     82.21991     163.7901     327.5151      1.319     5.01     959.0955     57.72412     156.4994        10     1.357     0.523  46.03   0
       106    512.1144    884.4597 307.7027087  +6.3265582     825.2126      1455.13     1955.633     82.09012     163.8552     327.5802      2.069     5.53     963.9578     57.72412     130.1777         9     1.198     0.719  20.51   0
       107     94.7600    885.1605 307.8759971  +6.3122533     525.2772     748.7729     1044.086     81.82993     163.9203     327.3523      1.431     2.83     968.9048     57.72412     125.7243         5     0.898     0.346  44.95   0
       108    898.6900    881.7513 307.5422598  +6.3406072     2398.833     3216.858     3432.075     82.09012     163.5947     327.6453      1.335     3.33     953.7307     57.72412     354.9514        16     1.203     0.781  56.87   0
       109    100.5803    881.1420 307.8737162  +6.3141083     2739.196     3823.436     3956.214     81.69952     163.6599     327.2871      1.503     3.37     968.7979     57.72412     406.1098        20     1.280     0.845  63.97   0
       110    869.4381    881.2457 307.5544250  +6.3398392     2425.575     2866.605     2495.951     81.82993      163.725     327.3849      1.278     2.70     954.8859     57.72412     401.9363        15     1.074     0.767  60.75   0
       111    832.9648    880.6031 307.5695937  +6.3388863     3721.181     4999.302     5743.078      81.1758     163.5947      327.222      1.390     2.85     955.9452     57.72412     580.1357        20     1.203     0.833  58.38   0
       112    568.8287    872.1197 307.6795720  +6.3335534     384950.8     520602.6     538521.8     81.96013     163.6599     327.4174      1.414     2.93     961.9807     57.72412     58540.71       150     1.486     1.182  60.31   4
       113    348.3196    879.1038 307.7709088  +6.3232758     834.8323     1052.236     1811.018     81.82993     164.0503     327.5802      1.358     3.41     967.6052     57.72412       160.59         7     1.017     0.498  44.80   0
       114    656.5543    875.3855 307.6430309  +6.3351421      1335.64     1891.714     1727.622     81.43809     163.5947     327.2545      1.557     4.49      959.476     57.72412     204.3032        14     1.204     0.863  71.39   0
       115    413.0726    874.7291 307.7441664  +6.3272550     8863.991     12046.06     12440.49     82.34949     163.9203       327.45      1.442     2.96     965.5179     57.72412     1329.808        28     1.237     0.991  63.31   0
       116    356.3197    873.0889 307.7677896  +6.3260279     14377.61     19979.95     20952.73     81.82993     164.0503     327.5802      1.463     2.90     967.4619     57.72412     2335.873        36     1.326     1.029  60.94   0
       117    674.7765    869.4019 307.6356647  +6.3382225     4185.869     5713.099     6154.793     81.69952     163.4643     327.2545      1.434     2.93      958.814     57.72412     657.9786        24     1.330     0.878  55.19   0
       118    907.1566    868.3177 307.5391945  +6.3464366     6332.581     8524.281     9331.987     82.09012     163.7901       327.45      1.409     2.80     953.0575     57.72412     1124.333        29     1.295     0.944  53.00   0
       119    746.1798    865.7515 307.6061341  +6.3421180     938.1003     1019.349     968.1924     81.56891     163.8552     327.2871      1.245     2.65     957.0942     57.72412     154.3919         9     0.859     0.667  68.53   0
       120    649.5809    863.2934 307.6463337  +6.3399015     3970.646     5226.989     5887.326     81.96013     163.5295     327.3197      1.409     2.69     959.1883     57.72412     636.0519        22     1.216     0.962  48.26   0
       121    758.2152    864.0696 307.6011924  +6.3432149     556.8635     612.4315     100.2199     81.56891      163.725     327.3849      1.204     3.26     956.9677     57.72412      109.832         5     0.722     0.678 -65.11   0
       122    837.8783    862.5782 307.5681586  +6.3464930     1995.469     2670.758     2574.029     81.69952     163.5295     327.4825      1.381     2.96     955.4848     57.72412     313.5468        11     0.998     0.682  71.52   0
       123    639.8297    862.3273 307.6504158  +6.3399740     1060.624     1326.176     2222.545     81.96013     163.7901       327.45      1.309     3.47     959.3796     57.72412     144.9284        10     0.942     0.711  84.54   1
       124    192.0235    863.1124 307.8363535  +6.3246280     619.9426     749.9976     1092.891     82.09012     163.5947     327.3523      1.381     3.26     968.1737     57.72412     111.1727         5     0.793     0.498 -62.24   0
       125    964.9318    861.3185 307.5154351  +6.3512548     1215.206     1490.728     1554.467     82.21991     164.0503     327.5151      1.354     2.96     950.4156     57.72412     193.7925         9     0.943     0.618  53.69   0
       126    926.0375    856.2175 307.5317593  +6.3520631     3934.945     5296.381      5529.79     81.69952     163.6599      327.222      1.407     3.24     951.8188     57.72412     655.8251        20     1.254     0.836  63.33   0
       127    642.3273    857.9855 307.6495247  +6.3418503      2547.68     3457.121     4150.825     81.56891     163.5295     327.3849      1.425     2.91     959.1909     57.72412     464.8393        18     1.191     0.843  61.70   0
       128    336.1701    856.5627 307.7767150  +6.3321749     1166.799     1724.162      1297.62     81.69952     163.5295     327.3523      1.532     4.37     967.3734     57.72412     186.3207        12     1.263     0.783  76.11   0
       129    384.2679    852.0983 307.7568917  +6.3356326     3013.114     4052.556     4698.822     82.09012     163.9203     327.5151      1.455     2.86     966.0159     57.72412     480.0724        21     1.235     0.966  38.10   0
       130    520.3879    841.7668 307.7007113  +6.3444630      3279.68     4334.693     4396.427     81.56891     163.5295     327.3849      1.387     2.88     962.3461     57.72412     476.8204        17     1.090     0.859  71.98   0
       131    865.1782    840.9686 307.5575466  +6.3563275       1283.9     1809.601     1892.205     81.56891     163.5947     327.2871      1.524     4.41     953.7357     57.72412     167.0982        12     1.016     0.843  45.27   0
       132    585.5568    839.6748 307.6737176  +6.3475100     890.5017     1298.867     1217.412     81.96013     163.8552     327.5151      1.510     4.69     959.9175     57.72412     138.7207         8     0.972     0.643  70.73   0
       133    567.2303    837.9587 307.6813862  +6.3476048     6991.769     9408.257     10195.77     81.56891     163.6599     327.3197      1.407     2.86     960.4871     57.72412     1126.163        25     1.200     0.956  62.12   0
       134    574.0156    837.5351 307.6785826  +6.3480070     1411.765     2081.254     2178.197     81.56891     163.6599     327.3849      1.730     3.26     960.2424     57.72412      261.581        13     1.046     0.853  75.55   0
       135    484.9117    836.9006 307.7156083  +6.3452832     1825.861     2109.092     1667.906     82.09012     164.2452       327.45      1.277     2.82     963.4407     57.72412     316.6045        13     1.026     0.740  61.55   0
       136    278.9162    838.0402 307.8011166  +6.3379000     804.7991     1080.045     871.1703     82.09012      163.725     327.4174      1.510     3.25     967.7243     57.72412       164.08         6     0.903     0.452  50.44   0
       137    902.8618    836.0735 307.5420605  +6.3596069     1608.205     1898.867     1811.859     82.21991     163.7901     327.5151      1.276     2.83     951.9584     57.72412     294.4257        11     0.945     0.752  56.18   0
       138    126.6509    836.0686 307.8644149  +6.3335954     1454.519     1979.221     2110.738     81.96013     163.6599     327.4174      1.414     3.34     967.9666     57.72412     195.6936        10     0.969     0.663  31.64   0
       139    702.6592    834.8711 307.6252466  +6.3534130     774.8241     1070.361     1197.361     82.21991     163.7901     327.5477      1.517     3.68     957.4332     57.72412     133.0428         8     0.974     0.646  87.25   0
       140    537.9223    831.8248 307.6937644  +6.3491556     22271.25        30669     31068.01     81.69952     163.6599       327.45      1.440     3.04     961.2144     57.72412     3510.374        43     1.321     1.053  58.38   0
       141    378.9760    833.2288 307.7597260  +6.3432461     876.8232     1297.907     1617.094     81.56891     163.6599     327.3197      1.625     4.45       965.64     57.72412     119.6346         8     0.986     0.598  63.13   0
       142    951.5430    830.0151 307.5220458  +6.3637334      4534.76     5968.391     6166.068     81.43808      163.725      327.222      1.353     2.64     949.6699     57.72412      797.293        20     1.139     0.897  57.84   0
       143    423.7845    827.4684 307.7413119  +6.3471278     724.3435     1032.289     1073.205     81.56891      163.725     327.3849      1.718     4.60     964.4193     57.72412     114.0112         8     1.157     0.519  68.34   0
       144    705.8412    823.9613 307.6242921  +6.3580241      605.431     639.0363     547.8542     81.82993     163.8552     327.3523      1.210     4.36     957.2033     57.72412     97.83685         6     0.810     0.667 -84.46   0
       145    330.5121    820.6966 307.7802753  +6.3467937     3723.038     5142.495     5470.951     82.09012     164.1802     327.5151      1.487     3.07     966.4674     57.72412     503.1437        22     1.286     0.914  67.72   0
       146     48.3939    822.4043 307.8973748  +6.3366034     1819.527     2257.647     2102.471     81.43809     163.4643     327.3523      1.343     2.91     968.6492     57.72412     313.9194        14     1.076     0.761  48.85   0
       147    796.0936    816.3659 307.5870646  +6.3641779     65039.87     85419.46     87983.78     82.21991     163.6599     327.5802      1.366     2.85     954.4002     57.72412     10636.73        64     1.336     1.059  55.13   0
       148     30.5976    818.4478 307.9048989  +6.3376377      2316.44     3054.101     3291.788     81.43809     163.4643      327.059      1.418     3.07     968.8816     57.72412     363.0896        16     1.176     0.798  50.34   0
       149    734.6854    818.4515 307.6124981  +6.3612638     622.8954     938.8547     1160.054     82.09012      163.725     327.6128      1.369     2.94     956.8438     57.72412       112.01         5     0.702     0.478 -15.57   0
       150    252.9216    792.8480 307.8134383  +6.3556858     769597.7      1699128      1844359     82.09012     163.8552     327.4174      2.203     4.26     967.1361     57.72412     63395.25       605     2.787     1.985  79.98   4
       151    718.0483    807.4584 307.6197773  +6.3652464       103972       137119     142100.6     82.09012     163.7901     327.5802      1.409     2.86     956.8547     57.72412     15829.75        73     1.387     1.064  62.20   3
       152    921.3340    811.6165 307.5352096  +6.3703220     10241.43     13527.01     13935.86     81.56891     163.6599     327.3523      1.377     2.75     950.2421     57.72412     1723.963        29     1.226     0.930  55.90   0
       153    362.9333    808.3346 307.7672284  +6.3529862      22920.2        32314     33596.73     82.09012     163.7901     327.5151      1.497     3.05     965.1985     57.72412     3362.917        45     1.381     1.081  59.33   0
       154    412.0334    808.4061 307.7468350  +6.3546043     1647.299     2192.858     2279.613     81.43808     163.5947     327.2545      1.425     3.60     964.3622     57.72412     274.8226        13     1.166     0.765  64.79   0
       155    221.9849    810.0962 307.8257031  +6.3475247     538.4486     651.2913     833.8223     81.82993     163.5295     327.2545      1.281     3.85     967.6355     57.72412     107.1884         5     0.845     0.502 -66.46   0
       156    651.5731    807.6904 307.6473775  +6.3629265     1141.183     1344.465     1506.912     82.21991     163.5295     327.3523      1.345     3.41     957.3043     57.72412     170.4667         9     0.962     0.655  56.46   0
       157    424.8403    806.1740 307.7415916  +6.3559555        24589     34445.54     35117.21     81.69952     163.5947     327.2871      1.464     3.02     964.0688     57.72412      3616.89        43     1.330     1.105  57.16   0
       158    961.9071    805.2914 307.5185709  +6.3742877     2328.077     3127.228     3204.848     82.09012     164.3101     327.4825      1.401     3.24     948.2041     57.72412     344.3589        16     1.226     0.774  55.00   0
       159    918.2404    803.0164 307.5367830  +6.3737697      8049.53     10723.53     10959.25     81.56891     163.5947     327.2871      1.370     2.67     949.9981     57.72412     1421.534        25     1.203     0.889  53.47   0
       160    890.9996    803.9293 307.5480662  +6.3724833     977.3835     1207.145     613.9547     81.56891     163.2685     327.2871      1.327     3.07     951.1311     57.72412      160.381         7     0.863     0.530  49.72   0
       161    658.8149    802.0663 307.6445591  +6.3654910     7292.498      9889.36     10125.42     81.56891     163.6599     327.4174      1.404     3.05     957.0507     57.72412     1109.238        24     1.210     0.936  56.25   0
       162    447.4434    799.9551 307.7324143  +6.3592814     1821.764     2470.504     2261.653     82.09012     163.7901       327.45      1.416     3.55     963.4336     57.72412     288.5723        14     1.229     0.737  52.08   0
       163    172.6836    799.2815 307.8465427  +6.3503324     903.8452     1049.566     1016.334     81.82993     164.0503     327.5477      1.437     5.11     967.4546     57.72412      123.871        10     1.020     0.725  57.32   0
       164    439.2946    814.6388 307.7353033  +6.3529453     892.0737     1343.664     1673.185     82.21991     163.6599     327.6128      1.824     4.31      963.918     57.72412      131.254        10     1.115     0.706  35.84   0
       165    746.5328    796.3991 307.6083191  +6.3707654     642.8114     913.0788     591.4229     81.30705     163.3338      327.222      1.539     4.96     955.8804     57.72412     94.22559         6     0.989     0.705 -18.10   0
       166    886.6542    794.0349 307.5502031  +6.3764237     999.9523     1348.377     1076.511     81.96013     163.7901     327.5151      1.416     4.99      950.938     57.72412     130.0549        11     1.171     0.668  59.72   0
       167    611.8599    794.0888 307.6643286  +6.3672131     935.1247     1441.147     1694.465     81.96013     163.9203     327.5802      1.563     4.05     957.1935     57.72412     144.3391        10     1.130     0.691  59.94   0
       168    163.0251    793.0605 307.8507641  +6.3525761     1121.086     1528.738     1814.613     81.69952     163.7901     327.3849      1.467     4.30     967.2792     57.72412     155.1269        10     0.971     0.733  66.08   0
       169    138.0805    792.6805 307.8611360  +6.3518940     1318.886     1888.742         1966     82.34949     164.0503     327.6453      1.544     3.62     967.2797     57.72412     215.5114        12     1.153     0.679  80.79   0
       170    693.9330    792.2855 307.6303031  +6.3707046      2890.77     3729.394     3632.613     82.21991     164.0503     327.5151      1.384     3.14      956.532     57.72412     440.7223        17     1.112     0.845  57.35   0
       171    427.7531    788.8794 307.7409653  +6.3631940      59784.6     83837.24     87078.21     82.09012     163.7901       327.45      1.483     2.98     963.4299     57.72412     8866.827        65     1.429     1.143  57.04   0
       172    970.5440    790.4442 307.5154818  +6.3807063      839.111      1122.41      867.267     82.09012     163.7901     327.4825      1.266     4.25     947.4869     57.72412     147.1406         7     1.181     0.435  49.16   0
       173    545.4348    787.8408 307.6921262  +6.3675681     8123.226     11011.51      11458.3     81.82993     163.7901     327.2871      1.437     2.90     958.8193     57.72412     1130.226        29     1.189     1.057  56.41   0
       174    462.3090    786.5987 307.7266909  +6.3652946      5015.55      7278.65     7667.828     81.30705      163.399     327.2545      1.539     3.07     962.4488     57.72412     751.0084        26     1.295     0.989  60.66   0
       175    790.7032    784.5251 307.5903734  +6.3771448     13468.24     17824.12     18490.38     81.69952     163.9203     327.5151      1.391     2.84     953.2886     57.72412     2068.829        33     1.288     0.975  51.64   0
       176    684.9962    782.9594 307.6343285  +6.3742563     628.9349     899.0486     835.0184     81.30704     163.5295     327.2545      1.490     4.02      956.371     57.72412     101.5283         7     0.880     0.646  58.05   0
       177    458.9221    779.9213 307.7283227  +6.3679381     2569.739      3604.98     4205.087     82.34949     164.0503     327.6128      1.514     3.15     962.1922     57.72412     388.0459        20     1.217     0.912  45.42   0
       178     19.9377    780.6396 307.9106059  +6.3528889     1302.865       1802.2     1702.495     82.09012     163.7901     327.5477      1.399     2.98     968.3713     57.72412     235.0886        10     0.988     0.647  63.44   0
       179    812.1938    778.7802 307.5816408  +6.3802351     1335.836     1456.699     1632.941     81.69952     163.5295     327.2871      1.156     2.28     952.4133     57.72412     249.4788         8     0.799     0.594  51.31   0
       180    148.4355    776.4627 307.8573843  +6.3589383     13035.79     18313.46     19762.01     81.96013     163.7901       327.45      1.528     3.00     966.8017     57.72412      1849.62        39     1.405     1.044  57.24   2
       181    140.7376    774.0125 307.8606640  +6.3596910     3100.083     4759.083     5934.424     81.56891     163.5947      327.222      1.776     3.33     966.7579     57.72412     513.6595        22     1.488     0.885  45.08   3
       182    979.8877    777.5873 307.5120324  +6.3863267     548.1691     884.6379     839.9586     81.69952     163.5295     327.3849      1.485     4.34     946.9855     57.72412     128.7352         7     1.355     0.566  82.56   0
       183    156.5663    776.6766 307.8540004  +6.3591235     3307.651     4530.003     4694.906     81.96013     163.7901       327.45      1.526     3.23     966.8165     57.72412     468.9331        22     1.284     0.976  50.96   0
       184    936.1693    773.0598 307.5303421  +6.3867373     7494.467     10003.86     10637.21     81.82993     163.7901       327.45      1.368     2.81     948.4623     57.72412     1315.285        25     1.240     0.856  50.65   0
       185    985.2745    772.9480 307.5099507  +6.3884220     1932.586     2616.825     3218.508     82.09012     163.8552     327.4825      1.437     3.45     946.7525     57.72412     260.0707        14     1.142     0.748  54.98   0
       186    578.5029    770.0517 307.6789917  +6.3760209     2526.647     3198.843     3476.685     81.96013     163.7901     327.7104      1.384     2.96     957.3461     57.72412     406.2695        17     1.173     0.837  62.84   0
       187    691.8276    770.6928 307.6319039  +6.3795497     2018.019     2401.496     2829.665     82.21991     163.5295     327.3523      1.308     3.01     955.8405     57.72412     315.2713        15     1.110     0.794  36.27   0
       188    426.7332    769.4177 307.7420452  +6.3711954     1279.288     1853.074     1867.731     81.56891      163.725     327.3523      1.536     3.67     962.6435     57.72412     197.1396        11     1.112     0.664  50.56   0
       189    140.8966    767.5917 307.8608151  +6.3623474     2098.553     3264.959     3792.764     81.82993      163.399     327.2871      1.729     3.78      966.593     57.72412     290.5769        22     1.294     1.044  50.72   0
       190    930.3873    765.0732 307.5330115  +6.3898420     3508.666     4952.247     5691.841     81.56891     163.4643     327.2545      1.434     2.98     948.4553     57.72412     608.1442        20     1.200     0.900  71.31   0
       191    990.6635    764.3781 307.5079999  +6.3921403     2315.059     2953.844     3603.778     81.69952     163.7901     327.3523      1.344     3.44     946.4683     57.72412      324.014        14     1.165     0.689  66.51   0
       192    959.8458    764.5039 307.5207954  +6.3910602      3833.55     4974.041     5532.295     82.09012      163.725     327.6453      1.392     3.01     947.4822     57.72412     604.0985        18     1.119     0.834  57.79   0
       193    682.6855    764.2689 307.6359170  +6.3818963     1504.343     1962.525     2281.818     82.21991     164.0503     327.5151      1.282     3.20        955.9     57.72412      244.933        14     1.208     0.695  47.95   0
       194    724.3455    810.9620 307.6170442  +6.3640104     24806.87     33528.39     35292.19     82.09012     163.8552     327.5151      1.413     2.73     956.8667     57.72412     4151.746        41     1.369     0.989  58.74   3
       195    830.1700    762.3495 307.5747268  +6.3876200       1291.4     1908.803     1746.344     81.69952     163.9203     327.3849      1.587     3.70     951.4216     57.72412     183.9634        12     1.036     0.796  63.85   0
       196    905.4110    760.5749 307.5435361  +6.3908657     979.8677     1408.269     1522.707     81.69952     163.5947     327.3849      1.578     4.80     949.2197     57.72412     171.5323         9     1.112     0.587  58.90   0
       197    255.0169    759.0299 307.8137108  +6.3697192     2135.763     3709.327     5773.889     81.69952     163.5295     327.4174      2.903     6.42     965.4346     57.72412     303.2977        25     1.750     1.214  15.76   2
       198    307.5020    757.2339 307.7919741  +6.3722240     480.3751     653.9019     1532.984     82.09012     163.6599     327.6128      1.566     4.79     964.3294     57.72412     83.29987         6     1.326     0.490  85.43   0
       199    276.1405    754.8066 307.8050807  +6.3721727      820.467     1306.686     1564.526     81.43808     163.6599     327.2545      1.836     5.93     964.9957     57.72412     125.6756        10     1.239     0.798  60.62   0
       200    948.1683    754.8693 307.5259689  +6.3946487     1192.778     1529.001     2062.892     81.96013     163.7901     327.4825      1.304     3.77     947.6562     57.72412     200.5863         9     1.060     0.623  46.85   0
       201    921.9966    753.2837 307.5368922  +6.3944299     1173.494     1498.744      1513.97     81.56891      163.399     327.1568      1.293     4.45     948.3974     57.72412     176.5887         9     1.079     0.604  44.21   0
       202    170.9295    754.0932 307.8487991  +6.3689308     870.9178     1173.017     1092.858     82.09012     163.8552     327.4825      1.489     4.43     966.0387     57.72412     109.7608         8     0.883     0.632  45.46   0
       203    974.6932    752.3206 307.5150375  +6.3965861     2919.039     3749.795      3920.59     81.82993     163.9853     327.5477      1.327     2.96     946.8235     57.72412     423.1024        17     1.107     0.814  54.02   0
       204    694.2626    751.2397 307.6315470  +6.3876633     1074.169     1338.137     1485.355     82.09012      163.725     327.5151      1.279     3.08     955.0751     57.72412     179.5586         8     0.819     0.696  -3.80   0
       205   1016.4538    745.9062 307.4979076  +6.4006276     1824.512     2160.933     1942.738     81.96013      163.725     327.7104      1.247     3.47     945.6534     57.72412     302.9634        14     1.181     0.789  41.43  16
       206    485.2797    746.8162 307.7184921  +6.3824907     685.8188     714.5686     565.2975     81.69952     163.5295     327.2871      1.330     4.04     959.6675     57.72412     110.7579         7     0.886     0.575  60.43   0
       207    817.5407    744.1920 307.5805823  +6.3946953     1335.914     1615.101     1303.625     81.43808     163.6599     327.1894      1.290     2.89      951.048     57.72412     206.0095        12     0.940     0.835  80.38   0
       208    642.9955    745.1652 307.6530442  +6.3884559     782.9565     870.4003     382.8163     81.30704     163.6599     327.2545      1.329     5.00     955.9404     57.72412     124.9945         8     1.066     0.663  43.54   0
       209    904.0197    741.4267 307.5447569  +6.3987256     1632.347     2397.413     2338.776     81.69952     163.5947     327.3849      1.494     3.63     948.6411     57.72412     269.9647        12     1.189     0.648  45.36   0
       210    878.5627    736.9057 307.5554820  +6.3997423     1185.123     1544.808     1823.154      82.2199     163.6599     327.6128      1.392     3.25     949.3151     57.72412     185.7425         9     0.928     0.705  46.29   0
       211    860.7815    733.0392 307.5629972  +6.4007449     1758.187     2216.007     2479.336     81.69952     163.5947     327.2545      1.240     2.71      949.754     57.72412      314.897        11     0.943     0.712  68.90   0
       212    124.1728    730.2202 307.8690247  +6.3772148     966.9828     1667.583     1828.315     81.56891     163.5947     327.3849      2.081     6.99     965.7219     57.72412     128.8432        16     1.714     0.798  75.00   0
       213     60.2074    732.0229 307.8955285  +6.3743176     2618.415     3835.898     4108.341     81.56891     163.5947     327.2871      1.517     3.27     966.5126     57.72412     397.9452        21     1.239     0.950  48.59   0
       214    577.5425    726.6037 307.6808539  +6.3939281     562.7139     893.9484     152.1665     81.43809     163.6599     327.1894      1.579     3.98     956.0195     57.72412     108.0166         6     0.928     0.489  -1.75   0
       215    672.8815    720.4518 307.6414633  +6.3996602     7049.505     9627.318     10140.48     82.09012     163.7901     327.5151      1.474     3.02     954.7969     57.72412     991.0396        30     1.351     1.017  49.56   0
       216    619.5314    719.7787 307.6636443  +6.3981523     1521.564     2207.007     1969.714     81.69952      163.725     327.3849      1.538     3.17     954.9191     57.72412     208.2148        14     1.077     0.833  54.77   0
       217    530.4271    720.2883 307.7006353  +6.3949572     895.1141     1316.583     1282.905     82.21991     163.5295     327.3849      1.691     4.44     957.1294     57.72412     111.6295         7     0.999     0.561  31.50   0
       218    541.2702    719.5201 307.6961576  +6.3956377     768.8768     1253.503     956.2142     82.34949     164.0503       327.45      1.509     2.19     956.7827     57.72412     148.8437         5     0.687     0.478  17.11   0
       219    135.8047    716.3505 307.8646631  +6.3833326     4096.323     5986.392     5765.539     81.43808     163.5947     327.1242      1.565     3.42     965.3438     57.72412     610.6222        28     1.348     1.023  60.80   0
       220    646.7598    716.1168 307.6524585  +6.4005759     2500.282     3196.911     3404.918     82.09012     163.7901       327.45      1.365     2.90     954.6434     57.72412       348.94        19     1.120     0.931  54.61   0
       221   1009.8459    715.6126 307.5016681  +6.4129156     2968.085     4104.799     4024.466     81.43808     163.5947      327.222      1.462     3.06     945.6388     57.72412     502.4574        17     1.240     0.757  43.35   0
       222    322.2768    716.1757 307.7872244  +6.3896725     928.6888     1405.145     1589.624     81.69952     163.6599       327.45      1.636     4.45     962.3446     57.72412     142.0546         9     1.004     0.753  57.84   0
       223    258.1679    715.9755 307.8138568  +6.3876016     699.9747     1094.057     1091.061     81.43808     163.6599     327.2871      1.507     3.04     963.7269     57.72412     139.3751         6     0.898     0.445  49.83   0
       224    789.6793    712.5257 307.5932185  +6.4068392     23484.97     31081.94     31827.02     82.34949     164.0503     327.5477      1.408     2.80     950.8326     57.72412     3394.776        47     1.350     1.040  54.35   0
       225    919.6124    712.2995 307.5392582  +6.4112728     4401.248     5380.045     5645.863     81.82993     163.5295     327.2545      1.290     2.88     947.4119     57.72412     625.5958        20     1.137     0.855  58.83   0
       226    488.6883    712.6956 307.7182267  +6.3966932     1489.161     2033.015      1923.17     82.09012     164.1802     327.5477      1.503     3.33     958.1826     57.72412     209.7252        14     1.070     0.839  66.31   0
       227    472.0130    714.3568 307.7250964  +6.3954482      446.805     591.1674     676.5659     81.56891     163.5947      327.222      1.241     4.22     958.7917     57.72412     75.31281         5     0.831     0.611  88.49   0
       228    334.5069    712.2615 307.7822771  +6.3916993     724.9609     943.7175     721.8746     81.96013     163.7901     327.5477      1.485     4.37     961.9832     57.72412     101.6569         6     1.116     0.487  83.54   0
       229    517.4065    712.0316 307.7063214  +6.3979300     943.7465     1040.578     1040.571     81.43808     163.5947     327.2545      1.357     4.60      957.331     57.72412     128.6703         9     1.012     0.704  59.30   0
       230    290.8161    712.3628 307.8004195  +6.3901902     652.9971     1040.939     1079.685     81.82993     163.5947      327.222      1.805     3.95     962.9397     57.72412     102.6209         6     1.042     0.430  13.15   0
       231    263.2242    706.1093 307.8120902  +6.3918452     6729.106     9642.689     10182.95      82.2199     163.5947     327.3197      1.555     3.04     963.3518     57.72412     988.8931        32     1.339     1.063  48.22   0
       232    670.1464    705.2772 307.6431099  +6.4058343     7935.569     10713.05     11479.12     82.21991     163.7901     327.5151      1.427     2.90     953.9839     57.72412     1242.606        27     1.235     0.949  62.63   0
       233    652.7917    706.2088 307.6502867  +6.4048687     948.0395     1366.503     994.4714     81.43808     163.5947     327.3523      1.451     3.47     954.0912     57.72412     150.2031         8     0.793     0.699  42.33   0
       234    365.4825    704.8904 307.7696610  +6.3957827     759.5573     993.8703     658.5813     81.82993     164.0503     327.5802      1.499     4.34      961.344     57.72412     120.1768         7     1.209     0.444  64.37   0
       235    929.8517    697.9363 307.5354874  +6.4175452     1515.257     2042.906      2158.57     82.09012      163.725       327.45      1.368     3.08     946.7761     57.72412     306.3065        11     0.956     0.809  80.25   0
       236    741.9020    693.8079 307.6136921  +6.4129704     4171.573     6050.869     6494.913     81.82993      163.399     327.2545      1.496     3.08     951.2579     57.72412     623.2044        25     1.346     0.926  63.37   0
       237    697.0231    694.2964 307.6323162  +6.4112675     1204.823     1734.642      1349.56     82.09012     163.5295     327.3197      1.384     3.11     952.6116     57.72412     194.1119        10     0.992     0.629  63.65   0
       238      7.3173    692.2919 307.9188392  +6.3889404     725.5306     1028.313     569.2828     81.82993     164.1153     322.0323      1.242     3.95     966.5364     57.72412     142.9719         7     1.083     0.431  58.17  16
       239   1008.2167    690.3722 307.5031913  +6.4232832     10719.31      13831.7     14174.81     81.69952     163.5295     327.3849      1.342     2.74     945.4792     57.72412     1890.655        25     1.216     0.847  54.73   0
       240    946.6327    690.7696 307.5287578  +6.4210645     2897.504     3446.001     1969.859     81.56891     163.5295     327.1894      1.330     2.86     946.3657     57.72412     497.2957        17     1.166     0.775  57.04   0
       241     27.3763    689.9888 307.9105865  +6.3905670     2118.054     3228.456     3918.971     81.69952     163.5947     327.4174      1.715     5.50     966.3107     57.72412     304.3462        24     1.755     0.984  26.15   0
       242    560.7284    688.6091 307.6891173  +6.4090527     694.4247     954.7409     911.6543     81.56891     163.3338     327.3197      1.293     3.18     955.4155     57.72412     119.8525         7     0.831     0.651 -69.46   0
       243    443.9084    688.2678 307.7376490  +6.4052775     648.2386     831.7053     400.8197     82.09012     163.9203     327.4825      1.367     4.60      958.869     57.72412     98.82104         6     0.950     0.633  16.41   0
       244     85.6686    685.1610 307.8865406  +6.3945230     27701.35     39837.36     41463.57     81.96013     163.7901     327.6128      1.510     3.05     965.7177     57.72412     4103.481        46     1.408     1.113  54.98   0
       245    546.7749    686.1627 307.6949953  +6.4095953     2185.897     2801.989     2814.047     81.69952     163.5947     327.2545      1.368     2.79     955.9592     57.72412     321.0548        14     0.976     0.838  73.54   0
       246    515.6214    683.3309 307.7080301  +6.4097204     1382.876     1618.266     1782.699     81.69952      163.725     327.4174      1.323     3.46     956.5975     57.72412      189.583        14     1.063     0.888  23.61   0
       247    936.7953    682.4085 307.5331245  +6.4241885     1209.841     1526.568     1156.943     81.43808     163.5295     327.3197      1.264     3.24       946.31     57.72412     188.8381         9     1.003     0.619  33.05   0
       248    555.9449    679.7388 307.6914030  +6.4125549      1198.01     1616.436     1670.232     82.21991     163.7901       327.45      1.490     3.18     955.4173     57.72412     201.5997        11     1.006     0.712  73.30   0
       249    731.5437    677.4505 307.6185446  +6.4193779     3950.895     5131.968     5131.722     82.09012     163.7901     327.4825      1.385     2.77     951.1122     57.72412     574.8328        22     1.175     0.927  62.23   0
       250    753.6597    675.7797 307.6094147  +6.4208074       4594.6      6067.51     6313.869     81.69952     163.6599     327.3523      1.369     2.86     950.6734     57.72412     712.7927        21     1.203     0.878  54.64   0
       251    585.0718    673.5440 307.6795138  +6.4160884     3497.413     4916.886     4864.073     81.96013      163.725       327.45      1.496     3.09     953.8048     57.72412     494.8535        22     1.190     0.945  67.00   0
       252    421.3452    674.1617 307.7474962  +6.4103449     1450.782     2010.029     2083.954     82.09012     163.8552     327.4825      1.492     4.52     959.1851     57.72412     176.9951        12     1.008     0.836  26.26   0
       253    245.7611    673.3303 307.8204507  +6.4047923     1858.914     2717.098     2853.227     81.96013     163.7901     327.5477      1.608     4.19     962.9099     57.72412     270.2604        20     1.310     1.019  45.25   0
       254    329.2209    672.4401 307.7858171  +6.4079636      1574.63     2375.393       2272.5     81.69952     163.5947     327.2545      1.577     3.89     961.4121     57.72412     227.8406        15     1.223     0.903  68.63   0
       255    991.9029    670.6682 307.5106285  +6.4308749     9765.028     12564.25     12868.54     82.09012     163.8552       327.45      1.348     2.83     945.3834     57.72412     1636.428        28     1.234     0.898  57.49   0
       256    545.7549    671.4118 307.6959159  +6.4156516     593.7361     937.4955       815.71     81.56891     163.5947     327.1894      1.370     2.55     955.6616     57.72412     121.3648         5     0.723     0.434 -23.63   0
       257    711.4766    669.2648 307.6271550  +6.4220866       1127.4     1463.415     1290.625     82.21991     163.7901     327.4825      1.506     3.80     951.3432     57.72412     157.4117        12     1.051     0.797  54.68   0
       258    103.5127    667.4267 307.8797298  +6.4024457     920.0812      1468.94     2033.901     82.21991     163.5295     327.3849      1.860     5.03     965.1437     57.72412     132.8129        10     1.070     0.846  46.60   0
       259    150.3774    664.0735 307.8603792  +6.4054071     25631.88     37259.61     38027.79     81.69952     163.5947       327.45      1.535     3.19     963.9438     57.72412      3477.35        46     1.424     1.098  60.58   0
       260    437.2071    664.8695 307.7412216  +6.4147137     3076.909     4630.687     4763.228     81.56891      163.399     327.3849      1.572     3.40     958.2803     57.72412     394.2468        22     1.162     1.129  31.41   0
       261    818.4531    664.6311 307.5828767  +6.4275765     1410.284     1673.406     1582.984     81.96013     163.8552     327.3849      1.229     2.78      949.112     57.72412     204.0527        12     0.978     0.748  59.36   0
       262    369.8775    658.6367 307.7693968  +6.4150279     837.2426      1440.29     790.8154     81.96013     163.8552     327.4825      1.729     3.98     960.2253     57.72412     135.8868        10     1.043     0.822 -73.13   0
       263    986.8962    653.7012 307.5132774  +6.4377136     8024.616        11052     11574.13     82.09012     164.3101     327.3197      1.451     3.13     944.3248     57.72412     1339.776        35     1.519     0.981  42.53   0
       264     31.6466    652.7842 307.9100730  +6.4060717     1145.758     1699.278     1623.205     81.56891     163.6599      327.222      1.524     3.85     965.8612     57.72412     156.5213        12     1.163     0.689  66.26   0
       265    580.3815    648.9350 307.6822909  +6.4260923      52503.5     74589.31     77732.08     81.69952     163.7901     327.3197      1.505     3.01     953.3912     57.72412     7404.317        63     1.430     1.136  54.44   0
       266    944.4091    650.3691 307.5310373  +6.4376717     822.4045     919.5841      951.152     81.56891     163.5947     327.2871      1.269     4.57      945.103     57.72412     136.3901         7     0.849     0.699  37.71   0
       267    223.7635    650.0192 307.8303749  +6.4136777     722.9166     1072.559      1285.08     81.56891     163.5947     327.2545      1.311     3.45     962.4219     57.72412     122.0787         7     0.742     0.652  82.52   0
       268    804.7389    648.6068 307.5891117  +6.4337347      695.393       851.47      817.387     81.43809     163.5947      327.222      1.448     4.32     948.9102     57.72412     95.03778         7     0.995     0.536  62.64   0
       269    539.3458    648.6931 307.6993435  +6.4248173     787.0229     1037.635     1433.385     81.96013      163.725     327.6453      1.466     4.83     954.7294     57.72412     123.1565         8     0.958     0.690  87.58   0
       270    187.9543    645.5633 307.8453984  +6.4143134     2902.158     4164.959      3774.72     81.82993     163.7901     327.4174      1.548     3.26     962.9366     57.72412      409.409        21     1.174     1.073  53.73   0
       271    510.7626    645.5942 307.7113202  +6.4251388      767.879     1314.512     1441.068      81.1758     163.5295      327.222      1.722     4.44     955.3758     57.72412      108.535         6     0.933     0.602 -71.02   0
       272    991.2451    645.3962 307.5117496  +6.4412879     593.7807     778.2856     1158.806     81.43809     163.4643     327.1568      1.544     3.50     943.6243     57.72412     96.17108         5     0.808     0.437  18.88   0
       273     80.6910    639.8562 307.8901414  +6.4130608     1386.493     2181.561     2053.073     81.96013     163.6599     327.6128      1.635     3.75     964.6832     57.72412      191.076        15     1.217     0.861  65.33   0
       274    477.6506    632.6892 307.7255086  +6.4293570     66468.26      95479.8     99557.85     82.09012     163.5947     327.6128      1.565     3.08     955.9619     57.72412     8894.326        68     1.452     1.194  55.56   0
       275     21.2807    634.3481 307.9150026  +6.4133344     1964.407     2861.095     2896.396     82.09012     163.7901     327.4825      1.569     3.43     966.0145     57.72412     276.4517        16     1.163     0.841  71.93   0
       276    663.5085    629.9441 307.6484023  +6.4367169     894.7958     1304.587      1473.74     81.96013     163.6599     327.6128      1.591     4.93     950.8911     57.72412     136.4856         9     1.018     0.703 -60.71   0
       277    152.1339    627.7472 307.8608785  +6.4204646     1891.692     2521.714     1655.107     82.09012      163.725     327.4174      1.479     3.48     963.3339     57.72412     270.0259        15     1.131     0.834  67.20   0
       278    431.3883    625.4772 307.7449672  +6.4307832     1049.945     1603.626     1470.061     81.69952      163.399     327.3197      1.661     4.71     957.0251     57.72412     134.3029        14     1.187     0.849  33.61   0
       279    947.3486    625.2585 307.5306591  +6.4481381     810.0488     606.4015     175.6885     82.09012     163.7901     327.4825      1.183     3.00     943.9732     57.72412     131.3564         7     0.829     0.621  21.90   0
       280    623.7037    624.3499 307.6651243  +6.4376942     1030.782     1520.999       996.78     81.96013      163.725     327.6453      1.469     5.51     951.8593     57.72412     126.1641        11     1.155     0.758  63.14   0
       281    323.1036    622.1573 307.7900559  +6.4285193     2304.805     3521.929     3730.253     82.09012      163.725     327.6453      1.614     3.65     959.5792     57.72412     306.9548        21     1.237     1.022  81.33   0
       282     23.9560    623.4336 307.9142612  +6.4179308     785.4559     1031.448     1630.303     81.69952     163.7901     327.3523      1.375     2.93     965.9089     57.72412     119.5708         8     0.795     0.683  86.23   0
       283    475.1698    620.8705 307.7269375  +6.4341537     941.5798      1651.31     2658.521     81.96013     163.7901       327.45      2.568     4.46     955.7092     57.72412     141.9482        11     1.275     0.620  77.46   0
       284     31.3708    621.6605 307.9112416  +6.4189126     599.9966     1000.969     884.3555     81.82993     163.7901       327.45      1.571     3.76     965.6912     57.72412     96.15503         5     0.983     0.413 -15.02   0
       285    749.6820    616.3452 307.6130656  +6.4452148     5946.132     8077.493     7949.468     82.09012     163.7901     327.5151      1.436     2.99      949.457     57.72412     873.4036        26     1.275     0.946  50.92   0
       286    803.2214    611.5229 307.5909885  +6.4489959     16040.59      21313.5     22095.25     81.69952     163.5947     327.4174      1.428     2.84     947.7819     57.72412     2452.528        34     1.291     0.978  52.82   0
       287    545.9580    611.7328 307.6978426  +6.4402995     1234.832     1971.901      2715.26     82.09012      163.725     327.5477      1.906     6.38     952.6333     57.72412     177.8083        14     1.382     0.826  42.13   0
       288   1020.4832    612.0016 307.5007247  +6.4560519     1136.453     1405.521     1099.388     81.30704     163.3338     293.6655      1.327     3.25     940.0275     57.72412     184.3128        11     0.972     0.774  45.01  16
       289     48.3488    611.0466 307.9045495  +6.4238667     750.2471     954.7185     954.6705      82.2199     163.6599     327.5477      1.447     4.64     965.0158     57.72412     104.4186         8     1.093     0.558  64.71   0
       290    627.1305    609.6061 307.6641974  +6.4438966     3121.943     4360.267     3964.604     81.56891      163.399     327.3197      1.489     3.26     951.5793     57.72412     438.5206        20     1.246     0.879  75.32   0
       291    944.1370    605.5568 307.5326544  +6.4561658     1348.944     1803.922     2113.719     82.09012      163.725     327.5477      1.347     3.18      943.313     57.72412     249.5029        11     1.086     0.622  60.15   0
       292    239.4887    603.0766 307.8254302  +6.4335881     1365.861     2400.415     3122.808     82.09012     164.1153     327.5477      2.018     4.48      960.105     57.72412      201.382        15     1.405     0.854  54.48   0
       293    203.1874    604.4186 307.8404627  +6.4318136     622.4042     845.9922     807.4306     81.82993     163.4643     327.3849      1.449     3.93     961.2108     57.72412     93.70911         5     0.821     0.686 -68.07   0
       294    385.4659    603.1161 307.7647961  +6.4384749     1111.106     1699.188     1203.092      82.2199     164.0503     327.5477      1.695     4.31     957.5345     57.72412     165.1653        10     1.129     0.633  21.70   0
       295    879.2401    594.7801 307.5599739  +6.4584488     3347.652      4155.82     4399.113     81.69952     163.5947      327.222      1.325     2.72     945.4464     57.72412     548.8875        16     1.091     0.803  65.30   0
       296    174.1441    594.5013 307.8528612  +6.4349316     828.6553     1218.157     2109.332     81.82993     163.7901     327.7104      1.689     4.72     961.9965     57.72412     93.82697         8     0.904     0.700 -56.94   0
       297    838.1115    592.2401 307.5771437  +6.4581237     2813.249     3687.218      3873.84     82.09012      163.725     327.5151      1.372     2.90     946.4908     57.72412      466.017        19     1.201     0.832  59.03   0
       298    266.0992    587.1594 307.8149154  +6.4410544     7862.652     11672.43     11725.17     82.09012     163.6599     327.7104      1.573     3.18     959.3561     57.72412      1147.95        36     1.448     1.089  60.10   0
       299    808.9607    588.2036 307.5893883  +6.4588163     2662.092     3961.869     4987.342      81.1758     163.5295      327.222      1.611     3.21     947.0674     57.72412     402.3203        19     1.170     0.888  56.71   0
       300    751.5309    588.5491 307.6132324  +6.4567536     780.4053     931.9726     1417.795     81.96013     163.6599     327.4825      1.336     3.32        948.4     57.72412     125.7776         8     0.802     0.799  50.68   0
       301    818.6107    583.4051 307.5855410  +6.4611201     178855.8     241357.4       249722     81.69952     163.5295     327.3849      1.433     2.80      946.681     57.72412     26304.84       102     1.446     1.146  60.41   0
       302    200.2574    581.6701 307.8424489  +6.4411076     61031.59     91004.32     95627.88     82.21991     163.7901       327.45      1.625     3.19     960.7163     57.72412     8352.368        70     1.501     1.230  60.47   0
       303    124.2222    577.9290 307.8741570  +6.4400944     6445.734     9651.793     9632.022     81.69952     163.5947     327.4825      1.574     3.30     962.2933     57.72412     866.6991        30     1.357     1.069  60.11   0
       304    989.5568    575.2639 307.5148038  +6.4701895     1612.349     2067.556     1790.403     82.09012      163.725     327.5151      1.365     2.90     940.3382     57.72412     243.0949        14     1.046     0.808  54.56   0
       305    239.2030    574.0693 307.8265294  +6.4455551     819.7489     1271.462     1808.858     81.43808      163.399     327.2871      1.769     5.64     959.5538     57.72412     132.6329        11     1.184     0.820  50.97   0
       306   1010.3253    573.9067 307.5062220  +6.4714426     863.0758     1046.942      787.082     82.09012     163.9203       327.45      1.293     3.26     939.6028     57.72412     154.7771         8     1.031     0.673  61.04   0
       307    855.1482    570.6896 307.5707908  +6.4675911     5127.033     6729.378     6532.386     82.09012     163.5947     327.6128      1.383     2.84     945.2465     57.72412     805.8333        22     1.199     0.911  63.51   0
       308    373.6345    568.8286 307.7708679  +6.4522347     17272.61     25881.39     26735.62     81.56891     163.5295     327.2545      1.614     3.29     956.3859     57.72412     2232.671        40     1.418     1.130  56.09   0
       309    464.1406    569.2099 307.7332610  +6.4551140     627.5076     978.5895     1597.947     81.43808     163.6599     327.1894      1.825     5.12     953.6285     57.72412     113.1476         9     1.346     0.550  67.20   0
       310    175.4588    567.6241 307.8532242  +6.4460729     2059.204     3149.438     4638.878     81.69952     163.7901     327.3197      1.708     3.58     961.0054     57.72412     290.7205        15     1.090     0.882  38.24   0
       311    539.9617    563.6828 307.7019526  +6.4599381     6759.406     9882.893     9981.306     82.09012      163.725       327.45      1.540     3.11     951.8912     57.72412     941.8341        30     1.340     1.046  54.93   0
       312    250.4401    565.5496 307.8221499  +6.4494505      845.192     1233.141     1193.617     82.09012     163.7901     327.4174      1.683     5.59     959.2363     57.72412     107.4692         8     1.240     0.710  34.24   0
       313    809.1141    564.0068 307.5901379  +6.4688122      6422.73     8615.602     8774.362     81.56891     163.4643      327.222      1.400     3.04     946.4786     57.72412     1012.307        23     1.198     0.897  59.67   0
       314    113.0794    564.8561 307.8792276  +6.4451170     885.5942     1496.594     1535.923     82.21991     163.7901     327.4825      1.701     3.44     962.1531     57.72412     115.3568         8     0.801     0.697  50.43   0
       315    398.3717    560.4173 307.7608766  +6.4565379     1439.701      2078.51      2142.78     81.69952     163.5295     327.3849      1.552     3.64     954.6746     57.72412      226.603        15     1.239     0.827  60.71   0
       316    187.0311    556.9277 307.8487793  +6.4508785     6918.972     10702.83     12100.28     81.96013     163.7901     327.4825      1.664     3.29     960.3319     57.72412     968.0151        37     1.407     1.234  55.38   0
       317    584.7130    556.8021 307.6835953  +6.4642785     2471.671     3784.226     3498.432     81.43808      163.399     327.1894      1.615     3.70     950.4772     57.72412     327.7831        19     1.201     1.003 -50.66   0
       318    867.7144    556.8310 307.5660364  +6.4737331     571.5221     733.9073     686.0099     82.09012     163.5947     327.3523      1.163     4.28      944.202     57.72412      98.1355         5     0.847     0.615  55.86   0
       319    825.4999    556.0319 307.5835992  +6.4726527     1609.774     2312.876     1818.557     82.09012     163.6599     327.6453      1.431     3.82     945.7112     57.72412     234.9662        13     1.239     0.687  54.38   0
       320    282.2589    553.3218 307.8093466  +6.4555684     88032.26     132722.6     138512.2     82.21991     163.7901     327.4174      1.635     3.38     958.5466     57.72412     11217.97        80     1.532     1.253  61.28   0
       321     58.6441    555.5096 307.9021541  +6.4471433     5273.894     7904.362     8159.943     82.09012      163.725     327.5802      1.621     3.23       963.59     57.72412      738.938        30     1.378     1.063  54.90   0
       322    571.7233    550.6673 307.6891978  +6.4663764     991.9382      1459.43     1689.591     82.21991     163.8552       327.45      1.674     4.17     950.6917     57.72412     134.4886         9     0.987     0.680  82.51   0
       323    266.0244    548.2317 307.8162619  +6.4571245     1484.736     2249.395     2437.977     81.56891     163.6599     327.2871      1.573     3.74      958.687     57.72412      222.335        13     1.075     0.870  37.20   0
       324    981.5616    547.0257 307.5190726  +6.4815823     1882.919     2593.606     2762.014     81.69952     163.5947     327.3197      1.335     3.59     939.8162     57.72412     306.6426        14     1.251     0.652  56.80   0
       325    805.3366    545.8035 307.5923189  +6.4762021     18035.03     24612.89     25220.92     81.43808     163.5295     327.2545      1.430     2.87     946.1936     57.72412      2810.95        38     1.312     1.008  52.91   0
       326    508.9920    544.1846 307.7154743  +6.4669507     41363.25     66565.39     70615.89     81.69952     163.5295     327.3197      1.712     3.51      951.907     57.72412     5339.739        75     1.613     1.360  38.62   0
       327    659.2590    542.5298 307.6531100  +6.4726677       1038.3     1364.429     1393.865     82.21991     163.7901     327.4825      1.399     3.61     948.2539     57.72412     152.7106         9     0.877     0.764  33.83   0
       328    221.3251    540.4113 307.8350931  +6.4588510     1836.037     2636.411      2631.87     81.69952     163.4643     327.2871      1.565     3.48     959.1782     57.72412     257.7642        17     1.177     0.910  79.90   0
       329     56.9771    540.7930 307.9033448  +6.4531633     1223.036     1974.721     2152.636     81.56891     163.5947     327.2871      1.609     3.66     963.4391     57.72412     227.1237        13     1.188     0.710  60.70   0
       330    668.9557    539.2104 307.6491937  +6.4743628     3010.626     4384.812     4325.005     81.56891     163.6599     327.1894      1.517     3.27     947.9349     57.72412     416.7869        22     1.258     0.953  50.80   0
       331    107.5903    540.4175 307.8823348  +6.4550224     807.1853     1210.233     814.8867     81.82993     163.5295     327.3523      1.626     4.83     961.7923     57.72412      116.425        11     0.970     0.933 -46.82   0
       332    731.0164    538.1649 307.6234487  +6.4768710     1362.513      2383.28     2380.609     81.69952     163.5295     327.2871      1.945     4.07     946.5448     57.72412     230.8455        15     1.280     0.882  50.27   0
       333    679.0988    539.1259 307.6449831  +6.4747372     1418.844     2199.859     2075.267     81.56891     163.9203       327.45      1.583     3.89     947.7285     57.72412     193.4099        14     1.198     0.763  63.19   0
       334    406.5927    534.9938 307.7583198  +6.4673108     1736.662     2559.541     2597.675     81.43808     163.5947     327.3197      1.493     3.63     953.0357     57.72412     227.2281        15     1.165     0.846  57.97   0
       335     87.2003    535.5869 307.8909675  +6.4563305     728.4553     1476.193     1626.201     81.69952     163.4643     327.2871      2.059     5.37     962.4028     57.72412     123.4863        11     1.613     0.505  33.26   0
       336    153.3338    531.6631 307.8636306  +6.4601762     26560.84     39433.17     41012.82     82.09012     163.7901     327.4825      1.618     3.18     960.4623     57.72412     3496.568        49     1.482     1.146  63.56   0
       337    338.2149    533.0368 307.7867889  +6.4658234     3900.898     5935.071     6093.966     81.69952     163.5947     327.2545      1.592     3.62     956.2073     57.72412     501.9723        26     1.312     1.055  47.00   0
       338    881.2258    531.9016 307.5612611  +6.4844777     1769.003     2367.192     1924.975      82.2199     163.5295     327.3849      1.370     2.84     942.5812     57.72412     295.4188        13     0.997     0.802  62.15   0
       339    518.0699    532.3073 307.7121038  +6.4721590     2141.742     2909.924     3403.554     82.09012     163.9203     327.4825      1.499     3.23     951.1404     57.72412     326.7488        15     1.141     0.838  69.19   0
       340    118.3821    529.7838 307.8782121  +6.4597761     2613.288     3812.897     4048.519     81.82993     163.4643     327.4174      1.599     4.00     961.4283     57.72412     356.6437        26     1.485     1.086  69.88   0
       341    978.8611    526.3824 307.5208872  +6.4900159     5923.732     7599.693     7715.338     81.69952      163.725     327.2871      1.317     3.02     938.9686     57.72412     930.8418        23     1.203     0.850  57.99   0
       342    355.5558    528.3087 307.7797455  +6.4683579     979.2901     1452.016     1392.418     82.09012      163.725     327.6128      1.688     3.82     955.3043     57.72412     157.2352         8     1.080     0.667  65.26   0
       343    552.1306    518.7243 307.6984129  +6.4789089     1571.257     2133.453     2201.981     82.21991     163.9203     327.4825      1.537     3.75     949.8491     57.72412     229.7842        13     1.120     0.788  64.20   0
       344     17.6450    516.0347 307.9205205  +6.4620606     25920.54     38692.21     40540.63     81.69952      163.725     327.3523      1.563     3.06     964.7514     57.72412      3882.02        51     1.467     1.165  58.30   0
       345    450.3524    512.8225 307.7408905  +6.4779334     42721.85      64220.9     66957.55     81.69952     163.7901     327.3523      1.621     3.26     951.3919     57.72412     5393.668        63     1.506     1.217  56.71   0
       346    658.3972    512.5145 307.6544784  +6.4850320     12999.41     18415.69     19155.78     81.43809      163.399     327.1894      1.535     2.99     947.2543     57.72412      1808.64        39     1.365     1.077  58.96   0
       347      1.5421    510.5832 307.9273938  +6.4637688     95682.99     116214.7     120028.4     73.45267     133.2815     249.7954      1.133     2.86     965.3246     57.72412     22388.28        56     1.398     0.827  88.28  24
       348    298.4045    512.9193 307.8040051  +6.4727925     999.0302     1466.442     1465.827     81.69952     163.3338      327.222      1.461     4.82      956.129     57.72412     156.6572         9     1.031     0.640  33.70   0
       349    215.5085    510.3963 307.8385241  +6.4710481      19106.2     30036.36     31350.05     81.69952     163.4643     327.2545      1.727     3.55     958.7139     57.72412     2468.709        48     1.568     1.171  51.47   0
       350    181.3804    511.5359 307.8526617  +6.4694298     1648.624      2539.49     2103.092     81.69952     163.7901     327.3197      1.639     4.09      959.468     57.72412     232.8577        14     1.231     0.734  51.43   0
       351    992.1359    510.8797 307.5158927  +6.4968599     1248.539     1399.117     1739.445     82.34949     163.8552       327.45      1.218     2.25     937.7805     57.72412     257.3188         8     0.797     0.617  53.17   0
       352    920.6461    510.4303 307.5456063  +6.4946596     774.6498     1013.382     1245.181     81.56891     163.8552     327.3523      1.445     3.86     940.4499     57.72412     133.6243         6     1.008     0.424  55.95   0
       353    832.1900    510.3796 307.5823544  +6.4917261      1202.69     1553.096     1353.281     81.69952     163.4643     327.3197      1.309     3.12     943.2682     57.72412     179.6445        11     1.005     0.682  73.32   0
       354    580.1831    509.2732 307.6870783  +6.4837511     2965.808     4078.081     4480.228     81.56891     163.6599     327.3849      1.497     3.16     948.7812     57.72412      443.789        21     1.169     1.009  82.29   0
       355    953.9648    506.4482 307.5318987  +6.4974160     5373.803      6977.14      7259.58     81.82993     163.7901     327.4174      1.371     2.91     939.0825     57.72412     840.7853        22     1.198     0.856  57.46   0
       356    627.1574    504.9160 307.6677116  +6.4871235     6852.536     9729.844      9888.13     82.09012      163.725     327.4174      1.498     3.26      947.702     57.72412     876.5987        29     1.305     1.024  55.46   0
       357    114.9796    505.4411 307.8804493  +6.4697121     1296.734     1978.592     1984.912     81.69952     163.5947     327.2871      1.653     3.38     961.2842     57.72412     193.4977        14     1.021     0.920 -54.81   0
       358    976.5541    498.7385 307.5227733  +6.5013532     3652.806     4910.558     4806.801     81.96013     163.6599     327.5151      1.380     2.83     937.8278     57.72412     576.1736        17     1.114     0.809  62.08   0
       359    539.3422    496.1593 307.7044858  +6.4877973     7645.474     11205.37     11522.79     82.09012     163.7901     327.5477      1.561     3.29     948.8231     57.72412     1016.393        34     1.349     1.106  60.74   0
       360    415.2024    497.8929 307.7559954  +6.4829183     755.4791     844.2948     1175.444     81.69952     163.4643     327.1894      1.319     4.53     951.8895     57.72412     92.00647         8     0.852     0.684  53.64   0
       361    385.3906    496.2730 307.7684339  +6.4825866     2740.077     4295.273     4529.748     81.56891      163.399     327.3197      1.691     3.47      952.564     57.72412     365.4183        26     1.326     1.093  73.56   0
       362    755.4771    497.1308 307.6146678  +6.4946320     577.8545     873.6285      784.791      82.2199     163.9203       327.45      1.641     3.80     944.7852     57.72412     96.02203         5     0.821     0.687 -34.47   0
       363    109.1512    496.2393 307.8831817  +6.4733151     575.5829          581     742.2945     81.96013     163.7901     327.3523      1.071     4.14     961.4117     57.72412     112.5092         6     0.757     0.645 -68.82   0
       364    895.7647    491.9868 307.5565620  +6.5014441       3577.2     4714.196     5230.548     81.56891     163.5947     327.3197      1.357     2.82     940.5603     57.72412     566.8833        20     1.139     0.866  57.90   0
       365    549.2242    492.2253 307.7005133  +6.4897528     673.4984     928.1523     895.8751     81.56891     163.5947     327.4174      1.557     5.87     948.4445     57.72412     77.15259        10     1.067     0.909  41.50   0
       366    244.0106    491.6951 307.8273170  +6.4797277     595.1838     840.7856      426.819     81.69952      163.399     327.2545      1.340     2.86     957.2844     57.72412     126.1188         5     0.792     0.492  59.21   0
       367    942.6654    485.7453 307.5372877  +6.5055871      1252.56      1421.75     1302.991     82.09012      163.725       327.45      1.143     3.28     938.9204     57.72412     240.1974         8     1.021     0.536  66.04   0
       368    903.1777    486.3505 307.5536718  +6.5040189     2456.781      3179.63     3424.397     81.69952     163.8552     327.3849      1.373     3.10     940.1873     57.72412     391.6925        13     1.010     0.757  46.79   0
       369    122.3581    485.3262 307.8780652  +6.4782654     699.0006     1280.793      1547.51     81.96013     163.8552     327.5151      1.839     4.94     960.8404     57.72412     99.62488         7     1.077     0.640  46.38   0
       370    727.2305    482.2953 307.6269011  +6.4998128     3030.904     4210.631     4393.305     82.21991     163.5295     327.5477      1.489     3.26     944.9941     57.72412     419.0591        21     1.216     0.962  66.57   0
       371     89.0281    481.4049 307.8920427  +6.4787625      1880.76     2628.795     2783.075     81.56891     163.5947     327.2871      1.510     3.67     962.0499     57.72412     272.2206        17     1.198     0.947  48.60   0
       372    398.0689    480.4126 307.7637027  +6.4895607      3670.97     5628.922     6019.013     81.56891     163.5947     327.3523      1.616     3.35      951.712     57.72412     497.5259        26     1.289     1.093  65.31   0
       373    438.6426    480.5068 307.7468450  +6.4908833     936.0692     1387.536     2116.561     82.09012     163.7901     327.6128      1.623     4.88     950.7001     57.72412     134.5184         8     0.858     0.786  70.58   0
       374    625.8522    477.1208 307.6691898  +6.4985563     10372.03     15002.46     15899.04     82.09012     163.7901     327.4825      1.525     3.07     946.7104     57.72412     1471.505        33     1.325     1.090  57.81   0
       375    788.5571    473.7206 307.6017129  +6.5054041     18236.24     24993.21     25953.54     82.09012     163.7901       327.45      1.461     2.85      942.799     57.72412     2544.403        41     1.319     1.084  52.69   2
       376    792.6121    468.8614 307.6001917  +6.5075460     1639.245     2022.428      2385.63     81.56891     163.5947      327.222      1.406     3.24     942.5074     57.72412     225.0278        12     1.024     0.789  58.27   3
       377    431.5718    473.8537 307.7500067  +6.4933931     566.3087     938.6219     1339.269     81.82993     163.8552     327.3849      2.084     6.66     950.5682     57.72412     81.77563         8     1.267     1.079 -72.32   0
       378    308.3298    473.9397 307.8011991  +6.4892200      2623.49     3843.485     3598.202     82.21991     163.7901     327.5151      1.554     3.49     953.4181     57.72412     342.3172        21     1.211     1.009  58.00   0
       379    391.3238    470.4480 307.7668410  +6.4934486     1719.175     2457.115     3187.253     81.96013     163.8552       327.45      1.868     4.12     951.2194     57.72412     225.4213        17     1.294     0.914  59.28   0
       380    817.6635    470.9504 307.5897144  +6.5075209     1445.418     2052.126     1960.813     81.96013      163.725     327.5477      1.438     3.17      941.821     57.72412     232.7202        11     1.072     0.642  26.60   0
       381    973.5339    468.4922 307.5250431  +6.5137411     2520.953     3344.045     2733.791     81.96013     163.9853     327.4825      1.344     2.81     936.4708     57.72412     394.7671        15     1.100     0.772  58.47   0
       382    125.9354    465.5690 307.8772480  +6.4865432     4641.553     6872.284     7132.265     81.82993     163.8552     327.4174      1.589     3.26     960.2562     57.72412     609.6097        29     1.353     1.064  49.06   0
       383    764.2736    464.7986 307.6121010  +6.5082761     2357.205     3394.911     3264.297     81.56891     163.2032     327.3523      1.522     4.24     943.1485     57.72412     363.9443        18     1.343     0.829  61.21   0
       384    722.0294    466.7790 307.6295838  +6.5060454     530.9614     766.1342     727.3402     81.56891     163.5947     327.3849      1.509     4.71     944.2067     57.72412     96.94275         5     1.260     0.499  73.56   0
       385    379.6311    466.4582 307.7718329  +6.4947034     751.4496     1127.511     1452.816     81.82993     163.7901     327.4174      1.572     3.11     951.1275     57.72412     128.3909         7     0.825     0.667 -72.29   0
       386    283.7515    462.7958 307.8117855  +6.4929954     1429.521     2203.784     2463.044     81.43808     163.5947     327.1242      1.543     3.81     953.6443     57.72412     215.4511        16     1.185     0.979  84.82   0
       387    361.9056    460.3476 307.7794026  +6.4966313     3168.495     4733.942     4677.032     81.96013     163.6599     327.7429      1.594     3.41     951.0121     57.72412     455.6936        25     1.382     0.995  67.10   0
       388    717.8332    458.2139 307.6316152  +6.5094416     1628.641     2355.379     2575.913     81.69952     163.5295     327.3849      1.499     3.73     943.7285     57.72412     238.7338        16     1.263     0.818  57.92   0
       389    991.6965    457.3936 307.5178701  +6.5189298     768.3834      1154.14     1568.832     81.82993     163.4643     327.2545      1.474     5.04     934.9193     57.72412     131.5403         7     1.069     0.685  65.63   0
       390    249.4757    455.6532 307.8262652  +6.4947924     832.5475     1118.775      588.297     82.09012     163.7901     327.5151      1.705     3.99     955.2301     57.72412     127.3427         9     0.932     0.768 -82.47   0
       391    559.4150    450.6652 307.6976806  +6.5072541     694.0515     948.2331     1261.478     81.56891     163.6599     327.3849      1.563     3.93     945.8592     57.72412     89.16284         6     0.944     0.469  -3.75   0
       392    481.6007    449.1866 307.7300562  +6.5052560     1434.629     2124.637     2224.961     81.69952     163.4643     327.2545      1.535     3.73     947.4517     57.72412     225.7316        13     1.138     0.815  43.56   0
       393    844.0651    448.2154 307.5795104  +6.5177904     1592.889     1925.495     2281.403     81.56891     163.6599     327.3849      1.376     3.68     940.1712     57.72412      240.545        12     1.117     0.693  63.87   0
       394    727.0101    445.4449 307.6282325  +6.5150208     15880.31     22276.01     23375.18     81.56891     163.6599     327.1894      1.486     3.09     942.8286     57.72412     2256.611        39     1.340     1.079  54.03   0
       395    648.1206    441.4217 307.6611412  +6.5140419     2662.833      3787.98     4136.696     81.69952     163.4643     327.4825      1.575     3.41     943.6384     57.72412     363.2126        20     1.199     0.971  61.16   0
       396    642.9423    440.5346 307.6633224  +6.5142348     574.0653     637.5289     821.1234      82.2199      163.725     327.5151      1.453     4.65     943.6986     57.72412     87.13477         5     1.016     0.604  77.20   0
       397    829.6315    447.3026 307.5855374  +6.5176850     2165.222     2748.654     2296.832     82.21991     163.5947     327.5802      1.383     3.30     940.6172     57.72412      301.115        16     1.177     0.780  45.60   0
       398    620.5348    436.5455 307.6727655  +6.5151315     12976.04     26244.05     30328.31     82.09012      163.725       327.45      2.258     6.34      943.644     57.72412     1891.574        68     2.448     1.182  37.32   0
       399    391.4390    431.2119 307.7681177  +6.5096525     28791.75     44094.65     45530.27     81.56891     163.5947      327.222      1.639     3.38     948.9585     57.72412     3785.102        54     1.469     1.222  59.77   0
       400    907.8208    430.7481 307.5536104  +6.5271322     1615.324      2596.63     3195.051     81.56891     163.8552     327.2871      1.879     4.19     937.5259     57.72412     238.6693        17     1.466     0.763  63.47   2
       401    137.7057    430.6779 307.8735395  +6.5013450      2372.76     3392.475      3144.97     81.82993     163.9853     327.5151      1.529     3.41     958.9307     57.72412     323.0996        20     1.247     0.985  50.16   0
       402    952.2051    435.2678 307.5350193  +6.5267478     4341.551     5629.416     5938.999     81.56891     163.4643     327.2871      1.325     2.62     935.8762     57.72412      800.429        20     1.164     0.819  58.83   0
       403    921.0847    425.6700 307.5482704  +6.5296718     5786.498     7768.065     7868.766     82.21991     164.0503     327.5151      1.394     2.95     936.9047     57.72412     928.5819        25     1.241     0.907  59.32   0
       404     71.0433    426.3390 307.9013780  +6.5008923     1470.579     2285.562     3185.836     82.09012     163.7901     327.6128      2.073     3.80     960.9711     57.72412     205.5609        13     1.132     0.804  35.65   0
       405    976.6646    423.4939 307.5252528  +6.5324255     684.1943     752.7988     425.4165     81.96013     163.8552     327.5151      1.091     3.53     933.8582     57.72412     120.5795         6     0.877     0.471  87.59   0
       406    248.9978    421.8119 307.8276078  +6.5087488     13503.94     21237.82     22094.71     81.69952     163.4643     327.2871      1.649     3.41     953.2736     57.72412     1764.624        41     1.473     1.160  54.69   0
       407    509.5727    416.7537 307.7195297  +6.5195852     1661.977     1921.945     1762.155     81.69952     163.8552     327.3849      0.782     1.00      945.064     57.72412     805.3318         5     0.573     0.518  -7.04   0
       408     85.1962    416.2290 307.8958412  +6.5055431     677.2544     949.7825      678.829     81.56891     163.5947     327.3197      1.461     3.07     960.2606     57.72412     112.7047         6     0.727     0.582  37.67   0
       409   1021.0918    415.1298 307.5070760  +6.5373612     529.3286     615.5735     995.9446     82.09012     161.1651     286.0136      1.459     3.74     931.0033     57.72412     103.0261         5     0.953     0.423  46.16  16
       410    743.6252    415.0590 307.6223522  +6.5281228     646.8339     931.2082     1166.976     81.69952     163.7901     327.3197      1.464     4.14     940.9092     57.72412      95.6684         5     0.788     0.622  -9.18   0
       411    711.5954    414.6289 307.6356733  +6.5272289     844.1704      1129.12     1009.534     81.56891     163.5947     327.2871      1.451     4.33     941.2698     57.72412     121.3994         9     0.992     0.785  47.23   0
       412    972.2766    413.9186 307.5273972  +6.5362327     1193.535     1485.353      1740.72     82.34949     164.0503     327.6128      1.311     3.22     933.6796     57.72412     202.2143         9     0.973     0.600  41.80   0
       413    149.2520    410.4964 307.8694260  +6.5100661     5169.661     7855.964     8315.355     81.96013     163.7901     327.7429      1.660     3.51     958.0548     57.72412     680.2706        29     1.341     1.118  59.77   0
       414    362.2024    411.3384 307.7809343  +6.5168765     1337.461     1984.561     2444.968     81.43808     163.5947     327.1894      1.628     3.70       948.19     57.72412     197.8922        13     1.119     0.761  72.56   0
       415    194.7009    411.4953 307.8505123  +6.5111826     828.6757     1421.782     1445.183     82.09012     164.3101     327.3197      1.814     3.70     955.7858     57.72412     130.4851        10     1.214     0.652  61.72   0
       416    254.2019    409.4381 307.8258642  +6.5140327     1372.552     2076.338     2344.604      81.1758     163.5295     327.2545      1.619     4.44     952.2975     57.72412     187.7073        13     1.035     0.913  67.33   0
       417    446.7407    408.5421 307.7459091  +6.5208684      641.874      1205.55     1555.051     82.09012      163.725     327.5151      2.122     5.10      946.266     57.72412     82.92236         8     1.102     0.668  38.05   0
       418    835.2029    406.7575 307.5845856  +6.5346122     782.6616     1091.079     1177.428     81.43808     163.3338     327.1894      1.365     3.39     938.9786     57.72412     179.4168         7     1.034     0.633  41.97   0
       419    171.3620    406.0609 307.8603914  +6.5126413     2406.794     4059.404     4131.706     82.09012     163.8552     327.4825      1.842     4.01     956.9948     57.72412     297.6324        22     1.391     0.997  75.93   0
       420    566.7160    405.0665 307.6961843  +6.5263261     925.1861      1273.93     916.0092     82.21991     164.0503     327.5477      1.503     4.72     942.8459     57.72412     140.9122         8     1.014     0.622   6.33   0
       421    394.5788    401.0408 307.7678319  +6.5222152     2001.045     3231.824     3086.104     81.69952     163.5947     327.2871      1.724     4.11     946.9381     57.72412     251.5997        23     1.372     1.090  57.45   0
       422    283.1331    401.4038 307.8141172  +6.5183223     870.1121     1068.699     868.6301     81.43808     163.4643     327.2545      1.342     3.34     950.3573     57.72412     137.3073         9     1.060     0.565  61.44   0
       423     13.3571    401.0479 307.9261976  +6.5093911     740.4223     1071.055     764.7228     82.09012      163.725     327.4174      1.655     5.42     961.8722     57.72412     109.7356         9     1.371     0.604  76.96   0
       424    983.2332    399.9919 307.5233126  +6.5423486     1150.628     1629.928     2018.703     81.56891     163.5947     327.2871      1.441     4.16     932.4856     57.72412     199.5835        11     1.192     0.659  47.90   0
       425    328.6502    398.6179 307.7953024  +6.5210018     638.5415     1087.288     1326.357     81.56891     163.8552      327.222      1.987     4.85     948.5358     57.72412     101.8536         7     1.076     0.620  71.32   0
       426    448.6017    394.6355 307.7456052  +6.5266727     7334.582     11323.59        11363      81.1758     163.5947     327.3197      1.655     3.30     945.1423     57.72412     925.4316        33     1.370     1.140  54.26   0
       427     45.0833    395.2787 307.9132139  +6.5128420     2996.319     5037.967     5581.567     82.21991     164.0503     327.6128      1.849     3.68     960.7827     57.72412     412.8209        29     1.604     1.175 -55.01   0
       428    601.9929    396.4132 307.6818204  +6.5310808     577.1052     758.8852     892.3314     81.69952     163.5947     327.3523      1.509     4.73     941.5323     57.72412     82.40796         7     1.146     0.553  29.82   0
       429    789.1852    392.0004 307.6042000  +6.5391672      14010.4     19514.82     20647.71     81.69952     163.4643     327.2545      1.460     3.02     939.5723     57.72412     2200.995        36     1.329     1.024  56.57   0
       430    781.1872    393.5339 307.6074712  +6.5382666     2194.847     2974.801     3427.836     81.56891     163.5947     327.3849      1.411     2.60     939.7188     57.72412     339.5557        14     0.927     0.857  50.60   0
       431    352.5626    390.3470 307.7856478  +6.5252198     1032.545     1591.271     1502.867     81.96013     163.7901     327.5151      1.622     3.97     947.1735     57.72412     153.4144         9     0.955     0.715 -72.11   0
       432    964.1324    383.6346 307.5317974  +6.5484652     691.8098     953.6451     1202.931     81.96013     163.8552     327.5802      1.298     3.22     932.7871     57.72412     144.1041         7     1.006     0.489  68.95   0
       433    197.9487    382.8491 307.8501320  +6.5231193     768.8251     1138.406     1133.932     82.21991     163.6599     327.4174      1.601     5.87      954.374     57.72412     116.8961         9     1.380     0.703  53.28   0
       434      3.2601    381.4579 307.9310558  +6.5171391     1068.657     2295.496     3289.302     82.21991     155.5084     277.0758      2.695     6.03     961.6267     57.72412     144.9961        16     1.393     1.079 -17.15  24
       435    496.7099    378.2133 307.7261731  +6.5350668     3111.204     4541.692     5048.077     81.82993     163.5295     327.3197      1.613     3.59     942.7894     57.72412     410.7512        22     1.293     0.966  52.88   0
       436    468.8641    378.6140 307.7377280  +6.5339675     2214.106     3364.695      3146.25     81.56891     163.5947     327.3523      1.597     3.54     943.4308     57.72412     296.7899        16     1.044     0.979  77.28   0
       437    925.4758    378.2360 307.5480392  +6.5494039     937.0127     955.6672     781.7352     81.96013     163.8552     327.5151      1.151     3.29      934.446     57.72412     156.0367         7     0.886     0.533  41.64   0
       438    854.5513    374.9032 307.5776178  +6.5484112     35898.96      51485.9     52974.21     81.96013      163.725     327.6453      1.538     3.02     937.1653     57.72412     5161.709        49     1.449     1.079  67.22   0
       439    999.7770    374.7993 307.5172848  +6.5533027     610.8185     379.6072     16.21595     81.69952     163.4643     327.2545      1.122     4.32     930.5947     57.72412     86.05762         7     1.149     0.463  59.36   0
       440     72.3976    371.4625 307.9026739  +6.5235951     626.7189     1046.989     501.5762     81.43809     163.6599      327.222      1.651     3.94     959.2867     57.72412     113.0503         6     0.915     0.486 -86.00   0
       441    346.5004    370.4390 307.7888387  +6.5332359     852.8489     1187.191     1212.618     82.09012     163.6599     327.7104      1.664     3.70     946.3567     57.72412     130.9539         6     0.876     0.746  10.39   0
       442    966.3448    369.0188 307.5313689  +6.5545739     584.4041     1062.397     1106.408     81.56891     163.7901     327.2871      1.951     4.29     932.0215     57.72412     94.25964         5     0.834     0.630   2.37   0
       443    626.4073    367.3251 307.6726574  +6.5439088     2775.153     4288.237      4272.61     81.69952     163.3338     327.3523      1.654     3.61     940.0797     57.72412     397.8788        25     1.431     1.012  58.43   0
       444     34.4670    367.5727 307.9185627  +6.5239234     1212.167     1683.483     1981.647     81.69952     163.6599     327.3849      1.539     3.79     960.3447     57.72412     152.7864        14     1.098     0.866  27.45   0
       445    711.0001    360.8540 307.6377305  +6.5494124     84023.49     120717.2     125117.8     81.30704      163.399     327.0264      1.496     3.09     938.7166     57.72412     11799.58        83     1.444     1.232  54.52   0
       446    869.2482    362.3642 307.5719331  +6.5540796     1260.647     1573.822     2090.019     81.96013     163.7901     327.4174      1.216     2.82     936.2988     57.72412     223.0529         9     1.016     0.549  46.00   0
       447     90.4055    360.4337 307.8955665  +6.5287550      1391.43     2022.578     1863.937     81.30705     163.5947     327.2545      1.624     3.73     958.4097     57.72412     163.0909        14     1.076     0.844  49.88   0
       448    573.4295    357.4617 307.6949996  +6.5462066     2896.112     4361.295     4911.319     81.82993     163.7901     327.4174      1.646     3.55     940.4536     57.72412     356.6678        21     1.302     0.958  51.31   0
       449    110.7397    356.4160 307.8872553  +6.5310984      6361.57     9583.732     10460.06     81.56891      163.725      327.222      1.661     3.35     957.7496     57.72412     876.8997        30     1.431     1.066  63.18   0
       450    952.1763    357.7188 307.5376349  +6.5587668     900.2268     1242.483     1381.808     81.82993     163.5295     327.3849      1.473     3.58     932.1978     57.72412     148.8333         8     0.908     0.737  53.04   0
       451    556.6888    353.7618 307.7020793  +6.5471733     7320.868     10908.52     11228.98     82.09012      163.725     327.5151      1.602     3.18     940.5008     57.72412     920.8694        35     1.379     1.156  56.31   0
       452    285.8177    351.4666 307.8146897  +6.5390307     2531.718     3870.217     3587.131     81.56891      163.725     327.3523      1.598     3.52     948.6623     57.72412     361.2461        22     1.339     0.988  46.89   0
       453    419.6778    348.9828 307.7591621  +6.5445516     25500.27     39674.73     41510.74     81.56891     163.5295     327.4174      1.657     3.38     942.4062     57.72412     3406.616        53     1.478     1.247  53.64   0
       454    399.5414    347.1451 307.7675898  +6.5446345     1106.982     2030.536     2833.046     82.21991     163.7901     327.5151      2.353     6.06     943.0647     57.72412     124.6471        13     1.350     0.766  55.57   0
       455    527.3627    347.3994 307.7144775  +6.5488173     1377.949     2028.666     1977.906      81.1758     163.5947     327.2871      1.594     4.28     940.3597     57.72412     170.9456        13     1.134     0.879 -19.00   0
       456    498.9066    344.4650 307.7263988  +6.5490748     1166.482     1665.357     1418.315     81.96013     163.9853     327.5151      1.514     3.95     940.5203     57.72412      179.149        11     0.959     0.933 -59.84   0
       457    814.1880    341.3185 307.5955164  +6.5609294     878.5433     1167.575     814.5465     81.69952     163.5295     327.3197      1.268     3.69      936.671     57.72412     147.7027         9     1.019     0.657  70.79   0
       458    508.7000    339.4181 307.7225003  +6.5514870     8660.326     13006.07     13759.15     82.09012     163.6599     327.2545      1.644     3.38     940.0601     57.72412     1154.325        35     1.385     1.147  58.35   0
       459    650.7447    341.0554 307.6634310  +6.5555703     651.6329     837.2166      667.878     82.34949     163.7901     327.4825      1.314     3.70     938.4081     57.72412     105.5085         5     0.817     0.482 -36.37   0
       460    396.1771    340.6949 307.7692053  +6.5471848     936.9011     1293.238     2125.031     82.09012     163.5947     327.3523      1.765     4.37     943.0037     57.72412     130.4067        10     1.115     0.758  45.39   0
       461    933.0408    338.0090 307.5462471  +6.5662662     895.3729     1107.294     1011.477     81.43808     163.5947     327.1894      1.235     3.46     932.1785     57.72412     151.8918         8     0.986     0.557  49.92   0
       462    777.8766    338.1289 307.6107101  +6.5610324     3415.946     4788.757      4883.31     82.34949     164.0503     327.4825      1.454     2.98     937.0278     57.72412     479.3063        20     1.223     0.869  49.70   0
       463    725.3488    337.5424 307.6325536  +6.5595177     806.7639     997.6143     489.6247     82.09012     163.7901     327.4825      1.329     3.49     937.5649     57.72412     114.1719         8     0.884     0.709 -46.57   0
       464    335.0924    336.1281 307.7947371  +6.5470192     1024.855     1371.488     1277.973     81.96013     163.9203     327.4825      1.565     5.62     945.4178     57.72412     159.5021        12     1.213     0.734  68.78   0
       465    271.7956    329.9429 307.8212426  +6.5474461     569.3611     781.0574     719.2525     81.43808     163.6599     327.1894      1.481     3.88     948.3569     57.72412     94.51843         6     0.809     0.651  76.21   0
       466    170.8585    329.5738 307.8631886  +6.5442042     1121.161     1984.442     1422.694     81.69952     163.7901     327.2871      1.728     5.62     954.7705     57.72412     150.7619        12     1.195     0.745  55.58   0
       467    618.1621    328.4966 307.6773910  +6.5596646     481.6306     777.9263     907.0486     82.09012     163.6599     327.6453      1.692     4.30     938.0016     57.72412     68.89789         6     1.370     0.385  14.06   0
       468    398.5988    323.5782 307.7687771  +6.5543333     7539.655      11483.1     12004.98     81.69952     163.4643     327.1894      1.688     3.40      942.279     57.72412     954.6563        40     1.437     1.222  59.53   0
       469    254.4926    324.1075 307.8286283  +6.5492738     2165.488     3264.268      3306.99     82.09012     164.3101       327.45      1.613     3.65     949.0459     57.72412     309.2368        23     1.282     1.076  87.16   0
       470    752.0689    323.4818 307.6219253  +6.5662170     1011.682     1475.502     1391.875     82.34949     164.0503     327.5151      1.494     3.87     936.6117     57.72412     146.2104         9     0.989     0.686  31.99   0
       471    766.4846    319.4149 307.6160727  +6.5683784     59055.11     82014.45     85050.05     81.69952     163.5295     327.3849      1.526     3.01     936.2324     57.72412     8407.304        59     1.425     1.101  55.82   0
       472    438.1006    318.7914 307.7525273  +6.5576354     2349.601     3485.625     3434.455     81.82993      163.399     327.3197      1.612     3.50     940.7382     57.72412     296.0026        18     1.143     0.973  50.45   0
       473   1001.2526    316.4897 307.5186286  +6.5774279     1990.091     2486.652     2509.084     82.09012     163.5947     327.6128      1.326     3.40     929.0887     57.72412      306.944        13     1.203     0.654  53.94   0
       474    942.2746    315.6738 307.5431607  +6.5757966     2676.816     3619.441     4050.781     82.34949     164.0503     327.5802      1.459     2.73     930.9122     57.72412     455.5119        14     1.136     0.698  57.97   0
       475    584.1879    316.3942 307.6919140  +6.5635235     1319.919     1923.979     2208.657     81.69952     163.5947     327.3849      1.737     4.22     937.4548     57.72412     169.5081        15     1.152     0.912  21.83   0
       476    424.7192    314.5110 307.7582312  +6.5589537     1980.129     3118.528     3077.916     81.82993     163.9853     327.5802      1.667     4.22     941.0216     57.72412     286.5037        22     1.416     0.992  48.91   0
       477    475.2416    314.9732 307.7372255  +6.5604579       1019.2     1773.267     2166.226     81.69952      163.725     327.3197      2.140     4.83     939.2811     57.72412     162.9739        12     1.175     0.936  63.14   2
       478    304.3130    314.2914 307.8082623  +6.5550011     713.3723     993.9338     820.0758     81.96013     164.2452     327.6128      1.330     3.25     946.0744     57.72412     134.0532         7     0.858     0.612 -28.75   0
       479    845.8848    309.1242 307.5834294  +6.5752816      1192.21     1674.064      1866.77      82.2199     164.1153     327.5477      1.474     3.79     934.3795     57.72412     171.5359        13     1.164     0.805  74.50   0
       480    201.4281    305.7980 307.8512930  +6.5550491     2218.281     3415.804       3199.3     81.56891     163.5295     327.2871      1.607     3.83     952.0109     57.72412     260.3296        20     1.281     0.985  73.27   0
       481    455.0915    305.7339 307.7459089  +6.5635967     1193.757     1587.276     1609.788     82.09012     163.9853     327.4825      1.463     3.20     939.5403     57.72412     178.2883        12     0.974     0.836   9.48   0
       482    764.9420    303.9228 307.6172348  +6.5747234     6706.981     9558.854      10263.6     82.21991     163.7901     327.4174      1.489     3.06     935.5175     57.72412     973.1176        28     1.278     1.012  54.87   0
       483    236.7469    303.9541 307.8366822  +6.5569981     651.0893      885.897     329.4519     82.09012     163.7901     327.5477      1.498     5.29     949.7159     57.72412     90.07562         7     1.155     0.684 -82.61   0
       484     97.1041    303.0525 307.8947269  +6.5526718     1161.578     1819.536       2060.9     81.96013     163.7901     327.7429      1.609     5.32     957.3253     57.72412     154.4014        11     1.100     0.727 -89.96   0
       485    781.3896    301.9395 307.6104678  +6.5760923     2821.165     3912.243     3735.057     81.43808     163.6599     327.1894      1.435     3.22      935.158     57.72412     406.9442        18     1.169     0.888  55.02   0
       486    370.8817    296.8667 307.7811944  +6.5644315      1629.79     3299.618     3405.174      82.2199     164.0503     327.5477      2.130     5.62     942.2937     57.72412     193.2401        26     1.578     1.151   7.70   0
       487     84.7870    297.0691 307.9000465  +6.5547274     1278.206     1632.065     1605.291     81.56891     163.6599     327.3523      1.330     3.10     957.6685     57.72412     210.3531         9     0.890     0.672  30.35   0
       488   1019.5648    292.9055 307.5118115  +6.5877767      6880.62     8813.368     8748.926      82.2199     163.6599     305.0631      1.320     2.83     928.3182     57.72412     1122.425        24     1.248     0.833  58.18  16
       489    497.5136    292.8432 307.7287187  +6.5703421     2184.842     3190.875     3424.032     82.09012     163.6599     327.4825      1.538     3.31     937.3395     57.72412     277.8481        19     1.189     0.967  13.94   0
       490    260.2352    288.2947 307.8274534  +6.5642533     5702.169     8754.555     9236.159     82.21991     163.6599     327.5802      1.641     3.44     947.8472     57.72412      727.193        32     1.362     1.150  41.46   0
       491    824.5972    287.2957 307.5930080  +6.5835831     729.9091     1019.965     1234.314     81.82993     163.4643     327.1568      1.493     4.10     933.6491     57.72412     97.54797         7     1.013     0.475  82.08   0
       492    927.5162    286.9722 307.5502566  +6.5871547     615.4678     668.2899     1061.248     82.09012     163.5295     327.3523      1.386     4.68     930.0486     57.72412     112.2703         8     1.067     0.583  45.42   0
       493    779.8011    281.9394 307.6118006  +6.5842971     836.8595     1111.733     413.6422     81.43808     163.5947     327.1568      1.513     5.69     934.2853     57.72412      137.562        10     1.194     1.026  31.57   0
       494    394.3549    279.0817 307.7720426  +6.5725627     1760.564     2992.071     3138.182     82.09012     163.7901       327.45      1.903     4.25     940.7881     57.72412     246.7688        19     1.421     0.877  68.55   0
       495    237.0294    281.1025 307.8373377  +6.5664426     545.7256     645.7693     525.6786     82.21991     163.5295     327.4825      1.173     3.71     949.5767     57.72412     103.1383         5     0.670     0.591 -88.28   0
       496    981.1038    277.8368 307.5282978  +6.5927154     1201.836     1704.984     1685.613     82.09012     163.6599     327.6453      1.542     3.34     928.3546     57.72412     257.9484        10     1.154     0.626  66.60   0
       497    316.8229    274.8468 307.8043979  +6.5717074     1138.662     1748.999       1493.8     81.69952     163.7901     327.3523      1.640     4.35     944.1141     57.72412      193.458        12     1.283     0.776  45.72   0
       498    200.8209    276.1266 307.8525491  +6.5672793     574.2581     671.1574     456.6419     81.69952     163.6599     327.4174      1.256     4.42     951.6517     57.72412      85.8269         6     0.954     0.583  63.81   0
       499    163.9981    274.8913 307.8678892  +6.5665505     1836.029     2912.753     2867.429     81.30704     163.4643      327.222      1.614     3.99     953.4497     57.72412     255.4268        20     1.406     0.898  66.85   0
       500    573.5974    270.5091 307.6978606  +6.5821141     2347.986     3284.696     3453.468     81.43809     163.4643     327.1894      1.520     3.23     934.7386     57.72412     340.6676        19     1.270     0.943  62.31   0
       501    917.4938    269.8463 307.5549962  +6.5938913      1837.41     2672.393     3237.836     81.96013      163.725     327.6128      1.527     3.12     930.0452     57.72412     295.8927        14     1.172     0.740  40.83   0
       502    737.2800    268.0668 307.6299345  +6.5886029     5356.518     7695.463     7764.785     82.21991     163.9853     327.4825      1.498     3.29     934.4341     57.72412     716.1174        24     1.250     0.967  51.17   0
       503    678.2175    268.1180 307.6544728  +6.5866053     2076.204     3188.755     3472.243     81.69952     163.4643       327.45      1.607     3.43     934.9083     57.72412     330.5359        17     1.193     0.910  53.42   0
       504    975.2090    267.6698 307.5310885  +6.5967166     696.1913     1138.005     528.8514     81.56891     163.4643     327.3523      1.582     4.09     927.9322     57.72412     105.0683         6     0.745     0.640  61.44   0
       505    393.1620    262.7877 307.7730885  +6.5792502     602.7878     900.4446     1011.773     81.69952     163.5947     327.1894      1.472     3.61     940.1729     57.72412     95.77777         6     0.740     0.588 -43.31   0
       506    933.5068    260.2214 307.5486661  +6.5984001      1382.92     1901.901     2231.766     81.96013     163.5947     327.2871      1.457     3.60     929.0929     57.72412     220.1923        15     1.183     0.828  18.90   0
       507    237.0175    253.6338 307.8382715  +6.5777834     2274.334     3372.635     2940.527     81.69952     163.5947     327.3197      1.599     3.68     949.5527     57.72412     289.2839        22     1.255     1.068  81.16   0
       508    879.5596    252.3375 307.5713463  +6.5998537      2092.91     2875.615     2670.402     82.09012      163.725     327.5151      1.421     3.50     930.8157     57.72412     314.6285        15     1.224     0.750  49.02   0
       509    770.0704    251.7742 307.6168584  +6.5964267     1788.204     2219.125     2134.338     81.69952     163.6599     327.4174      1.445     3.29     933.4172     57.72412     239.6531        15     1.070     0.897  23.31   0
       510    470.8405    243.2854 307.7414728  +6.5899092     22947.19     35637.96     37297.14     82.09012      163.725       327.45      1.680     3.46     935.3182     57.72412     2845.979        50     1.501     1.221  58.12   0
       511    796.7975    242.4523 307.6060668  +6.6011694     14390.68     20539.12     21315.53     81.43809     163.5295      327.059      1.545     3.01     932.8376     57.72412     2019.679        46     1.368     1.252  33.78   0
       512    476.4654    237.4133 307.7393338  +6.5925224     1346.583     1967.993     2394.277     81.56891     163.5947     327.3849      1.687     3.47     934.6785     57.72412     212.5175        12     1.057     0.781  85.07   0
       513    159.0988    236.6234 307.8712198  +6.5821855     2322.877     3632.033     3818.582     82.21991     163.5295     327.2871      1.662     3.74     953.0672     57.72412     283.4999        23     1.301     1.054  65.08   0
       514    133.5346    235.8890 307.8818658  +6.5816283     1051.965      1811.61     2337.022     82.09012     163.9853     327.4825      1.984     4.57     954.2582     57.72412     160.8832        11     1.124     0.751 -80.56   0
       515    735.6801    238.3375 307.6315998  +6.6008243     811.1013     975.0408     858.1276     82.21991     163.8552     327.4825      1.632     5.31     933.2001     57.72412     131.2343        10     1.342     0.594  44.93   0
       516    933.1483    232.8139 307.5497356  +6.6097046     1673.023     2196.304     1985.881     81.43808      163.725      327.222      1.289     2.97     928.3459     57.72412      288.384        11     1.070     0.604  62.49   0
       517    594.8683    229.0061 307.6904216  +6.5999629     4704.802     7100.767     6931.323     81.56891      163.399     327.3197      1.573     3.26     933.1381     57.72412     636.2626        25     1.283     0.999  62.08   0
       518    557.5167    229.1281 307.7059370  +6.5986609     2293.489     3299.825      3458.66     82.34949     164.1153     327.5151      1.585     3.51     932.5481     57.72412     285.6398        21     1.205     1.038  35.18   0
       519    399.2396    228.0237 307.7717373  +6.5938077      1547.52      2181.23     1425.909     81.69952     163.5295     327.2545      1.507     3.60     938.4846     57.72412     263.1617        16     1.119     0.972  50.23   0
       520    901.8993    225.6335 307.5629613  +6.6116258     12928.53     17099.15     17432.77     82.09012     163.6599     327.6453      1.375     2.99     929.1393     57.72412     2003.608        31     1.248     0.957  52.02   0
       521    955.6531    226.1914 307.5406069  +6.6131902     3082.181     4081.071     3609.266     81.56891     163.6599     327.1894      1.343     2.86     926.6812     57.72412     466.8931        17     1.137     0.813  47.50   0
       522    329.7513    226.1945 307.8006704  +6.5922293     1101.906     1629.477     1947.542     81.43808     163.5947     327.1568      1.932     4.25     942.3141     57.72412     135.6521        14     1.045     0.969  76.46   0
       523    315.3302    229.7193 307.8065431  +6.5902895     1057.851     1684.928     1206.304     82.34949     164.1153     327.5151      1.734     5.57     943.5939     57.72412     161.7392        13     1.186     0.980  63.73   0
       524    988.4879    223.4348 307.5270560  +6.6154242     11616.51     15049.69     15354.75     82.09012     163.6599     327.4825      1.331     2.65      924.516     57.72412      1979.62        29     1.255     0.890  53.11   0
       525    699.9951    223.4591 307.6469279  +6.6057734     3182.023     4435.627     4834.003     81.43808     163.6599     327.2545      1.528     3.32     932.9352     57.72412     418.7399        21     1.187     0.988  44.75   0
       526     28.0982    222.2050 307.9261344  +6.5837270     26085.32     39839.22     41308.79     81.82993     163.4643     327.1242      1.609     3.31     958.5308     57.72412     3608.489        51     1.451     1.202  59.80   0
       527    274.4890    223.1635 307.8237334  +6.5916237     1093.575     1577.586     1544.766     82.09012      163.725     327.4825      1.491     3.42     946.7982     57.72412     178.5809        11     1.014     0.796  53.84   0
       528    508.6292    218.4007 307.7266114  +6.6014512     2047.365     3109.701     2508.334     81.43809     163.5947     327.2871      1.666     4.48     932.8276     57.72412     240.8822        20     1.306     1.054  50.62   0
       529    892.6180    214.0719 307.5672063  +6.6160896     2361.199     3353.226     4227.947     81.56891      163.725     327.4174      1.431     3.03     928.6958     57.72412     367.5846        16     1.240     0.687  58.34   0
       530    840.4099    215.0478 307.5888669  +6.6139423      2260.94     2994.043     3063.936     81.56891     163.6599     327.1242      1.434     2.90     930.5021     57.72412     354.9175        15     1.041     0.847  62.41   0
       531    520.6023    214.1665 307.7217794  +6.6036008     2560.521     3846.352     3544.998     81.30704     163.5947     327.2545      1.602     3.34     932.4769     57.72412     357.2448        23     1.270     1.062  31.57   0
       532    355.2282    210.9726 307.7905994  +6.5993700     5681.162     11776.72     12644.42     81.56891     163.5947     327.3197      2.153     5.35     940.2878     57.72412      615.756        48     1.951     1.283 -81.90   0
       533    752.0637    211.5842 307.6256926  +6.6124186     43306.82     61059.35     62964.91     81.56891     163.6599     327.3197      1.509     3.19     932.2128     57.72412     5828.754        54     1.415     1.106  56.36   0
       534    985.8272    210.3090 307.5286023  +6.6207551      3365.26     4236.015     4570.065     82.21991     163.5295     327.3523      1.307     2.97     924.2031     57.72412     520.8038        18     1.153     0.763  54.04   0
       535    919.9367    208.6546 307.5560368  +6.6192387     8518.655     11146.86      11821.1      82.2199      163.725       327.45      1.376     2.98     927.5682     57.72412     1362.197        25     1.268     0.851  51.62   0
       536    463.5058    207.8466 307.7457162  +6.6042953     5122.697     7715.865     8251.849     81.96013      163.725     327.6128      1.634     3.30     934.0742     57.72412     639.3601        29     1.359     1.087  50.10   0
       537   1023.6336    208.7426 307.5129453  +6.6226631      1414.95     1647.797     1737.259     71.68955     130.5331     246.9189      1.011     2.43     922.0879     57.72412     358.1202         7     0.863     0.461  78.80  24
       538    237.8442    204.8829 307.8395769  +6.5979394     720.1255     1113.812     1108.829     82.09012     163.7901       327.45      1.787     5.30     949.1027     57.72412     107.4761         7     1.265     0.740 -74.21   0
       539    120.7924    199.0641 307.8884067  +6.5964034     4932.099      7881.85     8616.826     81.56891     163.4643     327.3197      1.697     3.45     953.7212     57.72412     647.1255        30     1.443     1.120  61.76   0
       540    940.3724    198.5066 307.5478862  +6.6241111     1130.639     1541.434     2250.332     82.21991     163.5295     327.3523      1.399     2.73     926.0799     57.72412      184.543         9     0.884     0.713  68.52   0
       541    291.1989    195.7641 307.8177170  +6.6034980      33169.8     52885.04     54896.09      81.1758     163.5947     327.2871      1.679     3.49     946.1688     57.72412     4032.532        57     1.512     1.262  59.56   0
       542    266.4380    196.8230 307.8279691  +6.6022285     6615.538     10453.64     10561.72     81.69952     163.5295     327.2871      1.699     3.48     947.5178     57.72412     830.4579        34     1.452     1.127  57.01   0
       543    617.2377    197.2440 307.6821974  +6.6138265     701.0577     1096.866     1404.933     81.82993     163.7901     327.3197      1.707     5.21     932.4695     57.72412     91.32324         8     0.980     0.782  16.30   0
       544    720.4080    195.1304 307.6393998  +6.6181532      1101.02     1497.335     1795.975     81.56891      163.399     327.3849      1.399     3.87     932.0442     57.72412     134.8964        11     1.001     0.781  36.28   0
       545    415.2921    191.2444 307.7663094  +6.6095321     49996.79     77486.49     80704.16     82.09012      163.725     327.6128      1.678     3.46     935.6403     57.72412     5881.282        64     1.521     1.263  59.27   0
       546    205.1517    195.7006 307.8534708  +6.6006310     485.8217     531.0807     367.0151     82.09012      163.725     327.6778      1.176     3.96     950.3605     57.72412     76.77625         6     1.089     0.413  11.35   0
       547    171.2691    192.5299 307.8676558  +6.6008001     4154.502     6328.962     6351.815     82.09012     163.9203       327.45      1.657     3.67      951.565     57.72412     481.6692        29     1.443     1.067  47.13   0
       548    432.5735    191.7258 307.7591127  +6.6099133     1468.707     2348.903     2571.366     81.69952      163.725       327.45      1.836     3.95     934.8475     57.72412     220.8333        16     1.172     0.956  73.38   0
       549    754.5351    187.4910 307.6254765  +6.6224492      36320.2      50497.7     52038.59     81.96013     163.9853     327.5151      1.527     3.05     931.4753     57.72412     4902.415        52     1.417     1.104  59.09   0
       550    702.3875    189.2323 307.6470862  +6.6199854     970.2816     1491.926     1425.521     81.56891     163.5295     327.3849      1.583     4.13     932.0296     57.72412     140.0541        13     1.235     0.799  61.71   0
       551    326.6147    189.0094 307.8032303  +6.6074769     2009.099     3439.073     4078.824     81.82993     163.5295     327.3849      1.865     3.70     942.8893     57.72412     280.5007        18     1.194     0.965  65.95   1
       552     42.0250    187.5138 307.9215239  +6.5985192     762.3234     1285.234     1587.926      82.2199     163.5947     327.2871      2.044     5.65      958.277     57.72412     123.1308         8     1.285     0.699  75.52   0
       553    802.7101    187.9127 307.6054445  +6.6238861     1278.761     1616.217     1970.652     81.82993     164.2452     327.6128      1.311     2.99     930.8226     57.72412     232.1248        10     0.957     0.685  50.24   0
       554     71.4016    184.7217 307.9094133  +6.6006616     9263.009      14173.2     14812.54     81.43809     163.2032     327.2545      1.658     3.55     956.0826     57.72412     1162.147        36     1.406     1.138  62.03   0
       555    105.1924    182.8505 307.8954372  +6.6025722     1578.754      2343.64     2543.314     81.56891     163.5947     327.1242      1.711     3.88     953.7134     57.72412     205.5536        17     1.210     0.973 -77.30   0
       556   1012.7108    181.8704 307.5183860  +6.6333942     1200.375     1813.301     2020.002     82.09012     164.0503     327.4825      1.499     4.14     922.2086     57.72412     189.0769        11     1.255     0.605  57.97   0
       557    980.9267    181.1845 307.5316164  +6.6326169     535.1906     921.9189     929.1648     81.56891     163.5295     327.3849      1.977     4.80      923.415     57.72412     97.39331         7     1.081     0.605  24.46   0
       558    319.2857    188.9302 307.8062781  +6.6072634     18146.24     28360.11     29490.88     82.21991     164.0503     327.5151      1.696     3.44     943.6542     57.72412     2234.056        47     1.501     1.216  58.18   0
       559    588.2169    171.8725 307.6951110  +6.6233298     810.6204     1364.925     1065.005     81.56891      163.725     327.3849      1.677     4.11     931.6413     57.72412     137.8192         9     0.988     0.831  17.35   0
       560      4.9236    170.2212 307.9375249  +6.6044084      902.395     1348.037     1277.914     81.69952     163.5295     298.8482      1.702     5.44     961.8159     57.72412     149.6913        13     1.347     0.821  52.76  16
       561   1013.9498    168.0168 307.5183362  +6.6391557     2600.986      3553.72     4027.325     81.56891     163.8552     327.1894      1.438     3.03     921.9282     57.72412     459.0197        18     1.244     0.729  49.37   0
       562    596.9525    165.6655 307.6916904  +6.6261853     1065.801      1487.48     1795.678     81.96013      163.725     327.5151      1.531     3.28     931.5555     57.72412     193.6041        11     0.987     0.781  74.86   0
       563    605.3286    163.8051 307.6882727  +6.6272340     2087.924     3050.971     3638.463     81.69952      163.399     327.3523      1.655     3.94     931.5494     57.72412     260.4396        18     1.270     0.902  66.87   0
       564    349.3367    164.0684 307.7946320  +6.6185378      1142.48     1598.967     1211.356     82.09012     163.8552     327.5477      1.579     4.09     940.8233     57.72412     157.4161        13     1.048     0.894  65.07   0
       565    290.1248    162.0114 307.8193043  +6.6173976     30797.85     48181.44     50368.73     81.69952     163.4643     327.2871      1.646     3.35     947.0648     57.72412     3724.325        57     1.491     1.249  57.73   0
       566     35.3835    160.4453 307.9252007  +6.6094711     4612.433     6880.633     7341.368     81.56891     163.6599     327.2545      1.627     3.42     959.1947     57.72412     562.1985        29     1.334     1.093  63.04   0
       567    199.3740    160.2005 307.8570725  +6.6150937     981.7736     1509.968       1158.7     81.69952     163.4643     327.2871      1.657     4.48     949.6163     57.72412     125.8892        10     0.969     0.753 -47.82   0
       568   1013.6223    159.3886 307.5187619  +6.6427073     484.4761     569.6535     534.7295     81.69952     163.5947     327.3849      1.172     3.45     921.7464     57.72412     76.94678         5     1.056     0.325  69.04   0
       569    721.7231    158.6253 307.6400823  +6.6332698     8632.045     12139.64     13131.49     81.69952     163.7901       327.45      1.509     3.09     931.0199     57.72412     1200.369        28     1.297     0.980  54.65   0
       570    275.9520    156.7341 307.8253716  +6.6191001     798.2694     1225.802     1749.999     81.96013      163.725     327.4825      1.616     3.93     947.4968     57.72412      134.783         5     0.858     0.515  59.10   0
       571    132.5658    155.7503 307.8849816  +6.6146828     5044.534     7837.302     7966.434     81.96013     163.7901     327.4174      1.658     3.54     951.7953     57.72412     670.2377        29     1.373     1.094  51.01   0
       572    594.0886    153.5685 307.6932882  +6.6310840     702.0812     1231.768     1466.684      82.2199     163.5947     327.4174      1.604     4.13      931.213     57.72412     133.5023         5     1.071     0.454  58.65   0
       573    471.4922    152.9850 307.7442493  +6.6272146     1372.551     1940.237     1702.982     81.82993     163.5947     327.3197      1.459     3.72     932.0193     57.72412     190.9518        13     1.075     0.847  44.72   0
       574    660.6508    152.5360 307.6656646  +6.6337398     834.6319     1048.293     269.2798     82.09012      163.725     327.5151      1.466     4.87     931.0507     57.72412     105.3799        10     1.083     0.768   1.96   0
       575    403.1863    151.7343 307.7726736  +6.6254387     3913.921     6380.961     6178.967     81.56891     163.5947     327.4174      1.715     3.76     935.0999     57.72412     461.1884        29     1.442     1.139  65.02   0
       576    367.5343    150.6871 307.7875228  +6.6246740     3271.961     5202.559     5166.949     82.09012     163.9853     327.5151      1.743     3.79     938.8105     57.72412     402.7225        30     1.480     1.260  54.81   0
       577    819.7360    151.9756 307.5995784  +6.6392934      4242.35     3907.287     3671.439     81.69952     163.7901     327.4174      0.631     0.82     928.3179     57.72412     2342.754         7     0.550     0.427 -48.34   0
       578    121.9740    150.5579 307.8895583  +6.6164700      1726.46     2756.984     2738.822     81.69952      163.725     327.3197      1.750     4.39     951.9711     57.72412     243.2433        20     1.408     0.961  51.92   0
       579    579.1276    150.7133 307.6996011  +6.6317616     598.2428     1069.211     1209.691     82.21991     164.0503     327.4825      1.853     3.75     931.0643     57.72412     110.3632         5     0.850     0.476 -52.87   0
       580    683.2813    148.8037 307.6563867  +6.6360384     813.0994     1082.979     862.1235     81.56891     163.3338     327.1894      1.344     4.01     930.6655     57.72412     132.6647         8     1.071     0.575 -72.43   0
       581    757.8480    148.6173 307.6254081  +6.6386106     527.2332     727.6123     178.5034     81.56891     163.7901     327.2545      1.213     2.08     929.7643     57.72412     120.8066         5     0.692     0.450  20.46   0
       582   1014.4678    144.8925 307.5188971  +6.6487208     1796.245     2190.002     1894.694     81.96013     163.9203     327.5151      1.313     2.73      921.319     57.72412     301.1261        13     1.042     0.727  52.78   0
       583    681.3173    138.4733 307.6575507  +6.6402380     6810.794     9210.008     9319.277     82.34949     164.1153     327.5151      1.473     3.11     929.9957     57.72412     969.0682        30     1.292     1.009  51.66   0
       584    219.5199    139.5726 307.8493998  +6.6242881     5685.431     8722.294      9026.03     81.96013     163.5947     327.5151      1.684     3.56     948.6171     57.72412     700.7358        29     1.331     1.116  62.29   0
       585    102.3683    139.3690 307.8980833  +6.6204294      2111.98     3374.288     4124.268     81.56891     163.5295      327.222      1.771     3.97     952.2255     57.72412     276.2817        19     1.275     0.993  41.58   0
       586    858.0751    138.8873 307.5840871  +6.6459788     557.7355     693.4354     1658.988     82.09012     164.1153     327.5477      1.987     4.57      925.751     57.72412     94.78699         5     1.216     0.488  70.43   0
       587    829.2528    138.1772 307.5960878  +6.6453088     1182.304     1583.953     1361.052     81.56891     163.7901     327.2871      1.438     3.12     926.9643     57.72412     207.0995        11     1.053     0.688  56.29   0
       588    633.4778    135.6618 307.6775243  +6.6397970     9844.533     14387.81     15245.79     82.34949     163.8552     327.4825      1.613     3.18     930.4496     57.72412     1212.953        37     1.379     1.127  57.42   2
       589    637.0167    127.1899 307.6763393  +6.6434134     55989.59     82365.89      85518.2     81.82993     163.5295     327.3523      1.556     3.18     930.0109     57.72412     7553.376        64     1.472     1.188  54.16   2
       590    268.5321    136.1555 307.8291505  +6.6273471     871.3057     1494.935     1332.194     82.09012      163.725     327.5151      1.769     6.05     947.6802     57.72412     115.9038        11     1.172     1.035   0.25   0
       591     32.4605    134.8308 307.9272833  +6.6199480      929.171     1473.412     1152.437     81.82993     163.7901       327.45      1.676     5.04     958.5792     57.72412     128.6524        10     1.088     0.816  65.46   0
       592    571.6715    135.4010 307.7032155  +6.6378339     630.5164     880.3007     1189.355     81.43809     163.3338     327.2871      1.373     4.91     930.5969     57.72412     107.6157         8     1.003     0.682   9.46   0
       593    360.7300    131.3081 307.7910048  +6.6324466     3721.406     6177.723      6296.01     82.09012     163.9203     327.5151      1.805     4.12     939.5399     57.72412     419.1357        30     1.473     1.201 -54.20   0
       594   1006.5806    130.3117 307.5226641  +6.6544781     987.9415     1417.599     1209.939     81.82993     163.5295     327.3849      1.383     3.99     921.0348     57.72412     162.8751         6     1.042     0.437  57.98   0
       595    542.3404    130.5997 307.7155654  +6.6388331     1752.859     2415.582     2273.661     81.30705     163.5295     327.1568      1.533     3.70      930.457     57.72412     195.3041        15     1.062     0.922  42.05   0
       596    316.0374    120.8373 307.8099293  +6.6352683     3678.623     5877.092     6303.449     81.82993     163.6599     327.3523      1.709     3.37     944.4578     57.72412      450.744        27     1.358     1.101  45.90   0
       597    511.2242    117.6886 307.7289306  +6.6431206     484.6328     745.7256      637.114     82.09012     163.5947     327.3523      1.427     4.72     930.5647     57.72412      93.2746         6     0.927     0.682 -69.21   0
       598     13.6470    103.9620 307.9361467  +6.6320586     750905.5      1608225      1728968     81.96013      163.725     327.3197      2.156     9.94     959.1403     57.72412     62192.73       437     2.153     1.821  68.20  28
       599    715.7530    115.1695 307.6440261  +6.6510124      1023.98     1454.935     1293.556     81.69952     163.7901     327.3849      1.321     4.00     927.8982     57.72412     182.4039        10     1.152     0.596  51.66   0
       600    687.3297    114.3937 307.6558633  +6.6503815     1455.904     2173.291     2177.136     81.56891      163.399     327.3523      1.598     3.36     928.3779     57.72412     209.4698        15     1.158     0.814  68.80   0
       601    701.3220    111.0611 307.6501611  +6.6522258     3410.541     4633.456     4877.651     82.21991     163.8552       327.45      1.475     2.96     927.9078     57.72412     478.1403        19     1.100     0.973  54.44   0
       602    443.1638    102.1228 307.7577372  +6.6472642     4216.391     6381.564     6338.467     81.96013     163.8552     327.5151      1.614     3.48     932.2706     57.72412     534.5472        28     1.330     1.114  51.70   0
       603    915.6249     97.4830 307.5615639  +6.6649968     4488.346     6183.442       6364.9     81.96013     163.5295     327.4825      1.432     2.87     922.0626     57.72412     717.3146        22     1.236     0.898  48.64   0
       604    897.5554     98.4792 307.5690394  +6.6639820     2459.096     3218.208     3160.084     82.09012     163.7901     327.4825      1.359     2.94     922.4519     57.72412     391.4636        14     1.060     0.746  55.49   0
       605    595.8479     97.8595 307.6944350  +6.6541444     854.3159       1033.3     872.5266     82.09012     163.7901     327.5477      1.413     3.89     929.5841     57.72412     128.1011         6     0.766     0.565  40.65   0
       606    628.1245     96.7966 307.6810585  +6.6556645     545.5844     830.9471     906.9794     81.56891     163.2685     327.3849      1.688     4.34     928.9789     57.72412     74.92627         5     0.757     0.709  22.48   0
       607    607.8445     95.9333 307.6895148  +6.6553416      1927.82     2559.544     1978.788     82.09012      163.725     327.5151      1.486     3.82     929.5247     57.72412     239.1998        18     1.198     0.991  21.83   0
       608    253.6313     95.3164 307.8367232  +6.6437076     914.0463     1614.029     1911.013     82.09012     163.5947     327.3523      1.772     5.04     947.8714     57.72412     138.8656        12     1.368     0.786  37.78   0
       609    406.5730     93.9301 307.7732185  +6.6494186      1914.77     2960.842     2796.643     81.69952     163.6599     327.4174      1.653     3.83     934.4427     57.72412     271.3513        20     1.253     1.041  42.82   0
       610    154.3941     90.8810 307.8781082  +6.6422002     3260.349     4878.733     5202.966     81.69952     163.3338      327.222      1.629     3.47     949.0715     57.72412     455.6604        24     1.394     0.968  65.92   0
       611     36.3838     88.7003 307.9272168  +6.6391260     13042.55      19552.5     20850.69     82.09012     163.5295     327.2871      1.645     3.24      956.068     57.72412     1642.931        41     1.441     1.153  58.73   0
       612    302.6573     89.3580 307.8165531  +6.6478157     1345.074     2164.735     2670.512     81.96013     163.7901     327.5151      1.742     3.85     945.9881     57.72412     202.3143        14     1.047     1.018  56.81   0
       613    957.0106     87.4361 307.5447031  +6.6705269     679.5754     1092.393     1014.681     81.56891     163.5947     327.2545      1.673     4.06     920.7031     57.72412      106.957         7     0.949     0.595 -57.54   0
       614    771.3752     87.9011 307.6218301  +6.6641321     771.6577     1062.368     1033.974     82.21991     163.5295     327.3197      1.345     3.82     925.3775     57.72412     161.1711         7     0.970     0.556  32.74   0
       615    563.2775     88.1586 307.7082965  +6.6570582     794.4601     1160.845     1060.605     81.96013     163.7901     327.5477      1.500     5.23     929.3126     57.72412     131.6606         9     0.971     0.796  32.32   0
       616    904.7780     84.3877 307.5665115  +6.6700414     783.7032     904.9068     796.5679     81.69952     163.5947     327.3849      1.067     3.31     921.8718     57.72412     150.0055         5     1.073     0.295  54.94   0
       617    838.0809     83.2785 307.5942655  +6.6682710     6850.594     9243.798     9634.885     82.34949     164.0503     327.6453      1.433     2.96     923.3857     57.72412     1095.426        27     1.275     0.933  48.87   0
       618    783.1944     83.7795 307.6170573  +6.6662292     3639.622     4876.132     4906.434     81.69952     163.4643     327.2871      1.398     3.68     925.0379     57.72412     588.9673        19     1.196     0.830  52.39   0
       619    427.9761     83.8852 307.7646640  +6.6542844     1085.675     1471.447     1149.468     82.09012     163.5295     327.3197      1.518     4.58     932.7587     57.72412     150.5858        12     1.058     0.934  42.84   0
       620    928.8220     82.8743 307.5565705  +6.6714693     649.2983     796.1384     438.5568     81.69952     163.6599     327.4174      1.361     5.38     921.4689     57.72412     94.81921         8     1.122     0.727  72.24   0
       621    769.9552     82.7042 307.6225951  +6.6662303     642.9955     897.5203     1030.071     82.09012     163.6599     327.6128      1.395     4.27     925.2614     57.72412     102.9852         7     0.887     0.585 -29.40   0
       622    545.6253     81.8969 307.7158429  +6.6590519     1246.181     1801.709     2233.789     82.21991     163.5295     327.3849      1.583     3.85     929.1697     57.72412       161.69        13     1.073     0.843  55.41   0
       623     76.6676     80.4471 307.9107581  +6.6438908     3439.144     5063.108     5256.948     82.09012      163.725     327.4825      1.578     3.52     952.4068     57.72412     443.3661        23     1.250     1.029  52.45   0
       624     61.1411     81.2760 307.9171815  +6.6430254     1082.016     1711.846     1737.537     82.21991     163.8552       327.45      1.724     5.24     953.5645     57.72412     147.5764        10     0.968     0.875  70.02   0
       625    665.5811     80.6732 307.6660367  +6.6635761     592.8657     900.4886     1410.144     81.69952      163.725     327.3849      2.018     5.00      927.439     57.72412     113.7002         6     1.153     0.613 -65.84   0
       626    438.0841     79.7906 307.7606020  +6.6563142     880.3732     1334.585     1150.658     81.69952     163.4643     327.3197      1.612     4.39     932.2336     57.72412     132.7604         9     1.127     0.770 -10.94   0
       627    600.3134     77.3046 307.6932723  +6.6627808     1341.259     1829.388     1558.928     82.09012     164.1802     327.5477      1.489     3.36     928.9619     57.72412     185.4709        12     1.003     0.783  72.73   0
       628     19.0558     76.1294 307.9348429  +6.6437320     2720.984     4181.592     5366.724     82.09012      163.725       327.45      1.704     3.75     955.9234     57.72412     385.8802        22     1.333     1.049  56.60   0
       629    727.0006     74.1438 307.6407333  +6.6683278     596.6197     740.2271     789.2069     81.30704     163.4643     327.1894      1.307     4.01      925.982     57.72412     98.81879         6     0.938     0.491  39.08   0
       630    777.7436     71.0728 307.6197500  +6.6712933     2160.982     3027.204     3054.193     81.96013      163.725       327.45      1.427     3.32     924.7468     57.72412     325.6212        15     1.190     0.733  53.69   0
       631    418.4493     71.3194 307.7690471  +6.6591528      1228.62     1628.672     1248.759     82.09012     163.8552     327.4825      1.520     4.41     933.1603     57.72412     166.8289        13     1.125     0.913  24.52   0
       632     91.7508     72.0039 307.9047769  +6.6478848     904.7206     1181.373     1449.899     81.43808     163.5947      327.059      1.409     3.26     951.2781     57.72412     162.8459         7     0.883     0.565  62.61   0
       633    115.6477     69.9152 307.8949180  +6.6495519     961.4653     1444.348     1076.508     82.09012     163.7901     327.5151      1.678     6.30     950.3418     57.72412     127.6915        14     1.215     0.919  40.13   0
       634    104.3897     64.8002 307.8997692  +6.6512846     9720.524     14881.01     15418.82     81.69952     163.4643     327.2871      1.632     3.38     950.7249     57.72412     1261.944        37     1.475     1.110  58.88   0
       635    433.4679     64.6603 307.7630311  +6.6624063      2730.26     3934.147     3735.302     82.21991      163.725     327.4825      1.611     3.52     932.3241     57.72412     327.1284        19     1.122     1.011  53.55   0
       636    254.3553     64.7279 307.8374570  +6.6563611     696.6015     825.0991     1203.757     81.96013     163.8552     327.5151      1.399     4.06     947.7179     57.72412      97.2334         6     0.927     0.508  46.18   0
       637    271.0919     58.8761 307.8307003  +6.6593399     1547.749     2579.029     3618.171     81.96013     163.9853     327.4825      2.135     4.15     947.6226     57.72412     205.8106        15     1.170     0.944  28.51   0
       638    647.1646     56.8823 307.6744913  +6.6727823     20017.51      28486.3     29681.94     82.09012      163.725       327.45      1.502     3.16     927.3519     57.72412     2795.342        41     1.389     1.084  59.04   0
       639    676.1852     57.9400 307.6623959  +6.6733173     555.0623     866.1125     313.9849     81.56891      163.725      327.222      1.693     3.90      926.644     57.72412     100.8399         6     0.926     0.471  49.65   0
       640    265.1965     53.2409 307.8333406  +6.6614683     1938.463     3181.962     4900.435     81.30704     163.5295      327.222      2.346     4.11     947.6244     57.72412     246.5853        20     1.276     1.070  81.79   0
       641    546.9017     52.9456 307.7162890  +6.6710481     5448.197     7966.503     8113.488     81.96013     163.7901     327.7104      1.545     3.27     928.4219     57.72412     740.9355        27     1.324     1.025  59.73   0
       642     14.5519     51.0273 307.9375654  +6.6539440      1175.36     1683.461     1759.864     81.69952     163.8552     327.4174      1.546     4.17     953.0761     57.72412     154.4943        13     1.187     0.786  73.49   0
       643    633.5273     47.3021 307.6804812  +6.6762810     3377.574     5450.385     6296.009     81.69952     163.9203     327.4825      1.872     5.48     927.4142     57.72412     471.0085        30     1.956     0.936  72.83   0
       644    452.5010     48.5598 307.7556655  +6.6696926     23902.79      35417.4     36379.18     82.09012     163.6599     327.7104      1.639     3.27     930.9969     57.72412       2827.1        44     1.437     1.167  56.75   0
       645    273.0935     48.9173 307.8302053  +6.6635189     9284.473     14609.24     16426.87     81.82993     164.0503     327.6128      1.700     3.33     947.5916     57.72412     1164.184        41     1.465     1.200  53.22   0
       646    930.3794     48.7307 307.5570706  +6.6856189     2240.912     3078.082     3122.989     81.69952     163.6599     327.3849      1.426     3.22      920.569     57.72412     369.0884        19     1.146     0.977  44.12   0
       647    332.7596     49.2509 307.8054003  +6.6653865     937.5137     1371.214     1825.237     82.09012     163.7901       327.45      1.679     5.21     942.6249     57.72412     139.2812        10     1.074     0.715  52.12   0
       648     38.5389     48.6474 307.9276789  +6.6557351     2543.582     3648.073      3557.59     81.96013      163.725     327.5477      1.578     3.39     952.2581     57.72412     334.1097        20     1.244     0.937  63.93   0
       649    565.7995     48.4235 307.7085884  +6.6735487     658.8223     928.0784     519.4353     81.69952     163.4643     327.2545      1.304     3.80     928.2247     57.72412     123.6056         6     1.019     0.449  60.49   0
       650    261.0578     45.4618 307.8353235  +6.6645409     3100.142     4764.772     5715.329      82.2199      163.725     327.5151      1.745     3.56     947.6033     57.72412     384.9128        22     1.244     1.013  59.52   0
       651    313.9665     43.9091 307.8133902  +6.6669605     1118.909     1640.894     1996.667     82.21991     163.6599     327.4825      1.698     3.71     944.7529     57.72412     163.5914        10     0.899     0.780  13.37   0
       652    950.7681     38.7827 307.5489317  +6.6904071     1171.356     1639.213     1772.469     81.69952     163.5947     327.3523      1.445     4.47     918.8788     57.72412     184.7284         9     1.018     0.655  62.67   0
       653    702.3116     38.0690 307.6522079  +6.6823964      2012.63     2610.043     2687.793     82.21991     164.0503     327.4825      1.477     3.24     925.7905     57.72412     343.5297        17     1.220     0.822  59.93   0
       654    107.4722     38.7309 307.8993714  +6.6621516     621.5126     914.8655     556.5094     82.21991     163.9203     327.4825      1.370     2.60     950.5181     57.72412     122.1529         5     0.704     0.489 -78.70   0
       655    213.6736     33.9165 307.8554041  +6.6677139      769.184     1276.643     1275.947     82.21991     164.1153     327.5151      1.812     4.12     947.7802     57.72412     142.2825         9     1.136     0.898 -87.11   0
       656    267.6047     32.9779 307.8330252  +6.6699153     827.9503     1249.288     1451.606     81.69952     163.5295     327.2545      1.722     5.66     947.5542     57.72412     105.3119         9     1.147     0.788 -73.28   0
       657    190.6508     30.9773 307.8650704  +6.6681529     11050.96      16722.7     16897.91     81.56891     163.8552     327.3523      1.596     3.30     948.2202     57.72412       1485.6        37     1.410     1.132  54.58   0
       658      3.5608     31.0861 307.9428085  +6.6618065     1188.772      1926.49     2145.969     82.09012     158.2273     281.1254      1.666     5.90     950.5704     57.72412     156.2054        15     1.361     0.937  31.94  24
       659    534.8407     29.2543 307.7221002  +6.6804254     3127.462     4482.993     4531.969     81.96013     163.7901     327.4825      1.544     3.20     927.9806     57.72412     423.8822        21     1.301     0.953  47.50   0
       660    936.1893     28.7010 307.5553291  +6.6940829     4807.625     6248.706     6344.404     81.82993      163.399     327.2545      1.325     2.77     919.6027     57.72412     870.4806        21     1.179     0.859  61.39   0
       661    222.4182   1021.2911 307.8183871  +6.2603402     451.7196     736.4681      614.811     81.82993     159.1679     283.1661      1.590     4.06     969.6793     57.72412     92.44202         5     0.959     0.491  86.38  16
       662   1000.8199     25.3284 307.5285829  +6.6976327      2318.49     3227.379     2784.542     81.69952     163.6599     327.4174      1.366     3.32     914.3281     57.72412     357.9869        14     1.151     0.695  50.82   0
       663    535.1003     23.5500 307.7221847  +6.6827893     2410.756     2262.934     2042.757     82.09012     163.7901     327.6453      0.636     2.35     927.8535     57.72412     999.7136         5     0.557     0.300  88.99   0
       664    720.3896     21.4748 307.6452540  +6.6898529     8068.201     11062.69     10943.45     81.69952      163.399     327.2871      1.474     2.98     925.2339     57.72412     1195.553        28     1.292     0.945  51.81   0
       665    640.5740     20.7211 307.6784486  +6.6874919     3996.146     5770.164     5650.934     81.96013      163.725     327.4174      1.521     3.05     926.5394     57.72412     544.8182        25     1.281     1.000  51.22   0
       666    342.6772     20.4458 307.8022527  +6.6776126     994.4901     1308.008     1691.735     81.96013     163.8552     327.4825      1.584     4.67      941.498     57.72412     130.1138        10     0.982     0.738  88.45   0
       667    984.7696   1020.2119 307.5018680  +6.2863088     668.0693     979.1003     1005.159     81.56891     163.5295     297.2025      1.484     4.25      955.248     57.72412      95.6853         7     0.890     0.580  55.23  16
       668    396.0434     19.0469 307.7801233  +6.6799827     760.1588     1212.189     1244.527     82.09012      163.725     327.4174      1.744     5.64      935.368     57.72412     128.2144         8     1.175     0.762  45.18   0
       669    713.1051   1019.6160 307.6146963  +6.2774815     581.7362     488.5545     689.5553     81.82993     163.5947     304.0128      1.375     6.19     962.5919     57.72412     71.58502         8     1.247     0.862  49.57  16
       670    687.6876     15.8100 307.6590350  +6.6910973     1090.955     1546.997     1392.423     81.69952     163.4643     327.3197      1.582     3.34     925.5312     57.72412     141.4545        11     0.939     0.802  47.16   0
       671    626.1677   1016.6333 307.6508966  +6.2758043     523.2527     714.9219     750.6207     81.56891     163.5295     326.9938      1.700     4.23     964.2237     57.72412     94.50684         5     1.114     0.458 -57.55  16
       672    761.7173   1012.2836 307.5947568  +6.2821344     9286.979     12711.49     12965.53     81.82993     164.0503     327.5802      1.404     2.91     960.8956     57.72412     1432.998        30     1.308     0.947  57.11   0
       673    527.3285   1014.3129 307.6920164  +6.2734524      1302.54     1665.503      1490.19     82.21991     164.0503     327.4825      1.313     3.31     966.5797     57.72412     206.0119        11     1.018     0.773  52.83   0
       674    557.1407   1012.8386 307.6796869  +6.2750599     4982.917     6641.535     7390.158     82.09012     163.8552     327.5477      1.424     2.86     965.9144     57.72412     830.3945        23     1.253     0.901  69.56   0
       675    307.2852   1011.6586 307.7834741  +6.2671681     17534.96     23432.03      24542.5     82.09012     163.7901     327.5802      1.415     2.84     969.5767     57.72412      2847.44        38     1.310     1.017  54.03   2
       676    311.3034   1008.6783 307.7819063  +6.2685335     1151.662     1827.927     2269.495     81.82993     164.0503     327.5477      1.797     3.54     969.5302     57.72412     184.5293        11     1.147     0.656  49.49   3
       677      3.8497   1012.7002 307.9094288  +6.2565348     944.3015     1141.902     1001.213     82.09012     160.7676     285.4165      1.420     4.47     971.4691     57.72412     169.6946        10     1.206     0.814  87.07  16
       678    431.5801   1011.9185 307.7318549  +6.2712316     1156.514     1635.258     1343.013     81.69952     163.4643     327.4174      1.286     3.04      966.967     57.72412     206.8071         8     0.963     0.545  71.27   0
       679    736.9824     27.4130 307.6381585  +6.6879564     2233.391     3101.138     2491.811     81.82993     163.4643     327.3849      1.457     3.42     925.1053     57.72412     310.8964        16     1.214     0.822  49.30   0
       680    278.5736   1009.1647 307.7954800  +6.2672336     1160.696     1377.238     1508.642     81.56891     163.5295      327.222      1.386     3.35     969.5039     57.72412     166.3478        10     0.886     0.785  62.05   0
       681    923.0659   1005.7258 307.5279766  +6.2902315     10446.11     14278.39     14864.98     82.21991     163.7901       327.45      1.446     3.05     956.4586     57.72412     1637.125        33     1.309     1.009  59.14   0
       682    641.0016   1007.4431 307.6450461  +6.2800954     568.9739     782.6856     1039.254     81.43808     163.4643     327.1568      1.237     4.22     963.8909     57.72412     123.9756         5     1.001     0.518 -78.08   0
       683    554.3654   1005.0020 307.6811032  +6.2782026     9565.723     12912.42     13297.75      81.1758     163.5947     327.2871      1.393     2.72     965.8199     57.72412     1638.576        29     1.298     0.912  58.91   0
       684   1018.4012   1001.4026 307.4885328  +6.2951969     5614.027     7850.206     7497.111     81.43809     163.3338     316.1175      1.532     3.14     953.5031     57.72412      833.821        29     1.368     0.984  55.31  16
       685    896.6902   1001.9801 307.5390550  +6.2908977      14608.7      20162.9     21330.83     81.96013     163.5295     327.3197      1.434     2.86     956.8187     57.72412     2299.273        40     1.319     1.081  36.93   0
       686    822.7863   1011.4222 307.5694268  +6.2845309     1273.298     1968.953     1861.198     81.82993     163.5947     327.3849      1.633     4.60     959.0939     57.72412     231.2156        11     1.155     0.664  66.11   0
       687    609.3798   1002.2864 307.6583504  +6.2811661       1437.7     2018.883     2192.413     81.82993     163.5295     327.3523      1.488     3.11     964.1293     57.72412     244.1812        12     1.068     0.755  55.51   0
       688    541.0253   1001.0012 307.6867773  +6.2794077     4873.481     6833.202     7562.719     81.69952     163.4643     327.2545      1.534     3.78      966.054     57.72412     771.3767        28     1.638     1.011  28.48   0
       689    650.4903   1000.2191 307.6413490  +6.2833958     1522.056     1873.816     1930.647     81.96013     163.5295     327.3523      1.289     3.49     963.6222     57.72412     269.8436        11     1.066     0.674  66.90   0
