#   1 NUMBER                 Running object number                                     
#   2 X_IMAGE                Object position along x                                    [pixel]
#   3 Y_IMAGE                Object position along y                                    [pixel]
#   4 ALPHA_J2000            Right ascension of barycenter (J2000)                      [deg]
#   5 DELTA_J2000            Declination of barycenter (J2000)                          [deg]
#   6 FLUX_APER              Flux vector within fixed circular aperture(s)              [count]
#   9 FLUXERR_APER           RMS error vector for aperture flux(es)                     [count]
#  12 FLUX_RADIUS            Fraction-of-light radii                                    [pixel]
#  13 FWHM_IMAGE             FWHM assuming a gaussian core                              [pixel]
#  14 BACKGROUND             Background at centroid position                            [count]
#  15 THRESHOLD              Detection threshold above background                       [count]
#  16 FLUX_MAX               Peak flux above background                                 [count]
#  17 ISOAREA_IMAGE          Isophotal area above Analysis threshold                    [pixel**2]
#  18 A_IMAGE                Profile RMS along major axis                               [pixel]
#  19 B_IMAGE                Profile RMS along minor axis                               [pixel]
#  20 THETA_IMAGE            Position angle (CCW/x)                                     [deg]
#  21 FLAGS                  Extraction flags                                          
         1    257.2048     18.4510 307.8328879  +6.6698819     629.9958     1185.963      1703.53      77.4349      155.553      311.013      2.174     5.85     827.5359     54.88662     98.34583        10     1.765     0.545  54.15   0
         2    179.7014     15.8970 307.8651689  +6.6683266     8367.991     16208.89     17290.58     78.05488     156.2332     311.2299      2.021     5.35     827.3102     54.88662     984.4247        49     1.904     1.181  47.79   0
         3    925.3616     13.8233 307.5554791  +6.6942036     3228.133     5991.678     6275.316     77.68348      155.491     311.1989      1.934     5.75     813.9827     54.88662     426.5518        29     1.718     0.970  49.88   0
         4    523.8302     14.0482 307.7222782  +6.6806613      2256.35     4542.867     5254.237     77.68348     155.8007     311.2918      2.143     6.02     817.2872     54.88662     269.4457        30     1.858     1.059  47.30   0
         5    462.3224     12.7599 307.7478728  +6.6791280     1365.356     2769.162     3411.955     77.93127     155.7388     311.4157      2.218     6.71     818.2231     54.88662     172.0325        23     1.894     0.870  52.47   0
         6    726.2881     12.4293 307.6382273  +6.6881182     1606.258     2978.493     3480.677     78.17829      155.491     311.2609      2.034     6.74     815.0931     54.88662       196.45        19     1.716     0.742  49.93   0
         7    990.2061     10.0278 307.5286677  +6.6979374     1620.354     2962.735     3353.386     77.55929      155.553     311.1989      1.974     5.44      809.676     54.88662     246.6507        23     1.542     1.026  61.39  16
         8    709.4801      6.5204 307.6454085  +6.6899947     6026.267     10648.88     10884.08      78.3015     155.9862     300.1932      1.910     5.25     815.2236     54.88662     785.2526        39     1.807     1.101  45.54  16
         9    629.7180      5.7175 307.6785708  +6.6876530     2838.343     5506.965     5641.909     77.80748     155.9862      292.714      2.002     5.77     816.2427     54.88662     355.9509        31     1.782     1.024  52.85  16
        10    331.8259      5.6660 307.8023218  +6.6776708     738.5413     1312.385     1014.865     77.68348     155.6769     292.0546      1.771     5.18     827.3851     54.88662     116.8161         8     1.228     0.618  80.21  16
        11    386.0587      4.9511 307.7798171  +6.6797895     514.8759     783.3513     748.5504     78.05488     155.7388     284.4631      1.402     3.71     824.1719     54.88662     90.96942         5     0.634     0.625  15.66  16
        12     31.1923      2.3601 307.9273163  +6.6689089     6594.385     9644.664     10338.41     76.93531     137.6681     250.1674      1.601     4.16      827.936     54.88662     809.2823        29     1.433     1.051  31.79  24
        13    430.1441      2.4917 307.7615865  +6.6822864     5068.785     7779.799     8243.213     77.93127     139.4077     252.4689      1.684     5.03     820.2299     54.88662     644.0854        28     1.512     1.028  36.48  24
        14    326.0272      1.5512 307.8048696  +6.6791746     331.4734     476.7389     740.7172      69.9799     126.8819     237.7598      1.362     4.22     827.3896     54.88662     82.16229         5     1.534     0.331 -28.60  24
        15    811.7970    996.6893 307.5696616  +6.2846049     822.8657     1523.085     1738.847      77.4349      155.429      311.075      2.179     6.74     846.7985     54.88662     97.62061        13     1.551     0.822  56.03   0
        16    717.8970   1022.3705 307.6077772  +6.2708598     5152.597     8896.193     9436.499     78.17828     141.0576     254.6361      1.892     5.71     849.9267     54.88662     651.5186        33     1.784     1.019  33.61  25
        17    710.5432   1022.2264 307.6108345  +6.2706731     894.6514     1575.847     1662.559     77.68348     142.8234     256.4092      1.888     6.54     849.9407     54.88662     115.9969        14     1.435     0.836  54.09  25
        18    584.0164   1023.5422 307.6633098  +6.2658913      13072.1     18236.01     19739.27     69.14843     125.5837     236.0508      1.361     3.89     850.7707     54.88662     3113.724        35     1.744     0.746  -1.36  25
        19    574.1523   1021.7032 307.6674660  +6.2663199     3203.472     6103.667     6985.358     78.05488     148.0597     263.9311      2.099     5.33     850.9808     54.88662     392.3124        35     1.846     1.178  39.33  24
        20    432.4190   1022.3826 307.7262736  +6.2612848     2814.295     5045.105     5902.362     77.80748     140.8524     254.1055      2.061     7.22     852.0776     54.88662     368.1476        28     1.908     0.951  33.32  24
        21    213.5214   1023.7632 307.8170846  +6.2533588     737.5173     906.1129     1028.269     66.59175     122.5534     232.8849      1.188     3.70     851.0069     54.88662     151.4777         6     0.927     0.425  -1.12  24
        22    421.6150    997.8351 307.7315848  +6.2710570     729.3359     1225.694     1334.502     77.68348      155.491     311.2299      1.815     4.19     851.4987     54.88662     136.0668         8     1.095     0.679  60.41   0
        23    268.7225    994.9329 307.7951450  +6.2671182     664.5144     955.5535     1138.106     78.17828     155.8007     311.3538      1.441     4.27     851.1718     54.88662     122.7875         7     0.799     0.649  88.31   0
        24    912.2748    990.9702 307.5281446  +6.2903251     6382.937     13011.45     14387.68     77.93127     155.7388     311.3847      2.168     5.19     846.3934     54.88662     706.5189        50     1.967     1.299  46.65   0
        25    885.8170    987.1188 307.5392565  +6.2910311     9215.918      18736.4     21030.02     77.68348      155.429     311.2609      2.179     5.21     846.2914     54.88662     1091.036        54     1.992     1.326  45.17   0
        26     41.9792    989.6548 307.8894370  +6.2616651     409.6398     829.0963     720.6426     77.55929     155.7388     311.1989      1.548     6.18     849.4155     54.88662     93.60852         7     2.164     0.496  46.56   0
        27   1007.5632    986.6321 307.4887349  +6.2952985     3425.142     7385.169     8326.062     77.68349      155.491      311.137      2.256     6.08     840.3742     54.88662     377.4309        40     1.994     1.249  46.47   0
        28    598.7717    987.5539 307.6583949  +6.2812444     1018.331     1953.239     2272.332     77.55929     155.8007     311.2918      2.174     6.11     849.9231     54.88662     144.2167        14     1.552     0.677  50.43   0
        29    529.8953    986.1026 307.6870338  +6.2795344     3118.222     6219.965     6923.674     78.05488     156.2949     311.2299      2.179     5.89     851.0122     54.88662     409.9205        37     1.867     1.140  41.57   0
        30    640.1766    986.2675 307.6412511  +6.2831630     1104.099     2226.184     2960.337     77.68348     155.6769     311.3228      2.223     3.20     849.4241     54.88662     179.0885        10     0.878     0.819 -23.88   2
        31     65.0140    985.5304 307.8800155  +6.2641440     536.2798     997.4575     1259.139     77.55929      155.615     311.2918      1.994     4.23     849.1427     54.88662     75.52417         5     0.772     0.661 -87.33   0
        32    483.0975    982.6158 307.7065765  +6.2794041     1600.165     3214.261     3554.631     78.05488      155.491     311.1989      2.189     6.45     851.3087     54.88662     207.2794        25     1.806     0.998  54.48   0
        33    917.5688    974.6773 307.5264930  +6.2972289     32164.18     64173.62     72304.63     77.93128     155.8007     311.3538      2.144     5.05     845.5046     54.88662     3813.866        93     2.108     1.439  49.10   0
        34    224.7303    972.8826 307.8141489  +6.2747425     1308.293     2417.607     2319.239      78.3015     155.9862     311.4157      1.950     6.40     850.1663     54.88662       206.54        18     1.707     0.958  43.01   0
        35    624.1135    971.4702 307.6484161  +6.2887342     763.9612     1085.993     1136.051     78.17828     155.9862     311.4157      1.738     6.09     849.3505     54.88662     83.00696        11     1.330     0.784  84.71   0
        36    815.7949    968.5057 307.5689475  +6.2963749     1957.163     3440.501     3917.049     77.80748      155.429      311.137      1.935     4.79     846.5354     54.88662     235.1398        23     1.536     0.977  44.11   0
        37    763.6910    966.2296 307.5906527  +6.2955717     5132.995     10051.65     11545.42     78.17829      155.491     311.3228      2.153     5.25     847.4706     54.88662     637.8707        46     1.972     1.220  47.14   0
        38    233.4597    965.4952 307.8107748  +6.2780861      1158.65     2112.451     1864.958     77.93128     155.7388     311.4776      1.883     5.50      850.114     54.88662     180.5025        17     1.693     0.817  62.61   0
        39    550.4509    965.7980 307.6791842  +6.2886069     704.9127     1143.692     1218.036      77.4349      155.367      310.982      2.128     6.12     850.3711     54.88662     90.42316        10     1.374     0.767  37.14   0
        40     58.1126    963.4028 307.8836279  +6.2730470      2061.56     3848.756     4326.919     77.43489      155.367      311.137      2.068     6.15     848.3509     54.88662     268.6165        27     1.967     0.938  47.51   0
        41    197.8146    964.5149 307.8256035  +6.2772917     718.2695     1206.636     889.5124     77.68348      155.491     311.2609      1.890     6.29     849.5078     54.88662     95.90509        11     1.421     0.782  38.23   0
        42    951.9047    961.3926 307.5126848  +6.3038609     4896.574     9833.504     10701.27     77.80748      155.367     311.1989      2.097     5.11     843.3094     54.88662     565.1241        43     1.907     1.207  48.55   0
        43    634.2524    956.3438 307.6447158  +6.2953192     599.5519     1029.884      906.317     78.05488     155.7388     311.3538      2.017     4.96     848.9725     54.88662     94.35492         5     1.079     0.646  63.90   0
        44    925.9120    953.2213 307.5237486  +6.3063664     1530.679     2970.676     3105.363     78.05488      155.553     311.2609      2.041     6.43     844.0899     54.88662     218.0778        25     1.840     1.039  47.09   0
        45    785.4996    949.8666 307.5821488  +6.3030572     1072.834     1868.799     2466.806     78.05488     155.8625     311.3538      1.819     5.40     846.8344     54.88662     172.3634        14     1.435     0.750  49.65   0
        46    646.4273    948.9575 307.6399101  +6.2987767     3503.923     6840.992     7257.451     77.68348     155.7388     311.2609      2.023     5.01     848.6501     54.88662     483.1364        34     1.783     1.095  46.94   0
        47    258.5535    949.1656 307.8009096  +6.2856719     3340.515     6463.558      6771.98     77.68348     155.6769     311.3228      1.984     5.53     850.2461     54.88662     423.3574        32     1.742     1.096  52.29   0
        48    468.7833    947.8184 307.7136895  +6.2932905      731.067     1375.136     1522.573     77.80748      155.491     311.3228      2.187     5.97     850.2808     54.88662     136.1381         9     1.566     0.640  44.39   0
        49     27.1026    946.4025 307.8970740  +6.2790207     1626.508     3391.128     3336.016     77.68348      155.491      311.075      2.080     6.72     847.6495     54.88662     217.9244        25     2.000     0.880  48.83   0
        50    878.2440    945.3890 307.5437991  +6.3080073      753.487     1577.381     1449.276     77.55929      155.615      311.106      2.336     6.35     845.0787     54.88662     96.65503        12     1.513     0.748  43.00   0
        51    294.1760    942.8725 307.7863352  +6.2894678     551.7183     1124.477      1545.48     77.68348      155.615     311.3228      1.992     4.34     850.7239     54.88662     97.71771         5     1.506     0.356  84.66   0
        52    571.0969    941.5339 307.6714300  +6.2993171      1337.56     2461.332     2206.104     78.05488     155.8007     311.4157      1.993     6.03     849.6248     54.88662     177.5865        19     1.650     0.904  50.85   0
        53   1003.5229    941.7991 307.4919131  +6.3136743     590.7847     1081.426     1317.255      77.3103     155.1807      311.137      2.186     4.42     840.5468     54.88662     98.20911         5     0.907     0.613  49.15   0
        54     60.8722    939.2874 307.8832975  +6.2830962      659.825     1110.828     1313.929     78.17828     155.9862     311.3847      1.875     6.43     847.5006     54.88662     98.50232         9     1.379     0.841  44.35   0
        55    610.3073    937.8465 307.6552774  +6.3021538      998.422     1878.305     1406.999     77.93127     155.6769     311.5085      1.891     5.78     849.1307     54.88662     138.2283        14     1.495     0.793  54.06   0
        56    290.1903    935.6920 307.7882318  +6.2922984     1203.144     2162.922     2363.145     77.68348      155.367      311.137      2.230     6.56     850.6201     54.88662     149.2935        15     1.635     0.738  45.39   0
        57    756.9564    931.8490 307.5946023  +6.3095412      699.778     1355.004     1697.442     78.05488     155.6769     311.3228      2.293     6.73     846.7951     54.88662     95.04022        11     1.544     0.822  46.08   0
        58    894.6078    928.3521 307.5375772  +6.3155884     5189.163     10042.75     10960.08     77.55929      155.615      311.044      2.053     5.29     843.8979     54.88662     641.2964        43     1.952     1.159  51.32   0
        59    430.4642    925.5298 307.7303464  +6.3012066     1607.141     3171.661     3605.686     78.05488     155.8007     311.3847      2.008     5.42      849.967     54.88662     248.4022        26     1.829     1.054  50.48   0
        60    332.1651    923.8128 307.7712086  +6.2986137     7469.128     14419.19     15759.08     77.55929      155.553     311.1989      2.028     5.44     850.4077     54.88662     1020.646        45     1.849     1.161  47.37   0
        61    252.1760    922.7431 307.8044482  +6.2963663     5448.706     10589.85     11543.42     77.68348     155.7388     311.1989      2.056     5.39     849.6846     54.88662     705.6447        40     1.795     1.175  48.11   0
        62    581.0130    917.9972 307.6681052  +6.3093672     1009.195      1543.91     1469.035     77.68348      155.429     311.2299      1.603     4.60     849.0453     54.88662     128.0505        10     1.087     0.784  81.51   0
        63    910.6600    913.3723 307.5314155  +6.3223096     873.6245     1418.553     1598.841     77.68349     155.8007     311.2918      1.674     6.00     843.1002     54.88662     135.6631        12     1.560     0.766  62.80   0
        64    867.2856    912.6632 307.5494454  +6.3211527     628.2644     1154.679     794.0731     78.17829     155.8625     311.4157      1.417     4.79     844.7311     54.88662      116.121         9     1.459     0.446  87.11   0
        65    143.0054    913.7302 307.8500686  +6.2964139     449.9421     806.2157     804.9583     77.55929      155.367     311.2299      1.660     3.74     847.8857     54.88662     90.24481         5     1.218     0.331  65.38   0
        66    408.8744    912.0642 307.7397620  +6.3060412     530.2117     718.6494     1169.641     78.17828     155.7388     311.3538      1.643     4.52     849.7278     54.88662     87.22827         5     1.196     0.485  22.42   0
        67    746.5472    906.5308 307.5997733  +6.3196461     1259.579     2340.693     2384.605     77.93128      155.615     311.3228      1.933     6.72     846.1987     54.88662     173.6035        20     1.837     0.961  53.12   0
        68    840.5835    907.8837 307.5606906  +6.3222333     444.3107     600.7383     627.9372     77.68348      155.429     311.2918      1.471     3.49     845.1561     54.88662     77.68567         5     0.785     0.447  71.15   0
        69    978.3737    902.8145 307.5036589  +6.3289306     883.0457     1878.437     2419.237     77.80748      155.553     311.3228      2.585     7.42     840.3375     54.88662     129.9471        15     1.566     0.984  71.55   0
        70    532.5834    903.2801 307.6887042  +6.3138195     663.0655     863.5356     863.8451     77.68349      155.491     311.2299      1.320     3.44     849.1063     54.88662     133.7542         5     0.769     0.444  63.64   3
        71    531.1114    901.0000 307.6893920  +6.3147115      801.303     1322.722     1330.518      77.3103     155.2428      311.044      1.564     3.69     849.0666     54.88662       138.63         7     0.934     0.750  -8.08   2
        72    665.0797    899.8469 307.6338173  +6.3196780     1902.817     3665.283     4110.088     78.05488     155.7388     311.3847      2.114     5.49     847.4084     54.88662      262.749        26     1.821     0.957  43.75   0
        73     61.7778    895.8391 307.8843901  +6.3010646     2302.029     4481.335     4501.422     77.68348      155.491     311.1679      2.027     5.28     846.6821     54.88662     269.0585        27     1.652     1.075  48.53   0
        74    827.1296    896.7228 307.5666501  +6.3263915     640.7979     928.6104     856.6156      78.3015     155.9862     311.3847      1.656     5.52      845.145     54.88662     98.69055         8     1.027     0.836  40.10   0
        75     79.5769    895.4000 307.8770167  +6.3018455     1387.788     2739.116     2934.542     77.55929      155.367     311.1989      2.093     6.49     846.7417     54.88662     172.7061        22     1.689     1.072  50.84   0
        76    943.9310    895.1554 307.5182140  +6.3309426     659.5043     1145.457     867.4998     78.05488     155.6769     311.4157      1.687     4.64     841.6373     54.88662     155.7208         9     1.149     0.950  41.23   0
        77    205.7048    894.8777 307.8246787  +6.3063076     1722.897      3171.02     3187.241     77.80748     155.9244     311.4157      1.975     5.47     848.6385     54.88662     240.9009        22     1.660     0.908  42.13   0
        78    345.0064    891.8998 307.7669538  +6.3122210     690.2405     1012.413     1639.487     77.80748      155.367     311.1679      1.751     5.00     849.5657     54.88662     118.6334         9     1.198     0.783  89.48   2
        79    239.9589    892.1325 307.8105523  +6.3085934     679.5974     1140.305     1130.558     77.93127     155.6769     311.4467      1.728     4.74     849.1769     54.88662     94.59283         6     0.940     0.679 -45.49   0
        80    798.0077    890.8500 307.5789367  +6.3278422     541.3323      767.258     508.8829     77.55929      155.491      311.075      1.565     4.16     845.4534     54.88662     93.91125         5     1.096     0.604  89.39   0
        81    659.8447    888.8975 307.6363584  +6.3240233      5243.53     10130.37     10805.13     78.05488     155.6769     311.5704      2.024     5.41     847.3073     54.88662      668.979        40     1.875     1.092  45.89   0
        82     19.7652    887.2495 307.9021197  +6.3031950     1021.223     1657.602     1855.777     77.93127     155.7388     311.3228      1.745     6.10     846.4028     54.88662     121.4979        13     1.319     0.792  49.06   0
        83    897.5293    885.1784 307.5378116  +6.3335115     2108.399      4184.99     4701.168     77.68348      155.615     311.3538      2.165     6.31     843.2195     54.88662     238.0724        29     1.834     1.290  36.59   0
        84     32.6611    885.6033 307.8968223  +6.3043093     874.6793     1537.552     1616.269      77.4349      155.491      311.106      1.814     7.38     846.4371     54.88662     144.5923        14     1.582     0.967  58.93   0
        85    342.8953    882.0347 307.7681627  +6.3162230     12653.12     24197.58     26851.28     78.17828      155.615     311.4776      2.050     5.20      849.323     54.88662     1631.418        56     1.914     1.211  47.99   0
        86     77.9200    883.3188 307.8781127  +6.3067775      946.545     1780.384     1652.744     78.17828     155.9862     311.5395      2.011     6.61     846.5499     54.88662     147.8954        13     1.516     0.808  55.24   0
        87    213.9722    881.6615 307.8216929  +6.3120422     989.3909     1913.741     1775.578     77.68348     155.8007     311.3538      2.009     6.35     848.6702     54.88662     147.9261        14     1.598     0.709  48.22   0
        88    420.6621    872.7397 307.7361933  +6.3226728     837.3389     1328.703     1742.948     78.05488     155.7388     311.4157      1.819     5.82     848.5971     54.88662     140.7245        10     1.613     0.591  34.53   0
        89    106.2442    872.5990 307.8667175  +6.3121574     1317.578     2667.987     2624.857      77.4349      155.429      311.013      2.068     6.28     846.5968     54.88662     188.8602        22     1.661     1.084  50.21   0
        90    501.9708    870.4395 307.7025173  +6.3263515     627.5474     865.0219     966.3622     77.55929      155.429     311.2609      1.466     3.97     848.4626     54.88662     111.1693         7     1.049     0.689 -77.14   0
        91    674.6619    868.8339 307.6308813  +6.3328034     622.5944     1119.734     1744.831     77.93127     155.8007     311.3228      1.782     5.71     846.7927     54.88662     86.48773         8     1.494     0.615  57.70   0
        92    888.0166    867.0378 307.5423689  +6.3406834     1478.352      3057.98     3082.601     77.68348      155.615      311.137      2.051     6.69     843.2507     54.88662     188.9684        21     1.661     0.929  48.17   0
        93    858.6581    866.5306 307.5545740  +6.3399115     1540.575     2783.224      2921.51     78.17829     155.7388     311.3538      1.910     6.68     843.9426     54.88662     200.8402        21     1.812     0.875  38.71   0
        94    822.1123    865.8334 307.5697692  +6.3389772     2365.099     4792.309     5288.947     78.17828      155.615     311.3847      2.146     5.68     844.4378     54.88662     307.6484        31     1.783     1.122  51.61   0
        95     89.8311    866.1607 307.8737482  +6.3142626     1813.707     3646.787     3929.769     77.68348      155.553     311.2299      2.096     5.80     846.3168     54.88662     225.2026        27     1.738     1.038  47.80   0
        96    557.9732    857.2582 307.6797124  +6.3336721     261279.7     493554.5     538712.5     77.68348     155.8007     311.2299      2.018     5.34     847.8438     54.88662     34513.39       210     2.124     1.463  47.43   0
        97    402.2224    859.8292 307.7442830  +6.3273839     5774.407     11083.36     12135.86     77.55929      155.553     311.2299      2.017     5.36     848.3143     54.88662     801.7009        38     1.847     1.075  48.41   0
        98    345.4344    858.2404 307.7679107  +6.3261322     9493.976     18143.12     19985.37     77.80748     155.7388     311.1989      2.031     5.17     848.6787     54.88662     1270.527        52     1.884     1.251  48.56   0
        99    645.5300    860.2820 307.6432625  +6.3353583      972.589     1562.134     1293.859      78.3015     155.9862     311.4157      1.820     5.65     846.8714     54.88662     161.7538        12     1.279     0.702  34.24   0
       100    896.3779    853.5436 307.5393501  +6.3465343     3963.347     7652.583     8750.254     77.68349     155.6769     311.1989      2.097     5.57     842.7788     54.88662     476.7333        36     1.918     1.087  49.45   0
       101    663.8703    854.5045 307.6358428  +6.3383581      2823.16     5539.273      6350.93     77.93127     155.8007     311.3847      2.102     5.00     846.5375     54.88662     350.3821        37     1.831     1.257  40.89   0
       102    736.1092    851.6562 307.6059489  +6.3419531      767.069     1151.943     1171.866     77.93127      155.615     311.5085      1.599     5.40     845.1014     54.88662      113.559        10     1.175     0.701  48.00   0
       103    638.6434    848.6225 307.6465133  +6.3399415     2645.177     4793.236     5542.019     77.55929      155.615     311.1989      1.997     5.08     846.5363     54.88662     334.6617        25     1.670     0.919  48.08   2
       104    629.6334    848.6868 307.6502516  +6.3396131     620.9896     1230.161     1554.711     78.05488      155.615     311.3847      1.982     5.50     846.6083     54.88662     101.0113        10     1.261     0.676 -74.18   3
       105    631.5712    843.2403 307.6496302  +6.3419268     1679.298     3185.476     3960.781     77.68349      155.491     311.2609      2.175     6.19     846.3696     54.88662     233.0909        22     1.872     0.807  47.72   3
       106    827.1435    847.7742 307.5682864  +6.3466018     1341.109     2540.305     2578.309     77.68348     155.7388     311.1989      1.965     5.90      844.024     54.88662     162.8897        19     1.644     0.833  56.00   0
       107    182.3978    848.3943 307.8359228  +6.3247145     452.5276     737.7361     787.4012      77.4349      155.429     311.1989      1.589     3.91     847.5007     54.88662     59.92926         5     1.057     0.414  74.43   0
       108    954.5022    846.8599 307.5154435  +6.3512359     658.4537     1072.973     1056.198     77.80748     155.7388     311.5085      1.738     5.63     840.2302     54.88662     92.49445         9     1.374     0.650  66.42   0
       109    915.3604    841.3641 307.5318777  +6.3521973     2431.346     4410.932     4621.064     77.80748      155.615     311.1989      1.965     4.88     842.0787     54.88662     328.5562        29     1.852     1.003  43.04   0
       110    325.4842    842.2840 307.7767305  +6.3320496     663.0333     1299.913     1417.033     77.80748     155.8625     311.4776      1.988     5.94     848.4271     54.88662     117.6071         9     1.502     0.660  48.91   0
       111    373.3180    837.1219 307.7570472  +6.3357882     2107.112     3937.987     4068.224     78.17828     155.9862     311.5085      1.939     5.69     847.8642     54.88662     265.3636        22     1.648     0.933  52.92   0
       112    854.5012    825.9727 307.5576600  +6.3565180     807.6264     1440.957     2235.652     78.17828      155.491     311.3538      2.002     6.43     843.0171     54.88662     98.27063        14     1.651     0.704  50.12   0
       113    574.8209    824.7603 307.6738112  +6.3476545     621.5044     840.0789     834.8717     77.68348      155.553     311.1679      1.584     4.37     846.3707     54.88662     114.2349         8     1.031     0.739  48.95   0
       114    556.3710    823.0481 307.6815283  +6.3477428     4819.336     9185.328        10200     77.68348     155.8007     311.2918      2.013     5.16     846.6017     54.88662     635.1167        38     1.858     1.086  47.96   0
       115    563.4694    822.5536 307.6785980  +6.3481849     858.5932     1613.336     2283.458     78.05488     155.6769     311.3847      2.012     6.55     846.4884     54.88662     132.7384        12     1.762     0.683  52.13   0
       116    267.8574    823.6814 307.8012804  +6.3377926     547.3879     972.7158     522.1362     78.17828     155.7388     311.4157      1.660     5.26      848.004     54.88662     73.28925         7     1.140     0.687  57.61   0
       117    892.4191    821.6322 307.5420634  +6.3595776     1113.476     2200.348     2531.096     77.55929      155.553     311.2299      1.968     4.90     842.1766     54.88662      152.333        14     1.453     0.842  52.61   0
       118    474.2030    822.0600 307.7156732  +6.3453942     1335.976     2179.003     1786.712     77.43489      155.491      311.106      1.698     6.48     846.9449     54.88662     198.4772        17     1.556     0.758  42.16   0
       119    115.7947    821.2134 307.8644891  +6.3336940     1082.563     1959.833     2069.567     77.68348      155.491     311.2609      1.783     6.00     846.0861     54.88662     160.5178        14     1.609     0.630  56.55   0
       120    692.6845    821.2675 307.6249973  +6.3530460     604.2452     806.9328     770.9081      78.3015     155.9862     311.4157      1.578     3.40     845.1965     54.88662     103.1668         5     0.748     0.447 -77.69   0
       121    527.1167    816.9630 307.6938779  +6.3492740     15471.58     29137.21     31496.51     78.05488     155.6769     311.3228      1.991     5.33       846.62     54.88662     2128.017        59     1.912     1.208  47.28   0
       122    509.6507    826.9179 307.7007938  +6.3445779     2413.416     4675.459     4599.006     78.05488     155.8007     311.4157      2.054     5.59     847.0282     54.88662      316.937        27     1.728     1.033  48.71   0
       123    940.7694    815.2141 307.5222052  +6.3638431     3057.274     5837.622     5946.083     77.68348      155.491     311.3228      1.971     5.37      840.597     54.88662     369.0635        30     1.889     0.950  48.87   0
       124     38.0044    807.7424 307.8972369  +6.3366347     1282.687     2233.062     2255.835     77.43489      155.615      311.106      1.868     4.75     845.6978     54.88662     161.2595        19     1.517     0.819  52.85   0
       125    319.6259    805.8193 307.7803919  +6.3469077     2644.588     5080.421     5563.083     77.55929      155.491     311.2918      2.036     5.68     847.4055     54.88662     360.9922        28     1.799     0.954  47.75   0
       126    785.2589    801.5355 307.5872267  +6.3642916     43430.19     80414.02     88042.43     78.17829     155.6769     311.4157      2.008     5.28     844.0507     54.88662     5819.912        95     2.011     1.318  46.63   0
       127     19.5072    803.7753 307.9050496  +6.3376490     1674.951     3305.542     3642.505     78.17829      155.491     311.2299      2.139     6.00     845.6616     54.88662     229.0465        26     1.802     1.040  40.77   0
       128    724.8376    803.9338 307.6122309  +6.3612792     623.5881     1001.807     1171.541     77.93127     155.6769     311.4776      1.747     4.65     844.7392     54.88662     86.89459         7     1.137     0.541  32.02   0
       129    241.8875    777.7839 307.8136102  +6.3558685     758513.6      2026944      2361560     77.80748      155.491     311.2609      2.572     8.25     846.7177     54.88662        63103       690     2.922     2.223  62.25   4
       130    428.9423    800.2333 307.7351980  +6.3528864     724.2946     1337.507     1134.611     77.93127     155.8007     311.3538      1.752     6.16     846.2068     54.88662     124.6012        11     1.520     0.702  45.53   0
       131    713.7314    796.2573 307.6170996  +6.3640768     17384.29     32217.06      35898.3     78.17828     155.6769     311.3228      1.980     5.18     844.5056     54.88662     2198.993        53     1.817     1.163  64.57   3
       132    707.2386    792.6507 307.6199163  +6.3653485     68868.44     130149.4     144378.9     77.80748     155.6769     311.3538      2.045     5.23       844.41     54.88662     9136.159       108     2.131     1.347  46.18   3
       133    910.5328    796.7724 307.5353766  +6.3704470       6472.5     12178.61     13841.96     77.68348     155.6769     311.2918      2.020     5.10     841.2612     54.88662     788.0489        44     1.961     1.124  44.01   3
       134    907.5096    788.1885 307.5369195  +6.3738901     5226.926     10038.98     11397.67     77.80748      155.429     311.1989      2.112     5.09     840.9944     54.88662     681.7996        50     2.059     1.197  49.34   3
       135    352.0635    793.4261 307.7673435  +6.3531146     16027.88     30526.84     33741.93     77.68348     155.7388     311.3228      2.027     5.34     846.7807     54.88662     2041.647        60     1.957     1.217  46.77   0
       136    401.3011    793.6415 307.7468953  +6.3546797     1073.365     2146.355     1656.882     78.05488      155.615     311.6014      1.993     7.27     846.1967     54.88662     135.7132        20     1.723     1.002  57.69   0
       137    413.9654    791.2857 307.7417171  +6.3560777     17035.02     32294.77     35097.15     78.05488      155.615     311.3847      2.011     5.44     845.9178     54.88662     2181.927        62     1.925     1.245  45.18   0
       138    640.3105    792.1146 307.6477205  +6.3633280     500.5023     1304.359     1850.415     77.80748      156.048     311.5085      2.388     5.91     844.5988     54.88662     94.18915         8     1.850     0.531  43.65   0
       139    951.2953    790.3651 307.5186679  +6.3744543     1586.243     3044.824     3210.706     78.17829      155.615     311.4776      2.049     6.41      839.428     54.88662     190.8166        22     1.669     0.883  52.73   0
       140    880.7132    789.7383 307.5479928  +6.3723547      596.877     973.0415     1134.814     78.05488     155.9244     311.3847      2.091     5.23     841.6382     54.88662     97.42041         7     1.317     0.588  56.75   0
       141    647.9951    787.1818 307.6446960  +6.3656221      4906.35     9161.458     10072.32     77.68348      155.367     311.2299      1.971     5.48     844.4665     54.88662     676.8852        39     1.880     1.084  46.94   0
       142    436.5669    785.1210 307.7325417  +6.3593818     1382.857     2511.981     2620.865     77.93127     155.7388     311.3847      1.927     5.58     845.6379     54.88662     166.3907        23     1.649     0.991  38.73   0
       143    875.6606    778.3393 307.5504727  +6.3768922     544.1478     1079.132     1309.467     78.05488     155.7388     311.4157      1.696     3.63     841.4898     54.88662     95.71521         5     0.921     0.475  54.10   2
       144    602.3049    780.7490 307.6638811  +6.3667469       619.99     1150.523      1981.63     77.93127     155.6769     311.6014      2.221     4.03     844.5508     54.88662      97.4563         5     0.932     0.500   1.59   2
       145    683.1581    777.4295 307.6304251  +6.3708265     1822.034     3508.888     3840.511     77.68348      155.615     311.2609      2.024     5.86     844.0588     54.88662      239.887        22     1.743     0.889  48.43   0
       146    152.2954    778.1265 307.8507921  +6.3527120     745.0452     1336.352     1546.689     77.80748     155.8625     311.3847      2.001     5.92     845.5631     54.88662     169.2291        11     1.543     0.713  41.77   0
       147    127.7561    778.0840 307.8609807  +6.3519032      925.193     1587.267     1732.873     78.05488     155.7388     311.4157      1.879     6.95     845.3412     54.88662     118.0759        13     1.393     0.980  65.09   0
       148    416.8490    773.9606 307.7411036  +6.3633275     41576.26     79571.24      87019.6     78.05488     155.7388     311.2918      2.045     5.30     845.2613     54.88662     5480.434        90     1.996     1.333  46.44   0
       149    534.7188    772.9982 307.6922012  +6.3676808     5449.698     10192.27     10779.18     77.43489     155.3049      311.106      1.965     5.16     844.8701     54.88662     722.9359        39     1.822     1.077  51.45   0
       150    451.3369    771.5606 307.7268665  +6.3654763     3549.873     6700.452     8062.285     78.05488     155.6769     311.4157      2.062     5.38     845.1151     54.88662     433.1573        33     1.832     1.048  48.78   3
       151    448.1629    764.9880 307.7284056  +6.3680834     1775.611     3367.723     4224.579     77.55929      155.553      311.106      2.178     5.50     844.8506     54.88662     216.1831        23     1.629     0.940  45.88   3
       152    779.8555    769.7244 307.5905378  +6.3772449     9112.617     17039.15     18446.28     78.05488     155.6769     311.3228      2.005     5.09     842.8217     54.88662     1153.588        49     1.894     1.158  45.90   0
       153      9.2269    765.7399 307.9106036  +6.3530055     998.2349     1811.171     1999.817     77.68349     155.8007     311.2609      2.005     7.16     844.7505     54.88662      121.675        18     1.654     0.869  51.11  16
       154    801.4370    763.7058 307.5817797  +6.3804519     837.9191     1655.674     1948.833     78.17829      155.615     311.4776      2.097     6.17     842.4145     54.88662     127.9531        12     1.503     0.712  44.50   0
       155    145.7785    761.9781 307.8540430  +6.3591595     2283.183     4346.714     4895.706     77.80748      155.553     311.3847      2.018     6.02     845.0559     54.88662      282.744        27     1.859     0.934  42.54   2
       156    137.5860    761.5656 307.8574580  +6.3590540     8819.048     17178.88     18970.69     77.68349      155.491     311.2609      2.063     5.30     844.9895     54.88662      1077.66        49     1.946     1.184  44.42   3
       157    130.0235    759.1524 307.8606790  +6.3597956     2461.556     4572.247     5521.633     77.68348     155.7388     311.2609      2.158     5.86     844.8412     54.88662     307.0507        28     1.881     0.962  49.36   3
       158    129.7256    752.4355 307.8610296  +6.3625587     1503.859     3265.201     4160.191     77.93128     155.8007     311.3847      2.453     7.95     844.6502     54.88662     177.4742        27     2.012     1.011  62.01   3
       159    925.3951    758.2467 307.5304976  +6.3868501      4966.63     9221.058     10551.64      77.4349      155.553      311.075      2.018     5.03     839.3184     54.88662     674.2379        39     1.850     1.081  48.88   1
       160    974.8062    758.2726 307.5099819  +6.3884899     1147.845      2320.09     2946.662     77.68348     155.3049     311.2918      2.189     7.43     837.7299     54.88662     147.2232        18     1.680     0.920  41.65   0
       161    680.6990    755.9205 307.6321688  +6.3796247     1388.749     2432.006     2709.748     77.93127      156.048     311.4157      1.951     5.90     843.5319     54.88662     206.8291        19     1.528     0.918  45.82   0
       162    567.7966    755.1001 307.6790705  +6.3761797     1677.761     3320.611     3797.122     77.80748      155.491      311.044      2.015     5.81     844.0495     54.88662     217.6005        26     1.833     0.975  46.00   0
       163    415.8748    754.6433 307.7421589  +6.3712703     839.4044     1721.542     1375.146     77.93127     155.8007     311.4157      2.090     6.37     844.5778     54.88662     118.9622        12     1.483     0.865  60.68   0
       164    919.7573    750.3810 307.5331019  +6.3899093     2271.816     4693.356     5334.065     77.55929      155.615     311.1679      2.125     6.01     839.1681     54.88662     281.4174        32     1.948     1.055  48.75   1
       165    979.8646    749.6005 307.5081722  +6.3922394     1463.556     2992.698      3214.45      77.3103      155.429      311.137      2.057     5.99     837.5019     54.88662     217.9443        25     1.806     1.096  51.25   0
       166    949.0023    749.7505 307.5209809  +6.3911467     2284.949     4510.278     5049.678     77.43489      155.367      310.982      2.055     5.61     838.2999     54.88662     297.2499        29     1.808     1.061  49.32   0
       167    671.9293    749.4518 307.6360272  +6.3820017     1198.527     2319.581     2639.037     77.93127     155.7388     311.4157      2.178     6.75     843.5242     54.88662     165.9704        17     1.723     0.742  50.31   0
       168    819.4768    747.7538 307.5748252  +6.3876416     790.2715      1433.15      1354.87     77.93127     155.8007     311.3847      1.809     5.87     841.6639     54.88662     100.1611        12     1.614     0.601  61.73   0
       169    244.4490    744.4738 307.8136709  +6.3697072     1420.621     2699.194     3620.394     78.05488     155.8007     311.4157      2.050     5.63     846.0118     54.88662     195.5215        22     1.772     0.979  50.11   0
       170    938.1857    740.6958 307.5257753  +6.3945239     773.5239     1503.913     1331.078     77.80748      155.491     311.1679      2.103     4.93     838.2343     54.88662     111.9005         8     1.127     0.611  57.03   0
       171    963.8502    737.5958 307.5152235  +6.3966611     1875.827     3800.562     4083.785     77.43489      155.553      311.013      2.016     5.64     837.6708     54.88662      245.387        26     1.824     0.948  46.86   0
       172    911.7683    738.8986 307.5368038  +6.3943832     837.9198     1397.045     1607.448     78.05488      155.615     311.5085      1.800     4.57     839.0701     54.88662     145.4384         8     1.189     0.499  48.57   0
       173    160.1160    738.9984 307.8488670  +6.3691297     589.2556     1162.857      743.824      77.3103     155.3049      311.075      1.785     4.72     844.5038     54.88662     111.1245         6     1.419     0.445  42.52   0
       174    683.7096    736.7291 307.6315637  +6.3876491      744.444     1395.922      1923.28     77.93127     155.9862     311.3847      1.990     5.65     842.9594     54.88662     116.4672         9     1.349     0.666  55.08   0
       175   1005.4678    731.1216 307.4981610  +6.4007239     1235.951     2351.427     2333.076     78.17828     155.8007     311.3847      1.925     5.96     836.9854     54.88662     154.5911        17     1.595     0.959  47.85   0
       176    632.4949    730.7281 307.6530289  +6.3884110      602.806     871.6841     934.3945     77.93127     155.8007     311.3847      1.570     5.35     843.3332     54.88662     79.61584         8     1.048     0.772  50.49   0
       177    807.0192    729.2238 307.5806192  +6.3948755     877.1565     1671.149     1694.829     77.80748      155.615     311.3228      2.145     7.21      841.062     54.88662     129.9558        15     1.942     0.750  45.58   0
       178    893.3624    726.8345 307.5448503  +6.3987491     1283.997     2303.447     2857.235     77.80748      155.553     311.1679      1.932     5.92     839.5513     54.88662     182.0412        19     1.584     0.867  58.86   0
       179    867.8328    721.8942 307.5556158  +6.3999355     676.4364     1328.897     1149.863     78.17828      155.615     311.4776      2.179     3.96     840.3868     54.88662      93.5589         6     0.777     0.578  55.26   0
       180    850.0835    717.9592 307.5631172  +6.4009667     1196.372     2296.845     2371.216     78.05488     155.7388     311.3228      2.047     7.38     840.4203     54.88662     156.9723        20     1.673     1.046  33.67   0
       181     49.3709    717.1625 307.8955810  +6.3744142     1782.404     3600.678     3595.516     77.68348      155.491     311.2609      2.046     6.05     843.7853     54.88662     237.5052        24     1.823     0.939  44.15   0
       182    113.1878    715.6910 307.8691369  +6.3771720     760.4369     1677.598     1837.177     77.80748      155.491     311.1989      2.247     8.52     843.6868     54.88662     106.8675        17     1.949     1.040  67.54   0
       183    662.0446    705.4485 307.6416100  +6.3998384     5062.235     9262.498     10266.44     78.05488      155.615     311.3538      1.979     5.45     842.4561     54.88662     660.2272        36     1.824     1.057  49.87   0
       184    608.9178    705.0458 307.6636813  +6.3982244     1063.181     2009.793     2384.763     78.05488     155.7388     311.3847      1.965     6.05     842.8911     54.88662     174.3396        16     1.799     0.707  56.92   0
       185    530.5781    705.2328 307.6962007  +6.3955202     551.5276     1029.604     1124.897     77.55929      155.553     311.1989      1.887     6.04     842.8362     54.88662     88.65369         7     1.610     0.638  50.69   0
       186    520.4256    705.3382 307.7004123  +6.3951362     664.0692     1169.804      1462.74     77.68349     155.6769     311.2918      2.303     5.78      842.889     54.88662     86.49115         8     1.097     0.857  54.35   0
       187    998.9871    700.7906 307.5018677  +6.4130306     2008.854      3913.94     4157.984     77.80748      155.491     311.3228      1.989     5.91     837.0866     54.88662     259.5043        27     1.766     1.068  45.69   0
       188    635.6824    701.1390 307.6527002  +6.4007344     1633.214     3374.251     3753.074     78.17828     155.7388     311.3847      2.204     6.55     842.5712     54.88662     225.2651        25     2.015     0.880  46.92   0
       189    125.0246    701.2929 307.8647092  +6.3835151      2981.88     5614.933     6298.867     78.17828      155.491     311.2299      2.025     5.48     843.3478     54.88662      395.803        31     1.768     1.067  48.79   0
       190    311.4122    701.1174 307.7873328  +6.3898594     595.7706     1060.068     967.3577     77.68348      155.491     311.2299      1.579     4.46      843.665     54.88662     100.9611         7     1.789     0.316  42.94   0
       191    778.8527    697.6561 307.5933735  +6.4069667     15565.42     29174.59     31629.21     78.05488     155.7388     311.3538      1.998     5.36     840.3007     54.88662     2005.504        60     1.926     1.208  46.89   0
       192    908.9090    697.3274 307.5393847  +6.4114516     2794.279     5136.432     5713.328     78.05488     155.9862     311.3847      1.993     6.03     838.1673     54.88662      390.555        28     1.760     0.978  49.02   0
       193    507.0247    697.9993 307.7062232  +6.3977166     740.4103     1267.809     1225.823     77.68348      155.429     311.1679      1.919     5.22      842.829     54.88662     99.39038         9     1.084     0.898 -69.43   0
       194    477.6538    697.7209 307.7184270  +6.3968458     1129.009     2236.113     2566.187     78.17829     155.7388     311.4467      2.086     7.18     842.9615     54.88662     162.0123        18     1.830     0.789  41.95   0
       195    324.1641    698.0829 307.7821409  +6.3915409     517.7914     1079.806     1100.931     78.05488     155.6769     311.3228      2.297     4.00     843.4113     54.88662     89.04535         5     0.890     0.513  33.06   0
       196    659.3696    690.4415 307.6432250  +6.4059448     5541.222     10359.27        11592     77.55929      155.615     311.2299      1.981     5.31     842.0848     54.88662      756.614        41     1.881     1.098  49.59   0
       197    641.7028    691.7644 307.6505158  +6.4048067     854.9734     1931.984     2451.252     78.05488      155.615     311.5395      2.409     7.33     842.2946     54.88662     112.5262        16     1.841     0.817  45.57   0
       198    252.3442    691.1000 307.8121943  +6.3920089     4727.809     9165.046     9615.751     77.80748     155.7388     311.6632      2.053     5.42     843.1378     54.88662     597.8859        39     1.869     1.128  49.82   0
       199    355.8014    691.7380 307.7692197  +6.3952238     510.7572      999.614     1326.811     77.43489      155.553      311.106      2.164     3.89     842.9741     54.88662     90.83203         5     0.929     0.465  46.51   0
       200    919.4752    683.1686 307.5354723  +6.4176505     1030.034     1643.063     1803.459     77.93127     155.8007     311.3538      1.706     6.03     837.5837     54.88662     128.5087        14     1.331     0.769  48.00   0
       201    731.1465    678.7881 307.6138148  +6.4131601     2837.434     5533.194     6259.247     77.43489     155.6769      311.106      2.047     5.53     840.8323     54.88662     357.9255        33     1.930     1.023  54.91   0
       202    686.7654    679.6540 307.6322128  +6.4113164     733.1498     1223.637     1021.728     77.93127     155.7388     311.3847      1.686     5.24     841.4778     54.88662     104.3588         9     1.320     0.588  50.77   0
       203    997.3854    675.3865 307.5033838  +6.4234660     6971.693     13344.53     14564.95     77.93128      155.429     311.3228      2.001     5.37     837.0992     54.88662      895.134        46     1.949     1.131  47.78   0
       204    935.9129    675.9502 307.5288891  +6.4211801     1883.723     3556.874     3974.235     78.05488      155.615     311.4776      1.971     5.27     837.2092     54.88662      259.509        25     1.795     0.917  49.61   0
       205    986.3697    676.5586 307.5079184  +6.4226143     593.0284     762.5724     1133.878     77.55929      155.615     311.2299      1.533     4.63     837.1219     54.88662      81.0354         6     1.054     0.578  61.13   0
       206     16.5031    675.2734 307.9106430  +6.3906004     1522.727     3050.571     3708.963     77.68349     155.9244     311.3847      2.226     5.80     843.5228     54.88662     208.7536        23     1.722     0.997  30.55   0
       207     74.7206    670.2363 307.8866434  +6.3946424     19877.92     37821.94     41419.81     77.93127     155.8007     311.3847      2.034     5.27     843.0607     54.88662     2374.576        65     1.947     1.264  45.30   0
       208    536.0103    671.1453 307.6950925  +6.4097762     1550.858     2965.158     3400.587      77.4349     155.6769      311.075      2.131     5.68     842.1708     54.88662     194.8843        22     1.788     0.872  53.43   0
       209    505.0359    668.8802 307.7080292  +6.4096723     1026.764     1970.833     2153.491     77.93127     155.8007     311.4157      1.964     5.80     842.2847     54.88662     150.4679        16     1.555     0.894  57.79   0
       210    925.8210    667.8149 307.5333522  +6.4242018     816.0889      1521.93     1453.292     77.80748      155.491     311.2918      1.936     6.05     837.1561     54.88662     99.76007        11     1.390     0.741  51.86   0
       211    545.1200    665.0670 307.6915147  +6.4125914     908.3983      1763.39     2153.194     78.17828     155.9244     311.3847      2.117     7.41     841.9636     54.88662     131.8958        16     1.671     0.920  57.73   0
       212    720.5798    662.4706 307.6187502  +6.4195434     2652.096     5141.668     5956.706     77.68349      155.615     311.3228      2.102     5.74     840.4943     54.88662     316.4885        30     1.833     1.025  51.95   0
       213    742.7588    660.8273 307.6095965  +6.4209644     3121.244     5713.959     6040.922     77.68348      155.553     311.2299      1.916     5.35     840.1161     54.88662     439.9705        29     1.724     0.993  52.71   0
       214    410.7220    659.7238 307.7474963  +6.4102865      1107.12      2085.51     2231.022      78.3015     155.9862     311.4776      2.050     6.81     841.8856     54.88662     162.7038        20     1.869     0.854  48.48   0
       215   1015.7859    656.9705 307.4963604  +6.4316840     3643.552      7174.86     7813.822     77.68348      155.553     311.3228      2.032     5.38     836.0728     54.88662     492.8965        37     1.873     1.106  47.05  16
       216    574.2465    658.7285 307.6796346  +6.4161852     2496.492     4593.171     4921.867     78.05488     155.7388     311.3847      1.934     5.43     841.7112     54.88662     377.4626        28     1.743     0.946  45.06   0
       217    235.0109    658.1297 307.8205035  +6.4050379     1339.853     2463.717     2841.964     77.55929      155.491     311.1989      1.927     5.14     841.7736     54.88662     181.8563        21     1.599     0.903  59.45   0
       218    318.5846    657.6254 307.7858218  +6.4080569     990.1793     1900.694     1691.849     77.80748      155.615     311.3228      2.068     6.90     841.7103     54.88662     129.3319        15     1.502     0.890  43.06   0
       219    981.0911    655.8496 307.5108040  +6.4309883     6414.648     12269.36     13413.53     78.05488      155.553     311.5395      2.030     5.56     836.3691     54.88662     863.2059        44     1.883     1.130  50.22   0
       220    701.3008    654.6786 307.6270169  +6.4221149     647.2496     1356.968     2008.488     77.80748      156.048     311.4157      1.962     4.22     840.5079     54.88662     112.9523         6     1.491     0.340  46.71   0
       221     92.7644    653.1106 307.8797310  +6.4023209     716.9789     1247.368     1615.449     78.17828     155.6769     311.3847      2.159     6.34      842.652     54.88662     90.18042        10     1.414     0.798  50.30   0
       222    139.4900    649.1436 307.8604656  +6.4055326     18461.75     35114.67     38302.07     77.93127     155.6769     311.4776      2.030     5.29     842.2134     54.88662     2340.574        64     1.943     1.252  48.57   0
       223    426.4626    650.0288 307.7412876  +6.4148178     2249.128     4609.871     5082.232     77.80748     155.7388     311.3228      2.157     5.65     841.5353     54.88662     308.2228        31     1.738     1.141  53.75   0
       224    807.9717    649.8524 307.5828877  +6.4276780     977.7025     1766.492     2031.328     77.80748     155.8625     311.2918      2.028     6.51      838.496     54.88662     136.0645        14     1.597     0.810  40.09   0
       225    359.3031    644.5064 307.7693581  +6.4148418     614.1682     924.4245     797.4258     78.05488     156.2949     311.2918      1.487     3.46     841.0188     54.88662     112.3172         5     0.754     0.459  19.26   0
       226    975.9775    638.7209 307.5135012  +6.4378897     5348.808     10710.35     11778.02     77.68348      155.429     311.3538      2.109     5.85     835.7191     54.88662     700.2452        46     2.032     1.167  46.57   0
       227     21.0002    638.4343 307.9100221  +6.4059613     828.7865     1486.421     1016.908     77.06051      155.553     311.1679      1.693     5.91     843.5881     54.88662     159.9225        10     1.571     0.627  66.70   0
       228    569.4685    634.0016 307.6824504  +6.4262340     36629.54     70347.46     76362.95     77.43489     155.3049     311.1989      2.025     5.51     840.9328     54.88662     4827.123        83     2.001     1.276  47.79   0
       229    934.4257    635.5966 307.5308594  +6.4377916     641.6052     911.5479     700.5926     77.55929      155.429     311.2299      1.443     3.53     836.4801     54.88662      98.9505         7     1.054     0.545  46.23   0
       230    529.4366    634.7838 307.6990457  +6.4245684     559.2844     1101.304     1024.077     77.68348      155.553      311.137      1.612     4.43     841.2165     54.88662     62.06506         5     1.167     0.478 -32.15   0
       231    213.5361    635.1753 307.8301945  +6.4137923      577.958     1129.206     1327.762     77.68348     155.7388     311.3228      2.226     5.38     841.6778     54.88662     68.78003         6     1.079     0.758  39.94   0
       232    177.0277    630.7147 307.8455031  +6.4144051       2216.6     4124.973      4277.39     78.17828      155.429     311.2609      1.980     5.37     841.7657     54.88662     317.7987        27     1.675     1.072  51.89   0
       233    500.2644    631.3242 307.7112747  +6.4250179     604.8616     766.8182     759.2127     78.17829     155.7388     311.3538      1.400     3.77     841.1637     54.88662     95.54333         5     0.952     0.429 -83.13   0
       234     69.3553    624.3284 307.8904231  +6.4134150     1066.003     1959.316     2162.396     77.93127     155.7388     311.4157      1.970     7.35     842.6757     54.88662     151.4513        15     1.578     0.959  56.61   0
       235    466.7622    617.7842 307.7256412  +6.4294837     47684.54     91325.52     99999.01     77.80748      155.553      311.137      2.017     5.35      840.655     54.88662     6011.777        96     1.989     1.349  46.98   0
       236    653.1644    615.3187 307.6483267  +6.4367532     726.1407     1257.993     1114.911     78.05488     155.8007     311.3538      1.650     5.49     839.5671     54.88662     107.7217         9     1.397     0.608  40.21   0
       237    141.0012    612.8652 307.8610640  +6.4205614     1243.975     2388.101     2428.413      77.4349      155.429     311.1679      1.997     6.74     841.6959     54.88662     183.1879        20     1.777     0.843  40.85   0
       238    937.3683    611.1829 307.5304559  +6.4479698     558.1602     745.3966      781.178     77.68348      155.553     311.2609      1.451     3.39     835.9123     54.88662      80.7077         5     0.767     0.433  70.36   0
       239    613.0098    609.6395 307.6651908  +6.4377522     698.1042     1061.522     1180.985     77.43489      155.553      311.137      1.719     5.04     839.5599     54.88662     115.3899         8     1.289     0.557  51.59   0
       240    312.3440    607.3811 307.7901077  +6.4285911     1728.168     3278.771     3610.815     77.55929     155.6769     311.1989      1.986     5.11     839.5005     54.88662      252.744        22     1.686     0.898  49.46   0
       241     10.2352    619.2906 307.9151391  +6.4135018     1329.792     2606.232      2803.02     78.17829     155.6769     311.4157      2.056     6.19     843.8812     54.88662     178.9307        22     1.634     0.942  42.25  16
       242    738.7501    601.3529 307.6132586  +6.4453857     3938.114     7575.172     8086.776     78.05488      155.615     311.4157      2.024     6.30     838.3373     54.88662      489.952        36     1.873     1.060  50.65   0
       243    792.3654    596.5990 307.5911555  +6.4491430     10726.19     20359.46     21917.06     77.18551      155.553     311.1989      1.991     5.32     837.4955     54.88662     1523.953        52     1.907     1.160  48.07   0
       244   1009.7912    596.9033 307.5008617  +6.4562844     707.2197     1564.382      1304.02     77.80748      155.367     311.1989      2.495     6.70     832.8504     54.88662     117.5254        13     1.687     0.747  59.66   0
       245    534.9501    596.7755 307.6980357  +6.4404458     991.4602      1609.28     1781.263     77.68348     155.7388     311.2918      1.823     6.66      839.914     54.88662      150.818        13     1.319     0.943  54.20   0
       246    616.1998    594.5627 307.6643733  +6.4440839     2205.402     4129.512     4499.431     77.06051      155.553     311.1989      1.990     4.83     839.0374     54.88662      325.348        28     1.733     0.999  44.60   0
       247     38.5611    596.2654 307.9041575  +6.4239630      565.224     1026.644     804.2856     77.93128     155.6769     311.4776      1.908     3.48     843.2112     54.88662     76.80334         5     0.750     0.467 -73.43   0
       248    933.8886    591.1940 307.5325710  +6.4561066     997.8489     1679.602     2036.138     77.55929      155.429      311.137      1.895     5.27      835.338     54.88662     128.1374        11     1.249     0.628  65.08   0
       249    228.8676    588.4335 307.8254070  +6.4336062     1029.427     1973.276     2545.967     77.93127     155.8007     311.4467      2.253     7.60     840.5269     54.88662     128.0799        19     1.751     0.923  45.78   0
       250    374.7975    588.7483 307.7648046  +6.4383831     808.9671      1448.81     1729.153     77.43489      155.429      310.982      1.970     6.78     838.6959     54.88662     107.4401        12     1.396     0.924   9.23   0
       251    868.5346    579.7400 307.5600928  +6.4586513     2073.233     4187.755     4446.615     78.17829     155.6769     311.4157      2.097     6.04     836.5889     54.88662     297.7869        28     1.735     1.122  54.17   0
       252    163.5807    579.3878 307.8528201  +6.4351432     503.1371     1013.876     1307.505     77.80748      155.491     311.2918      2.086     4.95     840.5345     54.88662     67.33118         5     1.319     0.527  45.57   0
       253    827.0752    577.4156 307.5773866  +6.4582246      1984.23     3772.756     3895.645     77.55929      155.491     311.2609      1.961     5.70     836.6871     54.88662     286.4395        24     1.734     0.940  46.47   0
       254    807.7423    568.4904 307.5857140  +6.4612628     123782.6     229823.6     250138.9     77.93127     155.7388     311.5085      1.994     5.31     836.4595     54.88662     15150.89       142     2.052     1.367  48.14   2
       255    798.0089    573.1653 307.5895988  +6.4590070     1994.688     3899.783     4730.235     77.55929      155.553     311.1989      2.254     6.14     836.6901     54.88662     297.1549        27     1.732     1.137  60.47   2
       256    255.1414    572.1758 307.8150467  +6.4412023      5917.25     11351.01      12184.5     77.68348     155.7388     311.2609      2.016     5.33     839.1877     54.88662     828.2531        43     1.884     1.152  49.11   0
       257    739.6634    572.3083 307.6138550  +6.4574081     535.6262     1261.887     1666.013     78.05488     155.9244     311.4467      1.916     4.63     837.7925     54.88662     83.95392         7     1.681     0.361  10.09   0
       258    189.3763    566.7714 307.8425357  +6.4412205      44157.1      85684.1     94816.61     77.55929      155.615     311.2299      2.040     5.21     839.9901     54.88662     5691.596       102     2.013     1.434  45.04   0
       259    113.3536    562.9509 307.8742301  +6.4402377     4768.747     9143.029      10222.2     78.05488      155.615     311.4157      2.080     5.40     841.2274     54.88662     625.9789        39     1.798     1.177  51.31   0
       260    978.8154    560.6200 307.5149400  +6.4702308      1120.12     1917.317     1500.516     77.80748      155.491     311.2918      1.753     5.73     832.6853     54.88662     169.4883        15     1.540     0.772  44.98   0
       261    999.8763    559.5369 307.5062307  +6.4713813     622.1643     937.6415     1665.497      78.3015     155.7388     311.3538      2.091     5.37     831.9109     54.88662     86.57605         8     1.100     0.739  53.39   0
       262    227.9727    558.5294 307.8267882  +6.4459223     703.0812      1275.04     1637.919     77.68348      155.615     311.3228      2.045     5.67     839.3779     54.88662     91.69934        10     1.178     0.769  59.06   0
       263    844.3624    555.7974 307.5709336  +6.4677284     3351.247     6259.744     6564.425     77.18551      155.491     311.1989      1.942     5.49     835.9743     54.88662     449.8953        28     1.755     0.952  45.21   0
       264    362.8309    553.8909 307.7709486  +6.4523724     13086.56     24764.25     26936.53     78.17828      155.553     311.3538      2.027     5.36     837.4723     54.88662     1635.383        59     1.896     1.252  46.72   0
       265    453.5201    554.2520 307.7332796  +6.4552696     636.1207     1039.251     1245.059     78.05488     155.7388     311.3847      1.831     5.18     837.9914     54.88662     75.57288         9     1.185     0.640  55.42   0
       266    164.8169    553.0442 307.8531968  +6.4460610     1429.277     2631.954     3401.352     77.68348      155.615     311.1679      1.991     5.87     839.6606     54.88662     181.4935        18     1.636     0.787  57.04   0
       267    798.2634    549.1375 307.5902998  +6.4689361     4340.922     8117.058     8545.012     78.05488     155.7388     311.4157      1.980     5.36     835.9719     54.88662     686.8859        36     1.809     1.061  49.81   0
       268    240.1100    551.3677 307.8219904  +6.4492875     738.2643       1280.6     1308.093     78.17828      155.553     311.3847      1.841     6.46     838.7311     54.88662     99.23328        11     1.182     0.991  63.59   0
       269    529.2502    548.9055 307.7020138  +6.4600187     4925.344     9270.556     9722.418     77.93127      155.615     311.5704      1.961     5.70     837.6271     54.88662     658.5151        37     1.797     1.096  47.47   0
       270    102.4684    550.4891 307.8791710  +6.4450159     692.5463     1188.643     1010.771     78.17829     155.9244     311.3538      1.739     3.75     841.4087     54.88662     99.21191         6     0.954     0.424 -72.06   0
       271    387.3102    545.4540 307.7610685  +6.4566783     1138.775     2173.463     2425.012     78.05488      155.553     311.5085      2.003     7.10     837.2211     54.88662     148.2263        20     1.680     0.858  66.20   0
       272    176.1635    541.9359 307.8488608  +6.4510293     5101.321     9871.886        10624     77.93127     155.7388     311.4157      2.057     5.31     839.2547     54.88662     669.6614        42     1.862     1.137  47.41   0
       273    815.3517    541.8583 307.5834482  +6.4725132     1032.777     2079.212     2428.662     78.05488     155.7388     311.4776      1.927     7.22     835.6701     54.88662     141.4492        16     1.935     0.755  54.12   0
       274    574.1226    541.8811 307.6836174  +6.4644240     1883.771     3635.115     3597.615      78.3015     155.9862     311.5395      2.020     6.16     837.2435     54.88662     231.6012        26     1.622     1.095  50.29   0
       275     47.7413    540.6401 307.9022274  +6.4472377     3859.911     7185.826     7585.622     78.05488     155.7388     311.4467      1.992     5.37     842.7728     54.88662     457.1511        32     1.769     1.034  50.67   0
       276    271.3488    538.4036 307.8094569  +6.4556908     66055.96     127235.5     139497.3      77.4349      155.491      310.982      2.031     5.33     837.4363     54.88662       8405.6       111     2.040     1.379  47.24   0
       277    561.3144    536.3451 307.6891222  +6.4662801      727.725     1298.292     1622.842     78.05488     155.7388     311.5395      2.044     4.70     837.0659     54.88662     119.6548         8     1.000     0.626 -74.87   0
       278    255.3596    533.7047 307.8162546  +6.4570930     1150.808      2125.12     2226.433     78.05488     155.6769     311.5395      1.883     6.53     837.7144     54.88662     151.1819        15     1.566     0.764  61.11   0
       279    970.7935    532.0113 307.5192300  +6.4817748     1126.567     2443.917     2925.333     77.68348      155.553     311.2918      2.462     8.00     832.0904     54.88662     189.4506        20     1.976     0.906  48.61   0
       280    794.4873    530.8362 307.5924823  +6.4763659     12449.54     23152.66     25033.69     78.05488      155.615     311.3847      2.000     5.65     835.7115     54.88662     1683.178        52     1.898     1.149  47.51   0
       281    498.1118    529.2478 307.7156056  +6.4670899     31140.49     62833.05     70791.22     78.05488      155.615     311.4467      2.150     5.73     837.2022     54.88662     3719.297        95     2.104     1.442  43.14   0
       282    648.9437    527.9114 307.6530181  +6.4726999     792.3838     1470.525     1644.013     78.05488      155.615     311.5085      1.881     6.52     836.7671     54.88662     124.6501        12     1.621     0.736  54.92   0
       283    210.9205    526.0440 307.8349656  +6.4587604     1360.365     2806.252     3495.251     78.05488     155.7388     311.3847      2.223     7.24     838.3987     54.88662     180.7811        26     1.896     1.060  53.65   0
       284     46.3793    525.8179 307.9032942  +6.4533112      1002.39      1635.42     1338.427     77.80748      155.615     311.2918      1.694     5.70     842.6454     54.88662     172.7894        11     1.410     0.661  65.90   0
       285    668.4549    524.6097 307.6450270  +6.4747168     1051.497     1932.596     2310.019      77.4349     155.6769      311.106      1.938     6.51        836.6     54.88662     161.4841        14     1.583     0.751  52.30   0
       286    658.1484    524.4139 307.6493134  +6.4744524     2175.241      3961.24       4387.3     77.43489     155.6769      311.137      1.944     5.69     836.6034     54.88662     307.1884        26     1.718     0.982  44.26   0
       287    720.4559    523.4032 307.6234739  +6.4769567     993.0616     2174.494     2216.435      77.4349      155.553      311.075      2.199     8.01     836.4211     54.88662     146.6399        21     1.865     0.962  46.36   0
       288     96.7154    525.4259 307.8824071  +6.4551696     460.3875      703.656     689.9706     78.17829      155.491     311.2609      1.407     3.48      841.032     54.88662     79.89435         5     1.083     0.322  21.27   0
       289    395.5636    520.1099 307.7584958  +6.4674193     1486.359     2921.536     2898.348     78.17828     155.6769     311.4157      2.069     6.20     836.5222     54.88662       190.65        22     1.775     0.883  49.63   0
       290    142.4362    516.7521 307.8637160  +6.4602909     19831.37     37760.48     41252.93     77.80748     155.6769     311.2918      2.017     5.27     839.6786     54.88662     2432.904        66     1.945     1.282  47.77   0
       291    327.2851    518.1053 307.7869153  +6.4659523     2871.634     5816.884     6074.448     78.05488     156.1098     311.4776      2.091     5.52     836.4241     54.88662     344.3896        36     1.884     1.111  44.20   0
       292    870.4540    516.8531 307.5614056  +6.4846801     1250.566       2268.6     1991.335      78.3015     155.6769     311.3847      1.874     6.21      834.345     54.88662     185.2416        18     1.780     0.737  51.12   0
       293    507.2162    517.6096 307.7122170  +6.4722006     1673.986     3172.679      3022.99     77.80748      155.491     311.2918      2.022     5.42     836.7889     54.88662      204.614        25     1.629     1.020  44.77   0
       294    107.5424    514.8785 307.8782680  +6.4598890     1904.156     3688.865     3454.651     78.05488     155.6769     311.3538      1.977     5.62     840.5039     54.88662     245.7346        26     1.686     1.021  43.54   0
       295    344.5510    513.5359 307.7798999  +6.4684192     902.4974     1595.989     1949.271     77.93128      155.615     311.4467      1.937     7.05     836.3144     54.88662     109.2023        12     1.577     0.884  50.04   0
       296    968.0569    511.3475 307.5210590  +6.4902150     3813.235     7381.596     7731.071     78.05488     155.7388     311.3847      1.977     6.03     831.6497     54.88662     488.1617        33     1.807     1.036  46.81   0
       297    541.3095    504.0947 307.6985147  +6.4789243     1061.063     2139.736     1942.017     78.05488     156.2332     311.3847      2.034     5.20     836.2172     54.88662     158.3315        13     1.523     0.631  46.38   0
       298      6.7232    501.1024 307.9205963  +6.4621779     19067.74     36796.58     39988.48     77.68348     155.9862     301.7626      2.040     5.09     843.8073     54.88662      2213.84        67     1.930     1.300  45.97  16
       299    439.4681    497.9074 307.7410129  +6.4780607     32156.17     61551.48     67085.05     77.93127     155.8625     311.4157      2.037     5.43     836.0166     54.88662     4159.523        80     1.990     1.284  47.66   0
       300    647.4934    497.5963 307.6546397  +6.4851676     9352.859     17541.86     18892.15     77.80748      155.429      311.106      1.976     5.49     835.8091     54.88662     1202.153        50     1.894     1.145  48.90   0
       301    962.2706    497.3030 307.5239326  +6.4958204     3054.148     3265.909      3234.03     77.93127     155.8625     311.4157      0.926     2.73       831.39     54.88662     881.2612         8     1.038     0.407 -50.18   0
       302    288.0028    498.2688 307.8038960  +6.4728212     797.3856     1368.358     1339.865     77.43489      155.367     311.1679      1.696     5.89     835.8939     54.88662     109.7705        11     1.622     0.602  23.62   0
       303    204.6183    495.4416 307.8386160  +6.4711828     14791.13     28827.83     31804.28     77.55929      155.553     311.1679      2.089     5.39     837.5963     54.88662     1697.564        64     2.052     1.242  46.47   0
       304    170.3689    496.6692 307.8527961  +6.4695229     1176.687     2133.243     2159.508     77.93127     155.7388     311.3847      1.872     6.13     838.7449     54.88662     181.9183        18     1.588     0.872  49.40   0
       305    981.6019    495.9966 307.5159487  +6.4970055     938.4724     1668.409     2024.177     77.43489     155.3049      311.137      2.000     6.47     831.0584     54.88662      141.743        13     1.517     0.783  57.63   0
       306    822.2943    496.6551 307.5820826  +6.4914088     712.8701      1258.56     1464.021     77.93127     155.7388     311.6014      2.252     3.40     834.6577     54.88662     117.4275         7     0.882     0.672  62.92   2
       307    910.0153    495.6241 307.5456892  +6.4947676     702.6136     1157.651     1400.354     77.80748      155.553     311.3228      1.809     4.98     832.4034     54.88662     112.1556         8     1.207     0.582  37.79   0
       308    569.3120    494.4396 307.6872115  +6.4838499     2293.861     3973.628     4000.085     78.05488     155.6769     311.4157      1.894     5.25     835.9446     54.88662      341.332        24     1.630     0.913  50.96   0
       309    943.2464    491.4855 307.5320280  +6.4975868     3715.422     6924.415     7508.645     78.05488     155.6769     311.3847      1.982     5.30      831.474     54.88662     500.6598        32     1.855     0.997  48.75   0
       310    616.2671    490.0243 307.6678614  +6.4872473     4911.011     9268.124     9860.896     77.68348     155.6769     311.3228      1.962     5.93     835.7908     54.88662     684.5634        39     1.901     1.047  43.99   0
       311    104.2620    490.7726 307.8804451  +6.4697307     957.8782     1698.328     1422.624     77.68349     155.8007     311.3538      1.874     5.50     840.0425     54.88662     123.4379        14     1.429     0.821  58.48   0
       312    965.8085    483.8981 307.5229128  +6.5014732     2536.161     4621.924     5002.917     77.80748      155.367     311.1679      1.896     5.51     830.9889     54.88662     308.9536        29     1.729     1.040  52.28   0
       313    528.4882    481.2364 307.7046084  +6.4879317     5706.157     10697.28        11927     78.05488      155.615     311.3847      2.014     5.46     835.6052     54.88662     717.9547        40     1.867     1.094  51.52   0
       314    374.5965    481.5203 307.7685033  +6.4826472     2111.889     4017.998     4158.689      77.4349     155.2428      311.137      1.997     5.30     835.4367     54.88662     269.6812        26     1.747     0.929  48.90   0
       315    884.6537    477.0506 307.5568443  +6.5015884     2212.532     4573.654     5672.107     78.17828     155.6769     311.4157      2.253     6.37     832.3436     54.88662     343.1093        29     1.960     1.003  37.08   0
       316    537.9500    477.9328 307.7007905  +6.4896131     597.9579     888.4767     910.1548     77.93127      155.615     311.3538      1.689     5.52     835.3672     54.88662     95.98132         7     1.308     0.783  58.14   0
       317    892.3659    471.3699 307.5538321  +6.5041917     1628.863     3239.722     3966.381     77.55929      155.491      311.137      2.024     6.46     831.8928     54.88662     211.2137        20     1.731     0.799  46.24   0
       318    931.7905    470.8040 307.5374788  +6.5057430     1012.291     1886.324     1667.747     77.43489      155.429     311.2299      1.972     6.22     830.9377     54.88662     159.2625        12     1.435     0.759  47.01   0
       319    111.8939    470.8890 307.8779483  +6.4781969     511.4155     962.8863     738.8663     78.05488     156.1715     311.4467      1.923     5.74     839.3961     54.88662     82.63013         7     1.469     0.632  53.71   0
       320    716.4204    467.6020 307.6270248  +6.4998605     2262.379     4358.809     4266.311     77.68349      155.429      311.137      1.964     6.18     833.8823     54.88662     347.2881        26     1.819     0.901  55.07   0
       321    387.1073    465.4850 307.7638488  +6.4896879     2912.042     5665.407     6781.154     77.80748     156.1715     311.4776      2.147     5.59     834.3005     54.88662     397.7742        35     1.995     1.103  52.29   0
       322     78.1882    466.2401 307.8921013  +6.4789804     1354.216      2866.81     3133.281     77.43489      155.553      311.137      2.167     7.19     840.2515     54.88662     170.7852        22     1.763     0.947  52.89   0
       323    427.8274    466.0654 307.7469198  +6.4908162     913.4254     1367.784     2377.273     77.68348     155.7388     311.2918      1.971     5.67     834.3817     54.88662     118.6111        12     1.116     0.812 -88.88   0
       324    614.9429    462.1751 307.6693481  +6.4987010     7471.028     14182.22     15497.12     77.68348     155.7388     311.2299      1.980     5.60     833.9456     54.88662     1008.921        45     1.852     1.116  46.84   0
       325    777.6620    458.7621 307.6018896  +6.5055605     12504.28     23320.43     25473.53     78.05488     155.8007     311.3847      1.984     5.51     833.4757     54.88662     1561.778        52     1.897     1.133  45.97   0
       326    297.4730    459.1714 307.8012829  +6.4892815     2050.965     3824.909     3759.962     77.93127     155.7388     311.3538      1.984     5.81     834.4303     54.88662     301.3618        25     1.659     0.994  44.90   0
       327    380.2592    455.8546 307.7670172  +6.4934339     1243.411     2343.097     3318.327     78.17828     155.6769     311.3538      2.461     6.83      833.684     54.88662     161.8199        18     1.596     1.024  38.46   0
       328    806.7551    455.8409 307.5899059  +6.5077401     994.8565     1864.897     1479.893     77.80748     155.7388     311.2299      1.845     6.33     833.2313     54.88662     121.0587        15     1.495     0.752  57.60   0
       329    906.2466    455.0762 307.5486142  +6.5113830     287.9545     689.9191     496.9714     77.93127     155.8007     311.3847      2.342     3.71     830.9506     54.88662     75.09375         5     1.836     0.215  49.91   0
       330    962.8745    453.7258 307.5251427  +6.5138327     1486.935     2881.162     3670.688      78.3015     155.9862     311.4776      2.137     6.44     829.8964     54.88662     203.0844        22     1.794     0.880  53.74   0
       331    782.0859    454.2906 307.6002026  +6.5075547     1160.729     2032.357     2703.242     77.80748     156.1715     311.5085      2.094     6.70     833.1986     54.88662     167.8691        15     1.463     0.862  49.93   1
       332    370.1593    452.8114 307.7713139  +6.4943509     585.5922     999.7192     1431.623     77.43489      155.553      311.106      2.098     4.18      833.488     54.88662     91.17578         6     1.148     0.435  62.30   0
       333    114.9340    450.6367 307.8773705  +6.4866607     3475.211     6938.268     7568.168     77.93127     155.6769     311.4467      2.060     5.28     838.7614     54.88662     452.9631        36     1.821     1.142  47.49   0
       334   1016.9741    448.5056 307.5028506  +6.5177947     3362.165       6436.6     6497.841     78.17828      155.491     309.9885      2.046     5.65     828.6372     54.88662     400.8951        34     1.926     1.011  42.53  16
       335    753.4053    449.8356 307.6122627  +6.5084341     1609.831     3163.229     3426.089     77.18551      155.491     311.1679      2.006     5.71     832.8741     54.88662     239.3165        20     1.731     0.807  49.00   0
       336    272.9290    447.8278 307.8118578  +6.4931394     990.5624     2006.049     2385.122     77.80748     155.6769     311.3228      1.926     7.35     834.3344     54.88662     131.6813        18     1.642     0.920  54.45   0
       337    351.2436    445.5675 307.7794132  +6.4967060     2479.165     4630.837     4696.017     77.68349     155.6769     311.2299      1.959     5.46     833.0605     54.88662     321.1209        30     1.707     1.102  47.51   0
       338    707.1396    443.2664 307.6316968  +6.5095972     1214.673     2248.316     2424.574     78.17828     155.6769     311.3847      2.068     6.59     832.3029     54.88662     163.0696        16     1.794     0.679  46.03   0
       339    548.2847    435.5639 307.6979250  +6.5074527     759.4887     1462.808     1520.072     78.05488     155.6769     311.3538      2.088     6.37     832.0842     54.88662     99.64771        10     1.696     0.672  51.17   0
       340    970.0340    436.4187 307.5227496  +6.5212176       1889.6     2012.172      1825.18     77.55929      155.553     311.1989      0.690     3.16     829.0334     54.88662     960.1855         6     0.647     0.451 -86.20   0
       341    471.0304    434.5748 307.7300402  +6.5052684     1081.127     1700.102     1980.954     77.55929      155.553     311.2299      1.823     5.65     832.2217     54.88662      150.242        14     1.593     0.675  61.66   0
       342    833.3586    433.1528 307.5796195  +6.5179975     1182.058     2285.619      2341.24     77.93127     155.7388     311.2609      1.911     6.63     831.2382     54.88662     158.4473        17     1.612     0.766  49.26   0
       343    818.8060    432.3063 307.5856914  +6.5178602     1461.526     2885.985      3044.15     77.68348      155.429     311.1989      2.026     5.97     831.5113     54.88662     195.6003        21     1.874     0.892  49.88   0
       344    716.1166    430.4363 307.6284000  +6.5151951     11499.28     21582.08     23552.76     78.05488     155.6769     311.3228      2.005     5.55     831.5458     54.88662     1547.499        55     1.928     1.186  47.02   0
       345    637.2271    426.3671 307.6612985  +6.5142321     1972.352     3694.614     4329.339     77.55929      155.491     311.1679      2.158     5.24     830.8934     54.88662     287.6563        22     1.674     0.859  47.49   2
       346    609.6269    421.6459 307.6729192  +6.5152561     12138.63     23316.73     30030.19     77.55929     155.8007     311.2918      2.412     7.51     830.5878     54.88662     1619.424        70     2.750     1.165  39.28   0
       347    380.5349    416.3133 307.7682360  +6.5097684     22236.95     42282.58     46100.49     78.05488     155.9244     311.4157      2.016     5.22     830.9622     54.88662     2712.036        69     1.961     1.271  48.55   0
       348    126.7962    415.8445 307.8736209  +6.5014245     1755.481     3473.391     3591.031     77.43489      155.367      311.075      2.067     5.74     837.3891     54.88662     228.2437        25     1.804     0.923  42.36   0
       349    895.7593    414.7343 307.5543228  +6.5276887     1102.402     2619.207     3677.306     78.05488     155.6769     311.4776      3.130     9.38     829.4833     54.88662     225.2441        25     2.877     0.853  42.47   0
       350    910.3496    410.7677 307.5483965  +6.5298141     4019.719     7649.416     8531.636     77.93127     155.8007     311.3228      2.011     6.02      829.312     54.88662     554.8903        37     1.815     1.108  52.39   0
       351     59.8104    411.5006 307.9015841  +6.5009605     1210.952     2351.063     3071.969     77.80748      155.367     311.1679      2.002     6.92     838.8912     54.88662     141.3631        17     1.634     0.822  53.94   0
       352    941.4262    420.3344 307.5351696  +6.5269028     2976.563     5363.936     5700.907     77.68349     155.6769     311.2918      1.889     5.42     829.2311     54.88662      375.075        26     1.649     0.955  56.32   0
       353    238.0727    406.7946 307.8277177  +6.5089076     10256.08      19940.6     21979.27     77.68348     155.3049     311.2918      2.064     5.41     833.5637     54.88662     1348.759        53     1.936     1.229  48.26   0
       354     74.0620    401.2298 307.8960134  +6.5056812      801.441     1376.789     1487.471     77.80748     155.7388     311.3228      1.684     5.63     838.2395     54.88662     96.11462        10     1.124     0.796  22.31   0
       355    961.6400    399.4513 307.5274749  +6.5362002     857.2652     1583.848     1928.484     78.05488     155.7388     311.3847      2.233     6.19     827.8524     54.88662     149.3484        13     1.575     0.685  52.36   0
       356    733.1456    400.2630 307.6223419  +6.5282230     599.2607     1036.854     1647.131     78.17828     155.6769     311.3538      1.917     5.72      830.244     54.88662     91.01575         8     1.415     0.652  34.56   0
       357    701.4152    400.5703 307.6355092  +6.5270336     601.0916     1138.535     1923.624     77.68349      155.491     311.3228      2.017     4.02     829.9238     54.88662     131.0659         6     1.101     0.421  52.95   0
       358    350.8250    396.4301 307.7812444  +6.5169790     1102.009     2109.085     2505.246     77.55929      155.615     311.2299      2.086     5.90     830.6519     54.88662      138.548        17     1.535     0.936  40.84   0
       359    138.3578    395.4358 307.8695097  +6.5102399      4038.19     7622.987     8565.886     77.80748     155.7388     311.2299      2.066     5.17     836.5001     54.88662     473.5013        33     1.757     1.058  44.82   0
       360    242.7853    394.1664 307.8261871  +6.5142799     924.8292     2070.593     1785.578     77.68348      155.491     311.2609      2.152     8.28     833.1796     54.88662     129.5465        18     1.924     0.996  52.97   0
       361    183.6000    396.0299 307.8507020  +6.5115183     611.8669      1111.72     1058.755      77.3103      155.491     311.1679      1.748     4.00     835.1401     54.88662     121.8373         5     1.377     0.333  40.31   0
       362    160.4762    391.2442 307.8604664  +6.5127154     1877.083     3962.968     4498.802     77.93127     155.8007     311.4157      2.232     5.49     835.9164     54.88662     212.1484        28     1.779     1.088  66.86   0
       363    825.2587    392.1991 307.5843581  +6.5346353     547.6891     1034.175     1217.641     77.43489      155.429      311.075      1.965     3.95     829.5137     54.88662     101.8587         5     1.016     0.518  55.70   0
       364    556.6039    390.5150 307.6959867  +6.5263310     933.3421     1500.133     1289.849     77.55929      155.367      311.106      1.784     5.87     829.4786     54.88662      125.154        13     1.212     0.800  46.23   0
       365    972.7416    386.9182 307.5232845  +6.5417457     767.8184     1087.068     961.1223     78.05488     155.7388     311.4157      1.492     4.65     827.1135     54.88662     108.7866         9     1.071     0.652 -76.36   0
       366    384.0339    386.1385 307.7678005  +6.5223441     1764.348     3287.166     3467.461     77.80748     155.8007     311.3228      1.964     5.61     830.0739     54.88662     210.1146        24     1.681     0.959  50.50   0
       367    272.0182    386.3995 307.8143096  +6.5184701     588.9745     842.2869     882.2829     77.68348     155.3049      311.075      1.575     4.28      832.338     54.88662     90.58032         6     1.119     0.467  70.31   0
       368    437.6734    379.6087 307.7457448  +6.5268420     5666.834     10964.29     12299.79     77.68349     155.3049     311.2299      2.075     5.31     829.4475     54.88662     691.1229        44     1.818     1.181  45.77   0
       369     34.0702    380.2896 307.9133288  +6.5129781     2311.234     4815.618     5121.916     77.93127     155.9862     311.3847      2.210     5.69     838.8048     54.88662     279.1553        33     1.779     1.237  66.97   0
       370    770.3924    378.9059 307.6075908  +6.5382878     1501.069     2767.027     3313.296     77.68348      155.429     311.1679      1.997     4.99     829.3721     54.88662      239.308        20     1.599     0.865  39.62   0
       371    778.3588    377.0144 307.6043458  +6.5393354     9804.838     18336.16     19840.29     77.55929      155.553      311.137      1.947     5.80     829.2848     54.88662     1373.843        48     1.841     1.133  49.17   0
       372    341.6378    375.5175 307.7857651  +6.5253041     798.3538     1490.539      1727.39     78.05488     155.7388     311.3538      2.105     6.89     830.4238     54.88662     109.3198        13     1.600     0.831  61.42   0
       373   1022.1714    372.0486 307.5032539  +6.5495357     2715.136     4907.667     5156.843     77.68348     143.5639      257.235      1.903     6.23      825.276     54.88662     350.4359        24     1.678     0.909  50.11  24
       374    186.8116    368.1677 307.8503097  +6.5231296     663.2579     1259.486     1477.962     77.55929      155.491     311.2609      1.992     5.11     834.4757     54.88662     98.81134         8     1.110     0.664  44.97   0
       375    393.0366    366.6796 307.7647179  +6.5306805     491.3775     819.8397     1551.754     77.93127     155.8007     311.3847      1.905     4.09     829.3857     54.88662     86.25568         5     1.053     0.454  64.24   0
       376    457.9898    364.0621 307.7378315  +6.5339429     1724.195     3513.541     3704.032     77.55929      155.553     311.1989      2.098     5.42     828.7182     54.88662     211.3517        28     1.710     1.075  41.43   0
       377    485.7944    363.2740 307.7263109  +6.5352018     2348.202     4651.393     4823.624     77.68348     155.3049     311.2918      2.011     5.38     828.5424     54.88662      296.682        29     1.772     1.019  46.74   0
       378    915.0700    363.8186 307.5480110  +6.5493561     630.4675     1244.983     1194.532     77.68348      155.615     311.3228      1.819     4.41      827.556     54.88662     105.3217         6     1.278     0.432  63.18   0
       379    843.6494    359.9337 307.5778035  +6.5485721     25590.76     49401.99     54129.37     77.93127      155.615     311.3538      2.057     5.30     828.0317     54.88662     3142.326        74     2.001     1.266  52.41   0
       380    336.2362    355.9240 307.7886694  +6.5332120     743.1227     1477.432     1423.604     77.93127     155.8007     311.4157      1.977     6.56     830.1018     54.88662     101.0133        12     1.522     0.795  51.16   0
       381    615.5419    352.2899 307.6727961  +6.5440895     2107.927     3911.574      4193.26     77.93128     155.7388     311.5085      2.077     5.81      827.877     54.88662     288.6871        27     1.864     0.924  41.92   0
       382     23.5559    352.8148 307.9186248  +6.5239666     787.6048     1658.785     1730.817      77.4349      155.553      311.137      2.064     7.55      838.665     54.88662     117.6053        14     1.690     0.943  52.62   0
       383    700.1262    345.9272 307.6378813  +6.5495510     61511.95     114759.6       124645      78.3015     155.8625     311.4467      2.009     5.92     827.7383     54.88662     8675.192       100     1.974     1.318  48.66   0
       384    859.1259    348.7852 307.5717500  +6.5536926     880.0679     1505.356     1660.011     77.55929      155.491     311.2299      1.740     2.68     827.4561     54.88662     153.7836         8     0.808     0.711  75.99   0
       385     79.2322    345.5694 307.8957490  +6.5288351      1044.98      1941.76     1806.376     77.55929      155.491      311.106      1.960     7.41     836.3953     54.88662     143.1617        18     1.672     0.920  48.11   0
       386    562.6885    342.5587 307.6950741  +6.5463348     2150.446     3942.765     4508.457     78.05488     155.6769     311.4157      1.947     5.24     827.3701     54.88662     265.8865        25     1.631     0.990  52.22   0
       387     99.9124    341.4543 307.8873001  +6.5312311     4917.977     9361.161     10162.96     78.05488      155.615     311.5395      2.010     4.93      835.624     54.88662     580.4528        42     1.801     1.196  50.34   0
       388    941.6585    342.7653 307.5376743  +6.5589370     940.7415     1327.793     1496.174     77.93127     155.7388     311.3538      1.559     5.15     826.2695     54.88662     119.1791        12     1.255     0.758  40.16   0
       389    545.8945    338.8179 307.7021747  +6.5473159     5535.846     10355.65     10609.36     77.93127      155.553     311.2609      1.955     5.31     827.1372     54.88662     721.2599        40     1.817     1.098  51.90   0
       390    274.8844    336.4927 307.8148041  +6.5391711     2105.314     3874.906     3923.266     77.80748     156.1715     311.4776      1.956     5.13     831.1392     54.88662     280.6349        25     1.587     1.058  47.29   0
       391    408.7953    333.9803 307.7592759  +6.5447104      19631.8     38177.88     41698.22     77.68348      155.429     311.1989      2.053     5.38     828.0126     54.88662     2496.753        65     1.956     1.258  46.11   0
       392    517.9344    333.5140 307.7139654  +6.5485675     709.9148     1062.617      1264.79     78.17828     155.9244     311.4467      1.529     3.43     826.9104     54.88662     110.4717         6     0.978     0.460 -55.16   2
       393    515.0403    331.6957 307.7152286  +6.5492211     486.0389     1003.177     1249.943     78.05488      155.615     311.5395      2.453     5.46     826.8005     54.88662     80.70923         5     1.380     0.609  18.90   2
       394    587.2140    332.8437 307.6852154  +6.5511684     467.5864     999.6017     567.9536     77.43489      155.553      311.137      1.754     3.37     826.8258     54.88662     94.24695         5     0.968     0.341  46.60   0
       395    389.3669    332.2166 307.7674040  +6.5447857     893.8802     1632.636     2990.151     77.68349      155.491     311.2609      2.703     5.12     828.4231     54.88662     132.0645        11     1.104     0.790  80.52   2
       396    488.1489    329.1660 307.7264821  +6.5493630     995.9558     1799.551     1690.918     77.93127     155.7388     311.2918      1.888     6.42     826.6771     54.88662     156.3215        14     1.566     0.738  51.14   0
       397    803.8552    326.8452 307.5954418  +6.5609022      718.309     1529.645     1650.253     78.05488     155.7388     311.3847      2.111     7.08     827.2031     54.88662     96.07886        12     1.453     0.966  63.05   0
       398    497.9182    324.3897 307.7225857  +6.5516629     6635.609     12586.92     13517.86     77.68348      155.429     311.2299      2.010     5.20     826.3633     54.88662     820.5171        46     1.922     1.145  46.45   0
       399    767.0257    323.3340 307.6108559  +6.5611193     2471.477     4523.459     5229.805     77.68348     155.6769     311.2609      2.026     5.99     827.0856     54.88662     345.9598        25     1.681     0.937  45.87   0
       400    922.6539    323.5223 307.5462129  +6.5662469     705.9537     1095.198      1014.62     78.17829     155.7388     311.3847      1.784     4.97     825.7296     54.88662     93.20758         7     1.090     0.641  46.20   0
       401    715.1835    323.5683 307.6323793  +6.5592867     715.7824     1130.196     1228.835     77.68348      155.491     311.2918      1.764     5.06     826.8877     54.88662       103.03         8     1.225     0.591  63.91   0
       402    324.5198    321.4419 307.7946986  +6.5470544     899.0129     1693.134     1998.521     78.05488     155.7388     311.3538      1.937     5.26     829.6447     54.88662     114.2965        10     1.202     0.657  45.78   0
       403    260.3735    314.9055 307.8215593  +6.5475954     564.0001     1258.362      740.449     78.17828      155.491     311.2299      1.493     3.37     831.3532     54.88662     96.09692         5     1.468     0.224  72.82   0
       404    160.0073    314.6631 307.8632493  +6.5443167     901.2003     1635.113     1694.843     77.43489      155.491     311.1989      1.917     5.99     834.7001     54.88662     135.5145        12     1.470     0.687  54.13   0
       405    387.6773    308.5707 307.7689031  +6.5544915     5735.322     11242.54     11901.58     77.93128     155.8007     311.4157      2.068     5.61      827.804     54.88662     702.0536        43     1.887     1.151  46.17   0
       406    243.7377    309.1126 307.8286638  +6.5494272     1611.495     3009.565      3390.69     77.93127     155.9244     311.4157      2.032     6.53     831.9269     54.88662     211.6733        22     1.758     0.880  46.02   0
       407    755.6293    304.4769 307.6162227  +6.5685234     42623.46     78146.02     84515.31     77.93128     155.8007     311.4157      1.971     5.39     826.3564     54.88662     5338.221        84     1.956     1.253  46.81   0
       408    741.1997    308.3544 307.6220855  +6.5664393     724.7277     1401.139     1387.737      77.3103      155.491      310.951      2.139     6.45     826.5099     54.88662     102.6578         9     1.623     0.719  46.21   0
       409    427.1821    303.8094 307.7526568  +6.5577845     1828.546     3543.865     3727.698     77.80748      155.491     311.2609      1.990     6.40     826.4958     54.88662     243.0817        22     1.574     0.930  51.13   0
       410    990.6335    301.6650 307.5187115  +6.5775424     1458.964     2347.719     2482.186     77.93127     155.7388     311.3538      1.781     5.27     823.9523     54.88662     177.0121        18     1.635     0.738  52.71   0
       411    573.3185    300.9490 307.6920600  +6.5638707     907.0634      1903.47      1658.71     78.05488     155.8007     311.3847      2.048     7.49     825.0315     54.88662     110.0551        18     1.951     0.806  49.68   0
       412    931.3685    300.6790 307.5433596  +6.5759696     1618.015     2846.135     3418.851     77.93127     155.7388     311.3538      1.830     6.26     824.5609     54.88662     228.4775        17     1.679     0.728  51.86   0
       413    414.0443    299.6779 307.7582524  +6.5590489     1571.984     2943.495     2976.289     77.93127     155.7388     311.3847      1.931     6.42     826.6907     54.88662     213.2557        24     1.764     0.928  58.72   0
       414    464.6982    300.4729 307.7371883  +6.5604220      821.011     1631.299     2388.344     77.68349     155.8625     311.3538      2.185     5.50     825.3654     54.88662     123.7112        10     1.310     0.652  42.98   0
       415    834.9905    293.6460 307.5836251  +6.5756510     921.3901     1696.072     2110.172     77.55929      155.615      311.075      1.856     5.30     825.5029     54.88662     136.8143        10     1.497     0.530  69.72   0
       416    444.5903    291.0261 307.7458578  +6.5636470     1057.947      1842.72     1971.615     77.68348      155.553     311.2609      1.805     5.51      825.457     54.88662      156.687        15     1.507     0.820  54.16   0
       417    190.3931    290.9381 307.8514319  +6.5551350     1713.251     3290.971     3084.222     77.43489      155.553     311.1679      1.967     5.77     833.6175     54.88662     204.1743        23     1.586     1.043  57.14   0
       418    754.0500    289.0673 307.6173964  +6.5748327      4748.99     8834.487     10116.26     77.93127      155.615     311.3538      2.029     5.44     825.7806     54.88662     758.0439        38     1.834     1.081  50.10   0
       419    226.0200    288.7661 307.8367092  +6.5572311     702.2816     1233.116     1151.618     77.55929      155.553     311.1989      1.958     6.17     832.6168     54.88662     79.74988        10     1.222     0.876  84.18   0
       420     86.2685    288.3706 307.8947617  +6.5526870     965.8124     1841.101      2811.23     77.80748     155.7388     311.3228      2.546     7.39     835.4481     54.88662     122.3776        17     1.626     0.940  41.59   0
       421    770.5269    286.9774 307.6106233  +6.5762471     2125.628      3876.38     4138.792     77.68348      155.553     311.3538      1.905     5.85     825.7039     54.88662     298.5316        23     1.661     0.894  49.17   0
       422     72.9883    280.9790 307.9005269  +6.5552910     723.7366     1518.892     1514.163     77.68348      155.429     311.2609      2.292     5.15      835.799     54.88662     153.8366         8     1.172     0.656  44.57   2
       423    360.0182    281.6971 307.7812967  +6.5646570     1508.533     3420.591     3804.898     77.93127      155.615      311.137      2.380     8.08     828.0025     54.88662     154.2216        32     2.059     1.175  25.92   0
       424   1008.6631    277.8698 307.5120206  +6.5879690     4508.407     8456.448     9040.636     78.05488     155.7388     311.4467      2.027     5.86     822.8737     54.88662     615.1552        36     1.838     1.057  41.14   0
       425    486.9798    278.0562 307.7286895  +6.5704252     1632.715     2934.266     3139.044     77.55929     155.7388     311.1989      1.884     5.21     823.9222     54.88662      230.061        20     1.481     0.892  49.12   0
       426    249.3916    273.2640 307.8275263  +6.5644179     4491.747     8696.786     9579.141     77.55929      155.491     311.2299      2.022     5.45      831.239     54.88662     528.0509        37     1.773     1.144  46.08   0
       427    941.0051    269.4171 307.5404057  +6.5891989     511.7364     920.4146     953.2952     77.68348      155.429     311.2299      2.019     4.91     822.9619     54.88662     62.79388         5     1.252     0.545  51.28   0
       428    769.2803    267.2630 307.6118034  +6.5843449     615.1005     1154.507     1033.292     78.17829     155.8007     311.3847      2.157     4.60      824.937     54.88662     95.05151         7     1.379     0.436  30.96   0
       429    383.4190    264.2737 307.7721656  +6.5726370     1201.509     2379.835     2546.823     77.68349     155.6769     311.2918      2.128     6.84     826.4451     54.88662     192.5234        21     2.085     0.846  46.59   0
       430    970.7050    263.4107 307.5282712  +6.5926711     860.3371     1475.943     1307.043     77.68349      155.367     311.1679      1.961     5.98      822.423     54.88662     117.2822        12     1.327     0.759  55.64   0
       431    305.7474    260.1510 307.8045635  +6.5717277     890.7666     1657.532     1696.894     78.17828      155.615     311.3538      2.059     5.87     828.9177     54.88662      118.533        11     1.522     0.637  46.78   0
       432    153.3890    259.7997 307.8678523  +6.5667444      1344.23     2760.334     3140.553     77.68348      155.429     311.1989      2.143     6.77     834.1014     54.88662     175.1975        23     1.859     0.877  46.28   0
       433    562.8103    255.5045 307.6979542  +6.5822808     1731.566     3258.447     3628.626     77.80748      155.367     311.1679      1.949     5.95      823.179     54.88662     218.8937        24     1.803     0.875  48.18   0
       434    906.3177    254.6958 307.5553070  +6.5941177     1336.985     2806.073     3296.487     77.93127      156.048     311.4776      2.216     6.86     822.9259     54.88662     180.5366        20     1.738     0.861  37.89   0
       435    726.5488    253.1900 307.6300246  +6.5887245     3815.404     7171.778     7346.632      77.4349      155.615      311.106      1.937     5.27     824.2834     54.88662     495.6846        34     1.714     1.075  50.28   0
       436    667.3929    253.1920 307.6545946  +6.5867420     1768.536     3215.808      3671.48      77.4349      155.553     311.2609      1.958     5.53     823.6034     54.88662     220.8684        19     1.556     0.878  46.40   0
       437    964.6891    252.7302 307.5311281  +6.5968798     648.9145      1071.03     1096.657     78.05488     155.9862     311.3847      1.633     5.22     821.9795     54.88662     107.0135         8     1.295     0.595  43.37   0
       438    382.9486    247.8626 307.7729145  +6.5793967     561.4039     775.2988     467.8379     78.05488     155.6769     311.3538      1.572     5.07      825.817     54.88662     97.29657         6     1.200     0.606  56.19   0
       439    922.8826    245.6983 307.5487286  +6.5983862     942.2113      1795.11         2023     78.05488     156.1098     311.4776      1.942     6.49     822.1127     54.88662     141.0248        13     1.421     0.831  50.40   0
       440    225.8648    238.5136 307.8384712  +6.5779730      1834.01     3349.094     3427.458     78.05488     155.9244     311.4157      1.916     5.72     831.3625     54.88662     254.1088        23     1.671     0.979  45.42   0
       441    868.8923    237.5301 307.5714279  +6.5999536     1431.614     2582.612      2453.29     78.05488     155.8625     311.3847      1.789     5.40     823.2747     54.88662     226.6691        18     1.554     0.851  54.94   0
       442    759.1977    237.1201 307.6170040  +6.5964526     1369.567      2494.15     2583.666     77.43489     155.2428      311.137      1.878     4.83     823.7864     54.88662     210.5566        18     1.587     0.895  52.21   0
       443    459.9518    228.3220 307.7415911  +6.5900512     17649.64     33587.79     37065.74     78.05488     155.8007     311.3228      2.052     5.33     822.6641     54.88662     2181.667        65     1.972     1.249  47.60   0
       444    785.9663    227.4707 307.6062097  +6.6013326     10324.66      19503.9     22166.57     77.93127     155.7388     311.4467      2.079     5.33      823.403     54.88662     1333.163        64     2.002     1.350  35.79   0
       445    465.7043    223.1506 307.7393761  +6.5923795     1191.517      2424.83     2967.529     77.93127      155.615     311.5395      2.455     6.68      822.383     54.88662     146.0063        16     1.474     0.849  38.21   0
       446    148.2080    221.4649 307.8713000  +6.5823966     1820.888     3306.823     3264.954     77.55929      155.491     311.2609      1.955     5.07     833.7005     54.88662     238.6956        23     1.593     0.971  49.12   0
       447    123.1844    220.7053 307.8817186  +6.5818671     800.6725     1605.818     2006.054     77.80748      155.553     311.2299      2.215     6.18     834.2396     54.88662     116.3031        11     1.367     0.785  46.70   0
       448    922.5290    218.2561 307.5497961  +6.6097045     1093.382      2334.01     2384.107     78.05488     155.6769     311.3538      2.129     8.40     820.9158     54.88662     140.0915        22     1.850     1.086  49.30   0
       449    583.9366    214.0756 307.6905743  +6.6000941     3639.821     6955.721     7243.882      78.3015     155.7388     311.3538      2.018     5.42     821.8558     54.88662     482.8032        36     1.810     1.070  47.59   0
       450    546.7208    214.1632 307.7060290  +6.5988095      1670.17     3042.558     3291.021     77.93127     155.8007     311.3847      1.943     5.25     821.8558     54.88662     230.4797        22     1.658     0.966  47.85   0
       451    388.7725    213.4146 307.7716575  +6.5938147      1399.26     2483.124     2412.185     77.68349      155.553     311.2918      1.904     6.32     824.4598     54.88662     197.3439        21     1.664     1.029  59.87   0
       452    305.0247    214.9219 307.8063904  +6.5903767     832.6077      1543.25     1073.021     77.68348      155.615     311.3538      1.802     6.00     828.4623     54.88662     111.4874        12     1.229     0.824  77.28   0
       453    944.9196    211.2003 307.5407325  +6.6133659     2004.555     3644.951     4377.817      77.3103     155.1186      311.106      1.966     5.42     820.3446     54.88662     311.2124        22     1.670     0.869  44.08   0
       454    891.0115    210.6413 307.5631429  +6.6117949     8631.222     15993.58     16835.72     77.43489      155.553      311.137      1.944     5.62      821.576     54.88662     1225.472        43     1.846     1.061  48.09   0
       455    318.7160    210.9166 307.8008390  +6.5924908     758.7378     1574.049     2190.462     77.80748     155.9862     311.4776      2.648     6.99     827.7645     54.88662      103.699        14     1.912     0.717  44.27   0
       456    210.0766    211.7865 307.8459314  +6.5884760     579.4398      1215.83     1645.856     77.68348      155.429     311.1989      2.374     4.73     831.5692     54.88662     74.45093         5     0.963     0.659 -28.25   0
       457    977.7132    208.5563 307.5271996  +6.6155532     7939.684     14379.59     15693.24     78.05488      155.615     311.3847      1.951     5.34     819.9085     54.88662      1022.49        43     1.789     1.112  46.87   0
       458    689.1752    208.4998 307.6470504  +6.6059239     2205.493     4165.886     4655.788     78.17828      155.491     311.2299      2.068     5.49     822.4449     54.88662     301.8069        26     1.814     0.933  43.86   0
       459     17.1305    207.1688 307.9262230  +6.5838799     19430.27     37973.47     41354.25     77.93127     155.7388     311.3847      2.061     5.33     837.5327     54.88662     2398.519        65     1.933     1.278  50.64   0
       460    263.8267    208.4380 307.8237203  +6.5916676     918.0604     1513.974     1572.007     77.68348      155.553     311.2299      1.839     5.36     829.9824     54.88662     112.2254        11     1.225     0.662  53.54   0
       461    497.9948    203.6111 307.7266228  +6.6015307     1491.653     2716.874     2628.588     77.68348      155.491     311.2918      1.849     5.55     821.6534     54.88662     199.8005        20     1.810     0.757  48.98   0
       462    829.5891    199.8640 307.5890177  +6.6141903     1531.507     2743.127     3078.148     77.55929      155.553     311.2609      1.941     6.05      821.994     54.88662     227.4634        20     1.691     0.855  53.13   0
       463    881.7621    199.2916 307.5673658  +6.6161716     1475.894     2669.368     2763.614     78.17829     155.6769     311.4157      1.738     5.80     821.2806     54.88662     214.3036        16     1.575     0.697  57.29   0
       464    509.7172    199.4984 307.7218925  +6.6036222     2011.574     3660.413     3464.839     78.05488     156.1098     311.4776      1.919     5.36     821.5445     54.88662      245.566        26     1.678     0.967  46.51   0
       465    741.1866    196.6236 307.6258460  +6.6125693     31228.91     58278.39     62672.77     77.80748      155.553     311.3228      1.985     5.59     822.1809     54.88662     4307.135        69     1.952     1.191  46.82   0
       466    344.2334    195.9279 307.7907465  +6.5995371     4619.892     11134.47     13540.89     77.93127     155.7388     311.3538      2.527     6.50      826.378     54.88662     474.0187        58     2.184     1.501  79.72   0
       467    974.9424    195.4345 307.5287906  +6.6208783     2269.051     4094.734     4484.252     77.93127     155.7388     311.3847      1.924     5.51     819.4537     54.88662     306.6818        26     1.764     0.915  46.51   0
       468    909.1350    193.7793 307.5561808  +6.6193627     6007.676      11050.6     11935.28     77.68348     155.7388     311.2609      1.955     5.55     820.4492     54.88662     903.8153        40     1.866     1.026  48.75   0
       469   1013.3632    194.1485 307.5128746  +6.6226924     1371.298     2550.006     2600.751     77.93127     155.7388     311.3228      2.031     6.38     818.9373     54.88662     178.9011        23     1.825     0.910  45.26  16
       470    452.5696    192.7021 307.7458579  +6.6045094     3759.209     7473.237     7905.116     78.17829      155.491     311.4157      2.085     5.87     822.0184     54.88662      474.327        37     1.887     1.119  53.91   0
       471    227.7186    189.9203 307.8393428  +6.5980975     587.9135     900.2057     1020.937     78.17828     155.9862     311.5395      1.870     4.27      830.965     54.88662     95.98975         5     1.057     0.492  52.69   0
       472    109.9758    184.0766 307.8884433  +6.5965442     3708.257     7302.194     7917.035     77.68348      155.615     311.3538      2.099     5.67     833.8964     54.88662     441.2579        36     1.839     1.084  50.50   0
       473    929.1669    183.3535 307.5482099  +6.6243367     704.3469     1150.268     1491.474     77.80748     155.7388     311.3228      1.764     5.38      819.665     54.88662       102.92         9     1.323     0.617  46.21   0
       474    280.2939    180.7515 307.8178157  +6.6036523     26153.66     50575.55     54980.89     77.93127      155.615     311.5085      2.058     5.26     829.7132     54.88662     3250.259        77     1.987     1.297  46.62   0
       475    255.5842    181.8754 307.8280408  +6.6023568     5006.486      9617.43     10423.22     77.55929      155.491     311.2609      2.036     4.97     830.2889     54.88662     599.1621        38     1.822     1.115  47.16   0
       476    606.7682    183.1836 307.6821308  +6.6136140     570.5773     999.7928     802.8163     77.68348      155.491     311.2918      1.621     4.79     821.1998     54.88662     95.41534         7     1.387     0.470  20.11   0
       477    710.3223    180.5277 307.6392072  +6.6181811     779.0311     1003.687     1595.647      78.3015     155.9862     311.3847      1.511     4.13     821.5516     54.88662      103.801         9     1.019     0.636 -86.55   0
       478    404.3589    176.2456 307.7664373  +6.6096841     38528.22     73970.48     80583.45     77.93127     155.7388     311.2299      2.045     5.33     823.0855     54.88662      4895.91        83     1.984     1.304  48.25   0
       479    160.3080    177.4674 307.8677620  +6.6009688     3113.885     5862.951     6153.989     77.93128     155.8625     311.4157      2.028     5.32     832.8345     54.88662     410.3575        30     1.870     0.968  49.08   0
       480    421.7919    176.6778 307.7591818  +6.6100914     966.4629     1673.445     1822.554     77.68349     155.2428     311.2299      2.029     7.09       822.34     54.88662     133.0624        17     2.128     0.662  46.55   0
       481    308.3916    173.9869 307.8063738  +6.6073903     13982.11     27051.67     29780.66     77.68348      155.553     311.2918      2.059     5.36       828.39     54.88662       1751.3        62     1.952     1.269  46.64   2
       482    315.9177    173.9978 307.8032474  +6.6076389     1719.342     3833.522     4967.275      77.4349      155.367      311.137      2.542     6.89     827.9033     54.88662     245.4296        31     1.930     1.305  62.21   3
       483    743.6335    172.5103 307.6256402  +6.6226069     26355.98      48303.7     52338.08     78.17829      155.615     311.3847      1.969     5.45      821.189     54.88662       3286.3        67     1.963     1.173  45.90   0
       484    691.8824    174.3665 307.6470738  +6.6201072     855.6908      1561.93     1520.687     78.05488     155.6769     311.3538      2.017     6.13     821.3284     54.88662     116.5924        12     1.563     0.677  38.39   0
       485    791.9926    172.9924 307.6055368  +6.6240268     1034.359     1575.762     1788.338      77.4349      155.553     311.2609      1.731     5.86     821.0256     54.88662     137.4474        15     1.417     0.809  44.50   0
       486     60.4782    169.6217 307.9094903  +6.6008433     7039.505     13440.84      14585.1     77.68349      155.491     311.3847      2.011     5.31     835.6558     54.88662     821.1614        45     1.857     1.170  49.21   0
       487     31.2395    172.6023 307.9215333  +6.5986266     568.4554     950.0483     1309.449     77.18551      155.491      311.106      1.972     6.08     837.0301     54.88662     99.65582         8     1.635     0.636  44.55   0
       488     94.4878    167.9797 307.8954205  +6.6026678      1237.78     2390.227     2399.385     77.93127      155.491     311.2918      1.929     5.84     834.0091     54.88662     160.3362        20     1.553     0.975  47.65   0
       489   1002.2170    166.9090 307.5184176  +6.6335667     882.3715     1728.304      2053.33     77.80748      155.491     311.2918      1.981     7.05     818.0662     54.88662     127.9378        15     1.330     1.046  61.60   0
       490    970.8214    167.3388 307.5314445  +6.6323406     534.3649     694.0909     1097.853     77.68348     155.7388     311.2918      1.271     2.99     818.5372     54.88662     95.86957         5     0.739     0.443 -16.36   0
       491   1003.0631    153.4699 307.5185168  +6.6391436     1769.702     3192.398     3877.826     78.05488     155.7388     311.4467      2.121     7.69     817.4962     54.88662     248.6343        23     1.954     0.846  58.41   0
       492    586.2816    150.7562 307.6917319  +6.6263151     740.4339     1406.751     1349.717     78.05488     155.7388     311.3538      1.957     6.62     820.2546     54.88662     112.1672        13     1.565     0.785  54.44   0
       493    594.3306    148.9861 307.6884481  +6.6273159     1527.261     2979.684     2915.008     77.55929      155.615     311.2918      2.054     6.63     820.1633     54.88662     199.4574        18     1.649     0.791  46.19   0
       494    279.0942    147.0147 307.8194532  +6.6175404     23405.04     45676.34     50435.18     77.80748      155.491     311.2299      2.068     5.42     829.8499     54.88662     3084.383        79     2.001     1.449  42.29   0
       495    338.5539    148.8318 307.7946948  +6.6187902      889.334     1645.218     1861.543     77.80748     155.7388     311.2918      2.133     6.35     826.4169     54.88662     137.2536        13     1.638     0.691  44.99   0
       496     24.5801    145.4488 307.9252183  +6.6096123     3522.715     6543.627     7078.761     77.55929     155.8007     311.1989      1.982     5.49     837.2101     54.88662     396.5445        32     1.784     1.048  46.63   0
       497    710.9117    143.6642 307.6402018  +6.6334207     6215.828     11777.02     12911.04     78.05488     155.9862     311.3847      1.995     5.62     820.0038     54.88662     833.1445        39     1.829     1.084  49.56   0
       498    188.3200    144.5071 307.8572415  +6.6155200     772.8971     1476.791     1152.918     77.80748     155.9244     311.4467      1.797     6.17     831.6608     54.88662     107.4191        10     1.472     0.727  87.35   0
       499    265.4406    142.0340 307.8252926  +6.6191373     642.3282     1047.644     1174.381     77.80748     155.7388     311.1989      1.670     5.84       830.14     54.88662      105.851         8     1.184     0.812  75.60   0
       500    121.6731    140.6634 307.8850532  +6.6148616     3897.309     7018.923     7663.964     78.05488     155.7388     311.4157      1.923     5.33     832.6678     54.88662     465.2076        34     1.785     1.079  51.93   0
       501    583.5919    138.4844 307.6932622  +6.6312915     608.1183     1267.064     1586.152     77.68349      155.429     311.2299      2.913     5.00     819.6288     54.88662     85.01379         7     1.245     0.569  38.66   0
       502    460.8549    138.1036 307.7442570  +6.6273293     1086.327     2001.484     1706.944     77.93127     155.7388     311.5704      1.889     6.65     820.6923     54.88662     137.6456        15     1.576     0.788  48.91   0
       503    392.3741    136.7729 307.7727467  +6.6255780     3120.314     6355.158     6509.665     77.55929      155.553     311.2299      2.141     5.61     823.2152     54.88662     368.1906        38     1.954     1.113  50.53   0
       504    649.2935    137.6590 307.6659989  +6.6338353     614.7609     1139.656     1197.515     77.93127     155.7388     311.5085      1.807     5.94     819.7507     54.88662     116.1884         9     1.564     0.635  34.42   0
       505    569.3811    136.2563 307.6992401  +6.6317347     583.6863     1190.672     1227.121     77.55929     155.6769     311.1989      2.189     6.02     819.5145     54.88662     97.25812         9     1.559     0.654  54.22   0
       506    356.8033    135.6220 307.7875604  +6.6248576     2438.092     4511.699     4812.256     77.68348      155.429     311.1679      1.947     5.54     825.2782     54.88662     301.3637        24     1.710     0.904  46.78   0
       507    110.9706    135.3093 307.8896796  +6.6167114     1393.613     2696.489     3119.735     78.17828      155.491     311.3228      2.154     5.93     832.6502     54.88662     167.7231        20     1.599     0.889  49.85   0
       508    672.8182    133.4949 307.6563673  +6.6363429     674.4628     1166.991     900.7991     77.93127      155.553     311.2609      1.816     5.24     819.5546     54.88662      95.3111        10     1.232     0.629  48.57   0
       509   1003.5190    130.0024 307.5191142  +6.6488480     1101.136     1957.078       2540.7     77.43489     155.3049      311.137      1.884     6.12     816.5381     54.88662     157.8321        14     1.519     0.692  48.96   0
       510    208.6397    124.5470 307.8494761  +6.6244449     4382.946     8130.517     8709.902     77.93128     155.7388     311.3538      1.957     5.14     831.0889     54.88662     554.5278        35     1.748     1.123  49.82   0
       511    670.3849    123.5155 307.6577137  +6.6403815     4890.073     8985.504     9627.022     77.68349      155.491     311.2918      1.949     5.04     819.0951     54.88662     686.7701        39     1.822     1.110  48.54   0
       512     91.4778    124.4693 307.8981426  +6.6205296     1635.682     3205.852     3513.564     78.17829     155.9862     311.3538      1.986     6.57     832.8759     54.88662     210.8071        22     1.800     0.959  48.71   0
       513    622.6271    120.7234 307.6776456  +6.6399335     7332.919     13970.83     16092.26     77.93127     155.6769     311.3538      2.075     5.55     818.8792     54.88662     923.9112        49     1.907     1.201  54.58   3
       514    626.0913    112.1863 307.6764939  +6.6435743     40704.34     78644.35     86394.39     77.80748      155.491     311.1679      2.047     5.86     818.4529     54.88662     5654.931        87     2.010     1.283  48.11   2
       515    818.3255    122.9948 307.5962781  +6.6455505     715.3873     1549.681     1729.405     77.68348     155.2428     311.2918      2.203     6.80     818.4354     54.88662     136.8547        11     1.984     0.654  42.05   0
       516    257.9880    122.0510 307.8290630  +6.6271366     575.6937      884.581     1364.299      77.4349      155.615      311.137      1.510     3.96     830.2536     54.88662     116.2599         5     0.865     0.520 -64.92   0
       517    349.9089    116.3905 307.7910731  +6.6325656     2813.222     5842.381     6210.148     77.68348      155.429      311.137      2.194     5.35     825.7083     54.88662     357.9636        38     1.729     1.369  56.40   0
       518    531.6620    115.9009 307.7155934  +6.6388731      1334.51     2534.711     2603.038     77.80748     155.8007     311.4776      1.967     6.48     818.7344     54.88662     163.6411        18     1.585     0.790  45.88   0
       519    996.7582    115.5736 307.5224064  +6.6545794     624.9083     1231.026     836.1332     77.68349     155.6769     311.2299      1.945     4.05     816.0139     54.88662     101.2112         7     1.104     0.643  58.33   0
       520    305.1521    105.7831 307.8100219  +6.6354398     2705.728     5610.416     6691.334     77.55929     155.7388     311.1679      2.211     5.57     828.6074     54.88662     308.5641        37     1.895     1.173  49.73   0
       521      3.2471     89.0816 307.9359874  +6.6321635     731010.5      1632802      1772661     78.05488      147.799     263.2728      2.228    11.83     837.4709     54.88662     63749.94       338     2.274     1.713  70.39  28
       522    705.3433    100.2882 307.6439735  +6.6511427     674.4331     1219.576     830.7886     78.05488      155.615     311.5085      1.775     5.66     817.8812     54.88662     91.90747        11     1.650     0.547  47.10   0
       523    676.6387     99.4657 307.6559249  +6.6505205     1091.071     1981.372     2339.688     77.93128     155.6769     311.4776      2.003     6.41     817.8359     54.88662     144.1196        17     1.540     0.828  48.84   0
       524    690.7206     96.2445 307.6501837  +6.6523222     2530.892     4610.557     4682.476     78.05488     155.7388     311.3847      1.921     5.75     817.7108     54.88662     319.2858        27     1.736     0.955  54.39   0
       525    432.3564     87.1568 307.7578122  +6.6474060     3160.656     5802.905     5563.391     77.80748     155.7388     311.2609      1.904     5.32     820.6312     54.88662     417.6146        29     1.751     0.984  45.82   0
       526    904.8096     82.6317 307.5617076  +6.6651077     2928.394     5438.117     5434.812     77.55929      155.491     311.2299      1.913     5.44     815.5416     54.88662     388.7453        29     1.818     0.950  49.49   0
       527    886.7881     83.6741 307.5691589  +6.6640748     1721.858     2850.581     3120.051     77.55929      155.429     311.1989      1.753     5.66      815.822     54.88662     232.5667        22     1.633     0.864  50.23   0
       528    585.1708     83.0935 307.6944713  +6.6542134     675.7637     1340.266      1120.75     78.17828      155.491     311.2918      1.898     6.07     817.5305     54.88662     123.9887         9     1.739     0.595  44.30   0
       529    597.2040     81.4433 307.6895283  +6.6552983     1338.497     2319.051     2239.051      77.4349      155.367      311.106      1.881     5.66      817.511     54.88662     171.3761        21     1.725     0.906  48.96   0
       530    395.5900     78.9896 307.7733600  +6.6495425     1568.138     2874.252      2607.48     77.68348      155.553     311.3228      1.965     6.18     822.6907     54.88662     200.0205        22     1.738     0.888  51.77   0
       531    241.6974     79.4038 307.8372703  +6.6441953      578.657      1046.94     1805.891     77.80748      155.429      311.075      2.203     5.26      829.817     54.88662     86.97235         5     1.068     0.731 -55.67   0
       532    143.5326     75.8843 307.8781644  +6.6423424     2534.403     4904.497     4613.768      78.3015     155.9862     311.4157      1.953     5.27     830.2731     54.88662     308.3505        31     1.758     1.073  54.31   0
       533    292.0231     74.4936 307.8165319  +6.6479161     1038.958     1919.642     2304.979     78.05488      155.553     311.2299      2.008     6.96     828.9224     54.88662     113.6863        17     1.751     0.775  57.01   0
       534     25.3724     73.6250 307.9273208  +6.6392912      9654.51      18717.1     20982.57     77.55929      155.553     311.2609      2.060     5.48     834.6295     54.88662     1141.183        49     1.922     1.178  50.25   0
       535    564.9335     73.9475 307.7031859  +6.6573106     444.3402     757.0336     879.1256     78.05488     155.6769     311.3228      1.840     5.94     817.4752     54.88662     113.0076         6     1.583     0.627  52.67   0
       536    760.5239     73.0175 307.6219682  +6.6642498     612.8928     1312.505     2195.797     77.55929      155.491     311.3228      3.108     5.56     816.8264     54.88662     84.43787         9     1.520     0.573  39.09   0
       537    827.1234     68.3447 307.5944591  +6.6684082     4750.813     8721.331     9543.412     78.05488     155.7388     311.3538      1.956     5.76     816.1106     54.88662     641.2704        36     1.821     1.055  50.10   0
       538    772.1392     68.7407 307.6172868  +6.6664045      2499.47     4616.975     4921.481     78.05488     155.7388     311.4157      1.995     5.39     816.6455     54.88662     342.9306        26     1.691     0.935  46.66   0
       539    417.8260     69.3230 307.7644494  +6.6542807     903.2675     1637.598     1101.565     77.80748     155.7388     311.3538      1.918     6.60     821.0894     54.88662     130.9461        11     1.510     0.821  46.61   0
       540    534.8779     66.7630 307.7159129  +6.6592683      821.435     1706.917     1675.401     77.93127     155.8007     311.3847      1.746     5.70     817.6446     54.88662     120.0917        10     1.456     0.651  61.37   0
       541     65.6550     65.5738 307.9108613  +6.6439738     2733.938     5156.962     5446.388     77.68349     155.8007     311.2299      1.986     5.60     832.2986     54.88662     322.4886        28     1.726     1.016  50.67   0
       542     51.1428     67.5316 307.9168229  +6.6426762     636.1115     1092.642     889.8947     78.17828     155.6769     311.3228      1.595     4.93     833.0045     54.88662      99.9043         7     1.158     0.594 -23.79   0
       543    654.0654     65.9323 307.6664301  +6.6636087     483.3969     1008.882     1329.771     78.05488     155.7388     311.4157      2.075     5.76     817.1442     54.88662     95.26068         6     1.632     0.573  50.59   0
       544    427.6098     66.2090 307.7604904  +6.6558950     714.3576     1229.702     1348.146     77.55929      155.553     311.2918      1.860     4.23     820.6665     54.88662     102.2173         6     1.020     0.501  87.14   2
       545    426.0000     62.8459 307.7612725  +6.6572294     533.2272     1063.506     1253.776      77.3103      155.367       310.92      1.415     3.92     820.7394     54.88662     109.7587         5     1.422     0.309 -79.82   2
       546    589.5310     62.3907 307.6933572  +6.6629071     1019.813     2057.525     2155.681     77.55929      155.553     311.2609      2.108     7.58     817.3152     54.88662     156.8043        18     1.925     0.836  47.04   0
       547      8.2332     61.0421 307.9348659  +6.6439077     2021.348     4011.004     5210.801     77.80748     155.7388     310.7029      2.140     5.48     833.9386     54.88662      273.922        24     1.758     0.882  37.60  16
       548    766.9398     56.2412 307.6198668  +6.6713910     1510.382     2945.277      3286.12     78.05488     155.7388     311.4776      2.089     6.34     816.2483     54.88662     206.3776        18     1.727     0.817  48.67   0
       549     80.3713     56.7123 307.9050485  +6.6481285     549.9562     819.4528      439.232     78.17829      155.491     311.2609      1.754     6.07     831.4559     54.88662     103.1234         9     1.592     0.652  50.64   0
       550    407.7785     56.3705 307.7690600  +6.6592906       864.44     1680.195     1431.083     77.55929      155.553     311.2609      1.819     5.70     821.8657     54.88662     129.5854        12     1.625     0.563  43.18   0
       551    104.3429     54.9022 307.8951525  +6.6496840     699.9951     1308.638     1444.866     77.80748     155.7388     311.5704      2.014     6.72     830.7348     54.88662     101.1992        11     1.862     0.681  41.13   0
       552     93.4456     49.8398 307.8998503  +6.6514066     7255.484     14102.74     15530.78     77.93127     155.7388     311.2609      2.060     5.45     830.9524     54.88662     827.7048        47     1.915     1.162  50.80   0
       553    422.5737     49.6579 307.7631405  +6.6625591     2061.305     3573.527     3882.092     77.68349     155.8007     311.1989      1.879     6.06     820.8367     54.88662     229.3112        23     1.644     0.903  51.13   0
       554    260.1262     44.0936 307.8308081  +6.6593936      1273.56     2439.544     4174.076     77.93127     155.8625     311.3847      2.921     5.88     828.4135     54.88662     159.5789        20     1.538     0.983  45.27   2
       555    254.1510     38.1710 307.8334903  +6.6616376     1551.846     3349.684     4591.954     77.68348     155.8007     311.2918      2.658     7.16     828.2227     54.88662     189.3671        23     1.748     0.925  51.02   3
       556    636.2729     41.9340 307.6746288  +6.6729203     14524.86     27208.73     29337.55     78.17828     155.8007     311.3847      1.984     5.73     816.7966     54.88662     1997.528        57     1.897     1.175  49.19   0
       557    536.0312     38.0221 307.7164020  +6.6711730     4158.334      7862.66     8316.248     77.55929      155.553     311.1989      1.962     5.28     817.4826     54.88662     599.9592        34     1.766     1.067  48.33   0
       558    441.5818     33.5473 307.7557878  +6.6698491     17757.04     33856.83     36593.28     77.55929     155.8007     311.1679      2.013     5.28     819.7375     54.88662      2212.78        60     1.943     1.199  47.98   0
       559      3.7886     36.1354 307.9375555  +6.6540404     857.8359     1552.896     1617.054     77.55929     152.1063     270.3187      1.871     5.48     831.0884     54.88662     105.8582        11     1.424     0.594  51.22  16
       560    322.3112     34.7621 307.8052920  +6.6653383     1032.404     1700.277     1579.546     78.05488     155.6769     311.4157      1.727     6.88     827.4243     54.88662     128.2035        17     1.548     0.858  37.60   0
       561    262.1620     33.8980 307.8303069  +6.6636714     7124.742     13727.42     15971.04     78.05488      155.615     311.5704      2.100     5.49     828.0804     54.88662     908.2156        45     1.917     1.146  49.55   0
       562    919.5471     33.8154 307.5572237  +6.6857552     1469.379     2809.244     2597.097      77.4349     155.7388      311.106      1.972     5.84     814.3551     54.88662      224.526        19     1.720     0.805  45.39   0
       563    622.6778     32.4859 307.6805944  +6.6763653     2476.155     4912.281     6765.937     78.05488      156.048     311.4776      2.524     7.80     816.7198     54.88662     348.0024        37     2.434     1.038  57.46   0
       564     27.6270     33.6130 307.9277390  +6.6558861     1827.378     3448.725     3711.102     77.80748      155.553     311.3228      2.053     5.87     830.7925     54.88662     229.7952        21     1.739     0.812  52.34   0
       565    250.1452     30.5218 307.8354126  +6.6646608      2354.43     4648.857     5965.664     78.17828     155.7388     311.4157      2.347     5.68     827.9755     54.88662     312.9757        29     1.817     0.979  45.62   1
       566    302.8800     28.6674 307.8135694  +6.6672009     770.7261     1579.477     1586.488     78.17828     155.9862     311.3847      1.877     5.71     827.7224     54.88662     113.9044        12     1.493     0.615  43.95   0
       567    939.9565     23.9852 307.5490749  +6.6904959     918.8981     1640.172     2051.996      77.4349      155.553      311.137      2.021     6.58     813.5275     54.88662     132.2466        13     1.533     0.794  40.10   0
       568    691.4144     23.0986 307.6523558  +6.6825449     1468.008     2842.534     3456.943     77.93127      155.491     311.1679      2.205     6.87      815.919     54.88662     214.9656        23     1.822     1.015  55.50   0
       569    750.3909   1018.1225 307.5944319  +6.2737013     997.6175     1868.314     2755.661     77.68348     155.2428      302.815      2.502     5.36     849.1859     54.88662     158.4345        15     1.500     0.736  51.02  24
       570    957.6360   1012.3196 307.5085998  +6.2830257     4533.811     9479.542     10123.52     77.93127     155.8007     311.4157      2.190     5.25     844.9877     54.88662     532.7587        44     1.942     1.245  47.18  16
       571    712.6396   1012.7216 307.6102835  +6.2746676     732.0513     1361.677     2005.467     77.93127     155.7388     311.3847      2.417     6.51     849.6669     54.88662      83.1261        11     1.424     0.835  83.63   1
       572    242.4197   1012.2606 307.8054780  +6.2590798     1077.954      1878.09     1409.981     77.68349     155.6769     311.3228      1.816     6.18     851.1982     54.88662     138.1615        15     1.493     0.720  49.82   0
       573    717.4997   1010.4249 307.6083432  +6.2757785     2195.936     4547.004      5362.54     78.17829      155.491     311.2609      2.211     5.61     849.5629     54.88662     295.2137        31     1.820     1.150  49.67   0
       574    732.9176   1009.5796 307.6019717  +6.2766436     733.3766     1628.767     1647.047     77.80748      155.429     311.3228      2.372     6.70     849.5069     54.88662     99.34424        12     1.629     0.773  56.91   0
       575    439.9156   1009.8531 307.7235838  +6.2667095     530.5116     925.4431      1005.26     78.05488     155.7388     311.5395      1.891     5.65     851.8716     54.88662     79.08478         6     1.275     0.706   2.44   0
       576    364.1280   1007.6661 307.7551153  +6.2650675     1349.728      2340.73     2479.093     78.05488     155.8007     311.4467      1.860     5.81     852.2956     54.88662     186.9891        19     1.552     0.826  49.00   0
       577    750.8482    997.4728 307.5949352  +6.2822423     5794.515      11326.6        12052     78.05488     155.8007     311.4157      2.041     5.24     848.5782     54.88662     684.0196        43     1.909     1.170  47.02   0
       578    546.3033    998.1469 307.6798179  +6.2751119     3145.547     6432.495     7440.292     77.93127     155.7388     311.6323      2.201     5.50     851.1321     54.88662     380.1984        38     1.899     1.196  45.69   3
       579    543.6528    990.3920 307.6811789  +6.2782248     6212.963     12077.46     13607.57     77.55929      155.553      311.106      2.095     5.31     850.9849     54.88662     809.0023        46     1.939     1.171  49.78   3
       580    516.9898    999.2783 307.6919475  +6.2736617     884.3311     1879.916     1981.499     77.68348      155.429     311.2609      2.175     6.25     851.4597     54.88662     137.7068        12     1.604     0.684  49.51   0
       581    296.6696    996.6635 307.7834864  +6.2673433     11209.48     22060.66     25296.73     78.05488     155.7388     311.4467      2.165     5.52     851.5223     54.88662     1425.253        70     1.926     1.693  39.84   0
