#   1 NUMBER                 Running object number                                     
#   2 X_IMAGE                Object position along x                                    [pixel]
#   3 Y_IMAGE                Object position along y                                    [pixel]
#   4 ALPHA_J2000            Right ascension of barycenter (J2000)                      [deg]
#   5 DELTA_J2000            Declination of barycenter (J2000)                          [deg]
#   6 FLUX_APER              Flux vector within fixed circular aperture(s)              [count]
#   9 FLUXERR_APER           RMS error vector for aperture flux(es)                     [count]
#  12 FLUX_RADIUS            Fraction-of-light radii                                    [pixel]
#  13 FWHM_IMAGE             FWHM assuming a gaussian core                              [pixel]
#  14 BACKGROUND             Background at centroid position                            [count]
#  15 THRESHOLD              Detection threshold above background                       [count]
#  16 FLUX_MAX               Peak flux above background                                 [count]
#  17 ISOAREA_IMAGE          Isophotal area above Analysis threshold                    [pixel**2]
#  18 A_IMAGE                Profile RMS along major axis                               [pixel]
#  19 B_IMAGE                Profile RMS along minor axis                               [pixel]
#  20 THETA_IMAGE            Position angle (CCW/x)                                     [deg]
#  21 FLAGS                  Extraction flags                                          
         1    190.0157     19.9911 307.8651132  +6.6680731     9555.967      16698.4     17970.89     84.51217     168.8897     338.0823      1.882     4.02     1004.041     59.61622     1086.948        47     1.600     1.317  74.63   0
         2    935.4499     17.6060 307.5553823  +6.6940203     4250.806     5873.598     5438.965     84.24259      168.957     337.8131      1.434     3.08     980.2224     59.61622     657.6556        22     1.279     0.858  62.96   0
         3    736.4218     16.2396 307.6381497  +6.6879385     1866.268     2853.624      3129.52     84.37749      168.957      338.015      1.690     4.10     984.0978     59.61622     246.2224        17     1.187     1.024  70.18   0
         4    472.3775     16.5621 307.7478799  +6.6789670     1761.758     2826.738     2941.272     84.37749     168.8897      338.015      1.747     4.32     988.8415     59.61622      218.924        18     1.224     1.032  47.85   0
         5   1000.2034     14.0855 307.5285867  +6.6976330     1999.309     2778.059     2339.564     84.24259      168.755     337.9141      1.409     3.21     971.8879     59.61622     344.8312        15     1.170     0.741  66.73   0
         6    719.7037     10.3726 307.6452955  +6.6898017     7070.697     10806.25     11518.02     84.91493     168.8897     338.1496      1.681     3.66     984.3705     59.61622     833.5875        34     1.489     1.058  62.17   0
         7    639.8132      9.6551 307.6785239  +6.6874258     3576.635     5740.182     6259.649     84.10748     169.0916     337.9477      1.730     3.67     985.7871     59.61622     392.9991        31     1.419     1.169  61.64   0
         8    342.0084      9.1215 307.8023130  +6.6776659     863.9247     1458.875     1655.118     84.37749     168.6201      338.015      1.721     4.68     999.9318     59.61622     113.6976        13     1.062     0.937 -57.67   0
         9    440.0413      5.9932 307.7616755  +6.6822461      5291.89     9439.253     10150.45     84.10748     168.8224     320.5734      1.905     4.10     991.3113     59.61622     609.8414        35     1.525     1.226  71.65  24
        10    687.0589      4.7958 307.6590511  +6.6910125     893.6587     1422.784     1005.826     84.10748     169.0243     306.9442      1.445     5.05     985.2446     59.61622     151.7718         9     1.108     0.677  47.38  16
        11    516.0428      3.0440 307.7301878  +6.6860110     633.1776     970.6235     1403.194     84.64664     158.3953     282.6387      1.924     5.27     987.9744     59.61622     88.13342         7     1.415     0.554  61.11  24
        12    336.7396      1.9555 307.8047447  +6.6804474     9154.229     12429.81     13093.56     81.07806     144.0296     265.2862      1.458     4.18     1000.368     59.61622     1276.297        28     1.354     0.998  -6.79  24
        13    110.6323      1.9728 307.8987134  +6.6728417      2024.67     2769.638     2777.572     80.79703     144.0296     265.3719      1.432     3.66     1006.871     59.61622     290.4672        17     1.218     0.906   6.17  24
        14     41.1281      5.6490 307.9274738  +6.6689848     7695.502     12635.69      13499.6     84.78089     169.2261     317.2569      1.760     3.67     1006.163     59.61622     891.6246        36     1.492     1.182  75.51  16
        15    101.8058      1.2956 307.9024045  +6.6728243     764.7872     971.9277     1136.334     72.95622     133.4551     253.5814      1.198     3.38     1007.442     59.61622     152.5191         5     0.794     0.418 -15.82  24
        16    306.6886   1000.6223 307.7835336  +6.2671491     16594.21     23372.33     24625.59     84.78089      168.957     338.0823      1.519     3.14     1025.269     59.61622     2365.446        37     1.397     0.992  71.51   2
        17    760.5645   1022.0914 307.5943254  +6.2734766     1332.892      1762.82     1462.825     84.91493     156.5899     280.7006      1.357     3.89     1019.662     59.61622     225.4287        11     1.256     0.567  62.89  24
        18    727.9167   1023.8567 307.6078243  +6.2716574      567.163     752.1223      1299.81     71.38031     131.3073     251.0572      1.122     3.22     1020.965     59.61622     222.7062         5     1.236     0.244 -12.00  24
        19    583.8928   1023.7241 307.6676396  +6.2668975      1334.92     1523.779     1876.648     72.95622     133.5403     253.5814      1.054     2.40     1023.363     59.61622     424.0739         9     1.065     0.445   2.43  24
        20    310.9094    997.5406 307.7818848  +6.2685629     1206.402     1780.675     2239.053     84.64664     169.1589     338.3513      1.957     3.37      1025.28     59.61622      190.321        14     1.126     0.832  58.51   3
        21    822.2326   1000.6469 307.5694346  +6.2843890     1321.985     1989.054     1833.106     84.51217     169.1589     338.1496      1.620     3.84     1017.185     59.61622     220.6714        13     1.222     0.743  59.55   0
        22    431.1413   1001.1068 307.7318352  +6.2711212     978.7117     1217.664     977.6295     84.64664     169.0916     338.3513      1.534     4.58     1025.194     59.61622     150.7966        11     1.228     0.638  84.48   0
        23      3.3870   1001.7690 307.9094440  +6.2564868     792.3143     1088.333     1158.419     84.24259     161.5941     287.8618      1.575     4.02     1024.418     59.61622     120.1252         7     0.990     0.466  80.58  16
        24    277.9861    998.1492 307.7955363  +6.2672071     1203.734     1670.275     1448.268     84.10748     169.1589     337.9477      1.416     4.30     1025.149     59.61622      194.319        12     1.223     0.679  83.10   0
        25    922.3714    994.6884 307.5280465  +6.2901895      10416.3     13831.87     14550.88     84.91493     168.8897     338.0823      1.405     3.03     1016.516     59.61622     1638.262        30     1.381     0.883  72.13   0
        26     51.9675    993.6298 307.8895461  +6.2614809     515.2059     432.8103     385.7143     84.24259     168.8897     337.9141      1.263     4.33     1024.658     59.61622     91.27405         6     1.127     0.474  69.87   0
        27    896.0565    990.8392 307.5391042  +6.2909012     14438.01     20258.02      21196.9     84.78089     169.2261     338.1832      1.448     3.13      1016.56     59.61622     2300.894        43     1.338     1.136  66.88   0
        28   1017.7351    990.2541 307.4885897  +6.2951984     5684.758     7654.242     7794.774     84.78089     169.0916     332.0746      1.414     3.19     1013.176     59.61622     897.4174        22     1.278     0.814  71.50  16
        29    608.9301    991.0817 307.6583394  +6.2812115     1417.116     2061.975      2153.87     85.04876     169.4276     338.2505      1.540     4.01      1022.91     59.61622     186.9548        14     1.226     0.814  83.78   0
        30    540.0849    989.8906 307.6869702  +6.2793998     4558.791     6476.599     7229.107     84.51217     169.4947     338.3513      1.505     3.33     1023.418     59.61622     641.7396        22     1.301     0.870  65.61   0
        31    649.8018    989.3798 307.6414229  +6.2832807     1542.381     1995.367     1445.182     84.37749      168.755     337.9141      1.432     3.23     1021.276     59.61622     286.8124        16     1.235     0.826  54.49   0
        32    553.8115    994.0076 307.6811313  +6.2781595     9158.836     12782.08     13643.71     84.37749      168.957      338.116      1.476     3.09      1023.28     59.61622     1342.722        29     1.344     0.933  71.66   0
        33     74.8609    988.6135 307.8802090  +6.2643215     974.7735     1529.327     1472.882     84.24259     169.0243     337.9141      1.555     5.28     1024.772     59.61622     159.2137        12     1.382     0.734  59.00   0
        34    805.1284    987.0949 307.5769926  +6.2894131     650.8394     1083.213     1391.695     84.64664     169.2261     338.2169      1.505     4.79     1017.026     59.61622     104.8633         6     1.045     0.623  77.27   0
        35    493.4317    986.4512 307.7064605  +6.2792580     2210.859     2947.065      2795.23     84.64664     169.2261     338.1496      1.446     3.39      1024.35     59.61622     306.9048        18     1.297     0.798  79.85   0
        36    927.7683    978.3848 307.5263515  +6.2971005     51433.64     69916.69     72969.83     84.37749     168.8897      338.116      1.430     3.03      1015.88     59.61622     8082.733        57     1.422     1.023  69.62   0
        37    333.2679    979.5222 307.7732073  +6.2767516     717.8854     937.4536     1444.734     84.91493     169.2261     338.1832      1.556     3.33     1025.316     59.61622     124.1311         7     1.115     0.649  34.66   0
        38      1.3053    978.4439 307.9110973  +6.2660461     2278.497     2756.388     2624.848     73.26734     133.9655     254.0742      1.170     3.08     1024.406     59.61622     533.1042        10     1.199     0.456  86.77  24
        39    235.1337    976.8035 307.8140519  +6.2745813     1863.044     2689.102     2557.187     84.10748     168.8224     337.9814      1.554     3.63     1025.005     59.61622      284.907        16     1.207     0.876  67.62   0
        40    123.0736    975.7686 307.8606221  +6.2712450      704.367     757.4218     533.6525     84.64664     169.1589     338.2505      1.153     4.05     1024.884     59.61622     120.9772         6     0.946     0.496 -38.55   0
        41    633.8130    974.4593 307.6485644  +6.2889062     975.5324     1313.457     1197.985     84.10748     169.0916     337.8804      1.656     4.62     1021.756     59.61622     126.0563         8     1.023     0.593  67.37   0
        42    773.9496    970.0884 307.5905121  +6.2953933     7539.411     10459.17     11488.58     84.78089      168.957     338.3513      1.454     3.08     1017.799     59.61622      1197.73        35     1.521     0.994  87.71   0
        43    825.7370    972.1291 307.5689359  +6.2962797     2537.358     3332.385     3283.369     84.78089     169.1589     338.2505      1.364     3.32     1016.602     59.61622       411.16        14     1.248     0.638  63.77   0
        44    560.8279    969.6282 307.6790374  +6.2884593     970.3326     1509.191     1231.984     84.24259      168.957      338.015      1.658     4.29     1023.061     59.61622     154.5638        10     1.116     0.632  74.43   0
        45    243.4883    969.1633 307.8108402  +6.2780160     1664.945     2336.055     2130.085     84.78089     169.0243     338.2169      1.604     3.37     1025.067     59.61622     271.4136        17     1.181     0.900  44.73   0
        46     68.4086    967.3436 307.8836073  +6.2728856     2906.462      4226.31     4434.956     84.10748     169.0916     337.9477      1.555     3.18      1024.74     59.61622     422.9856        23     1.369     0.899  76.33   0
        47    208.1636    968.7812 307.8255226  +6.2769878     923.5757       1435.2     1204.069     84.24259      168.957     337.9814      1.751     4.46     1024.976     59.61622     143.4158         8     1.030     0.698   4.05   0
        48    962.1334    965.1370 307.5125231  +6.3037156     7845.104     10500.45     10456.87     84.78089     169.1589     338.2169      1.390     2.97     1014.295     59.61622     1323.947        26     1.282     0.858  70.01   0
        49    218.3286    961.0279 307.8215630  +6.2805300     855.6291     1244.164     1328.817     84.51217     169.1589     338.1496      1.568     4.91     1025.033     59.61622      123.874         9     1.120     0.702  74.32   0
        50    644.3864    959.9190 307.6446620  +6.2952627     832.8309     817.4595      670.458     84.37749     168.8897      338.015      1.318     3.70     1021.232     59.61622     127.7311         8     0.915     0.729  27.45   0
        51    935.8743    956.7911 307.5237086  +6.3062859     2433.386     3170.924      3029.69     84.37749     168.6876     338.0487      1.379     3.02     1014.898     59.61622     398.6852        15     1.135     0.762  80.55   0
        52    795.4825    953.4756 307.5821267  +6.3029710     1640.648     2143.129     2213.674     84.91493     169.4947     338.2841      1.454     3.68     1016.771     59.61622     224.8012        13     1.153     0.721  73.27   0
        53    268.8757    953.0375 307.8008413  +6.2855254     4729.214     6967.606     7518.348     84.64664     169.2261     338.2505      1.533     3.41     1025.179     59.61622     738.3309        26     1.360     0.969  71.35   0
        54    656.6680    952.7910 307.6398009  +6.2986161     5078.316     7014.295     6805.744     84.24259      168.957      338.116      1.450     2.97     1020.666     59.61622     748.5876        22     1.220     0.887  67.56   0
        55   1005.8969    952.4968 307.4947706  +6.3103926     788.0457     1138.053     797.7225     84.78089     169.6959     338.0487      1.302     3.25      1012.39     59.61622     143.4247         7     1.132     0.420  69.42   0
        56    478.7232    951.1867 307.7137558  +6.2933244     1248.172     1863.584     1676.811     84.37749     168.8224      338.015      1.548     5.51     1023.861     59.61622     164.0971        12     1.135     0.810  70.87   0
        57     37.5849    950.5022 307.8969766  +6.2788017     2465.241     3570.745     3507.876     84.78089     168.8897     337.9814      1.580     3.71      1024.59     59.61622     343.3115        16     1.237     0.774  67.61   0
        58    888.5969    949.2889 307.5435953  +6.3078067     1042.242     1402.067     1086.259     84.24259     168.8224     337.8804      1.352     3.87     1015.288     59.61622      144.578         9     0.970     0.746  56.82   0
        59    581.5043    945.4750 307.6712628  +6.2991228     1948.717     2974.287     2611.399     84.51218     169.3604     338.2505      1.629     3.95     1022.677     59.61622     253.0846        18     1.241     0.971  35.42   0
        60    304.8742    946.6711 307.7861063  +6.2893616     913.9528      1293.59     1235.418     85.04876     169.2933     338.2505      1.581     3.54     1025.232     59.61622     148.3541         7     0.949     0.628  88.52   0
        61   1012.6145    944.8396 307.4922371  +6.3137777     971.5013     1561.149     1260.046     84.37749      168.957     337.9814      1.838     6.55     1011.936     59.61622       162.43        11     1.542     0.782 -81.19   0
        62    980.0974    946.5327 307.5056855  +6.3119953     671.0757      660.887     860.8027     84.78089     169.2261     338.2505      1.045     2.53     1013.092     59.61622     153.8864         5     0.725     0.572  76.40   0
        63    960.0712    946.2734 307.5140116  +6.3114349     707.4885     990.2021     947.8741     85.04876     169.2933     338.2505      1.402     3.74     1013.721     59.61622     121.1252         5     0.830     0.485  53.29   0
        64    620.5943    941.6326 307.6551576  +6.3020167     1557.927     1919.427     1416.208     84.10748      168.957      338.015      1.423     3.30     1021.932     59.61622     229.1869        15     1.144     0.806  62.66   0
        65     70.5061    942.2206 307.8835853  +6.2833277     886.8256     1460.754      1890.62     84.64664      168.957     338.0487      1.899     6.10     1024.759     59.61622      112.338        12     1.150     0.911  84.34   0
        66    300.6078    939.3165 307.7881262  +6.2922548     1428.876     1919.302     2334.364     84.37749     168.8224     338.0487      1.418     3.44     1025.226     59.61622     196.4884        15     1.154     0.817  73.28   0
        67    568.6090    937.9474 307.6768715  +6.3017991     808.8237     1386.329     1842.192     84.24259     169.0243     337.9141      1.969     5.15     1022.746     59.61622     119.4583         9     1.141     0.658  63.23   0
        68    767.5236    935.6838 307.5943357  +6.3093829     1124.121     1409.369     1469.285     84.91493     169.4947     338.3177      1.299     3.04     1017.185     59.61622     190.0228         8     0.908     0.607  71.46   0
        69    904.7891    931.9734 307.5374508  +6.3154956     8202.403      11059.6     11122.96     84.37749      168.957     338.0823      1.411     3.04     1014.554     59.61622     1309.326        29     1.332     0.896  61.38   0
        70    440.7767    929.1783 307.7302561  +6.3011395     2221.599     3290.354      3037.07     84.51217      168.957     338.1832      1.604     3.75     1024.222     59.61622     297.5016        20     1.387     0.866  64.52   0
        71    342.3673    927.6097 307.7711784  +6.2984885     9924.192     14745.75     14835.49     84.24259     168.8897     338.0487      1.585     3.27     1025.226     59.61622     1312.844        37     1.452     1.085  69.63   0
        72    262.5295    926.5906 307.8043690  +6.2962309     7829.047     11236.07     11132.14     84.24259     168.8224     338.0487      1.568     3.20     1025.259     59.61622     1015.813        31     1.372     1.012  76.40   0
        73    590.4679    921.0764 307.6683606  +6.3094957     1355.031     1582.954     1016.822     84.91493     169.2933     338.1832      1.367     3.16     1022.213     59.61622     227.8075        13     1.112     0.741  62.33   0
        74    774.9180    920.3781 307.5917784  +6.3159489     704.2384     1000.932     1440.251     84.51217     168.8224     338.1496      1.306     3.17     1016.565     59.61622     130.9816         6     0.738     0.627  55.68   0
        75    920.4491    917.0601 307.5314466  +6.3221750     1162.573     1432.149     1395.812     84.78089     169.0916     338.2841      1.292     3.40     1013.867     59.61622     200.8267         9     1.021     0.609  50.94   0
        76    877.4312    916.0092 307.5493485  +6.3211741     877.9187     1184.959     793.0972     84.24259      168.957     338.0487      1.286     3.75     1014.584     59.61622     156.5803         6     0.819     0.493  86.08   0
        77    419.5419    914.8302 307.7395583  +6.3063515     563.7866     807.4404     1043.573     84.51217     169.1589      338.116      1.511     4.22      1024.38     59.61622      80.0155         5     0.898     0.567 -42.87   0
        78    987.8647    913.0681 307.5035805  +6.3260703     978.8127     1415.927      1690.96     84.78089     169.1589     338.2505      1.423     4.55     1011.401     59.61622     160.2432         9     1.093     0.690  75.89   0
        79    850.0009    911.1628 307.5609037  +6.3222598     616.7304     857.4712     546.6228      83.8366      168.957      338.015      1.437     4.51     1014.983     59.61622     90.93335         5     1.198     0.483  73.07   0
        80    757.0223    910.1995 307.5995526  +6.3195535     1765.855     2414.946     2670.349     84.37749     168.8224     337.9141      1.392     3.84     1016.557     59.61622     271.0543        12     1.202     0.690  85.30   0
        81    581.1333    910.6599 307.6725878  +6.3134839     760.0367      1100.83     324.8794     84.91493     169.0916     338.2169      1.392     5.61      1022.08     59.61622     125.6617        11     1.050     0.921 -61.46   0
        82    621.2444    906.6518 307.6560636  +6.3164804     875.1962     1295.003     1269.487     84.78089     169.0916     338.2505      1.671     6.00     1020.984     59.61622     119.7363        12     1.304     0.843  59.21   0
        83      7.7293    907.4366 307.9108312  +6.2955763     971.0351     1559.947     1945.472     84.64664     169.2261     335.2107      1.599     3.53     1023.979     59.61622     147.6298         8     0.968     0.543  73.69   0
        84    988.2380    905.9681 307.5036633  +6.3290141     1520.153     1952.856     1849.823     84.37749     168.8897      338.015      1.400     3.34     1011.034     59.61622     232.2346        12     0.984     0.806  74.40   0
        85    632.6044    906.3085 307.6513571  +6.3170020     693.2972     884.1472     723.4253     84.37749     168.8224     337.9814      1.225     3.16     1020.516     59.61622     138.8569         7     0.937     0.467  79.69   0
        86    541.9405    906.2108 307.6890149  +6.3140092     1124.203      1581.78     1519.591     84.10748     169.0243     337.9141      1.517     4.43     1022.701     59.61622     167.7136        11     1.242     0.656  69.69   0
        87    675.5260    903.7350 307.6336173  +6.3194995     2813.033     3576.159     3508.823     84.91493     169.1589     338.2169      1.448     3.33     1018.903     59.61622     389.3207        18     1.234     0.873  62.04   0
        88    965.7466    901.2794 307.5131619  +6.3302003     737.0112     1099.917     1176.279     84.78089     169.1589     338.2505      1.458     4.94     1011.652     59.61622     109.7621         8     1.253     0.551  72.95   0
        89     72.1419    899.8286 307.8843389  +6.3008837     2966.987     4769.018     4963.209     84.37749     169.2261      338.116      1.669     3.68     1024.461     59.61622     412.4501        25     1.465     0.925  71.27   0
        90    953.6620    898.9273 307.5182599  +6.3307686      927.777     1371.542     1164.486     84.91493     169.1589     338.2841      1.548     5.13     1012.045     59.61622     148.4923        10     1.118     0.733  75.98   0
        91    836.2921    899.7110 307.5669816  +6.3265303     951.6791     1178.493     1614.645     84.78089     169.6959     338.2841      1.313     2.72      1015.02     59.61622     167.3655         9     0.840     0.734  -5.30   0
        92    215.6359    898.6074 307.8247881  +6.3062093     2216.771     3125.295     2987.994     84.10748      168.957     337.9477      1.547     3.47     1025.542     59.61622        317.6        17     1.128     0.914  69.71   0
        93     89.6829    898.8655 307.8770869  +6.3018710     2004.933     2827.406     2590.708     84.91493     169.4276     338.2841      1.512     3.35      1024.63     59.61622     296.9218        18     1.236     0.881  76.73   0
        94   1018.3507    897.3570 307.4914447  +6.3335725     526.2787     806.0947     1181.398     84.78089     169.0916       327.21      1.620     3.79     1009.328     59.61622       95.117         5     1.017     0.405  15.92  16
        95    972.3245    896.0076 307.5106064  +6.3325960     587.1044     713.9881     656.4515     84.37749     168.6201      338.015      1.060     3.79     1011.171     59.61622     116.3761         5     0.823     0.502  37.08   0
        96    670.1019    892.6566 307.6362423  +6.3238919     7586.565     10435.99     10339.56     84.51217     169.1589     338.4185      1.478     3.23     1018.754     59.61622     1032.226        28     1.345     0.923  67.44   0
        97    354.8155    894.1943 307.7671351  +6.3127013     935.3599     1619.297      2319.04     84.37749     168.8224     338.0487      2.377     5.97     1025.176     59.61622     132.4636        11     1.180     0.850  49.11   0
        98    249.5139    895.3950 307.8108269  +6.3086728     740.3676     1203.502     917.9322     84.24259     168.8224     337.8467      1.840     4.79     1025.798     59.61622     100.3313         7     0.942     0.690  19.71   0
        99    807.6293    893.4433 307.5790965  +6.3281613     966.6781      1211.86     1143.892     84.37749     169.1589      338.116      1.319     3.95     1015.281     59.61622     157.0713         7     0.980     0.457  79.52   0
       100     30.3354    891.0925 307.9019960  +6.3030842     1193.535     1682.863     2408.398     84.78089     169.3604     338.2505      1.572     3.80     1023.894     59.61622      189.948        11     1.138     0.700 -67.98   0
       101    907.7553    888.7967 307.5376663  +6.3334205     3180.339     4589.119     4556.229     84.10748      168.755     337.8467      1.516     3.49     1013.267     59.61622     519.9412        20     1.295     0.854  67.26   0
       102    782.6664    889.7569 307.5895881  +6.3288498     579.6353     832.9468     521.4138     84.78089     169.0916     338.2505      1.158     3.52     1015.512     59.61622     111.9797         5     0.787     0.455  78.89   0
       103     42.8990    889.1643 307.8968437  +6.3043028     1228.527         1856     1623.913     84.78089     169.0243     338.4185      1.603     4.29      1024.01     59.61622     168.6124        12     1.053     0.823  72.46   0
       104    353.1626    885.8642 307.7681023  +6.3160849     17095.34      25251.3     26844.75     84.64664     169.0916     338.2841      1.562     3.27     1025.212     59.61622     2313.684        43     1.445     1.091  75.09   0
       105    224.2147    885.5007 307.8216677  +6.3119083     1317.075      1880.86     1473.903     84.78089     168.8897     337.9477      1.592     5.09     1025.816     59.61622     193.2461        15     1.419     0.847  56.03   0
       106     87.7452    886.7233 307.8783019  +6.3068186     1439.209     2137.778     2287.929     84.78089     169.1589     338.2169      1.581     3.23     1024.515     59.61622      242.479        13     1.093     0.766  58.59   0
       107    403.6266    884.7529 307.7471813  +6.3182355     711.3443     799.3867     62.91194     84.37749     169.2261      338.116      1.363     4.36     1024.074     59.61622     106.9509         5     1.152     0.469  83.54   0
       108    430.9996    876.9863 307.7360745  +6.3223592     1106.391     1831.394     1617.626     84.37749     168.8224     337.9814      1.680     5.48     1023.383     59.61622     159.5999        14     1.374     0.897 -89.42   0
       109    116.4845    876.3995 307.8667155  +6.3120467     1838.112     2607.306     3134.115     83.97215     168.6201     337.8804      1.610     3.79     1024.654     59.61622     251.7205        15     1.175     0.818  60.97   0
       110    511.5812    873.3064 307.7027310  +6.3265775     729.2723     1232.422     1610.908     84.64664     168.8897     338.0823      1.884     4.49      1022.43     59.61622     124.9421         6     1.115     0.535  63.40   0
       111    684.2710    872.7323 307.6310269  +6.3325914     887.5308     1492.152     1740.173     84.78089     169.2933     338.1832      2.117     4.41     1017.528     59.61622     129.7749         8     0.948     0.601  82.21   0
       112    898.2903    870.7429 307.5422027  +6.3405585     2375.524     3226.623     3266.279     84.64664     169.0916     338.3177      1.399     3.30     1013.086     59.61622     358.5766        15     1.205     0.738  66.97   0
       113    868.9299    870.1082 307.5544187  +6.3398411     2377.973     3365.565     3145.783     84.78089     169.2933     338.2505      1.454     3.27     1014.047     59.61622     387.7568        19     1.283     0.855  75.23   0
       114    832.3324    869.4029 307.5696430  +6.3389111     3380.026     4632.558     4581.349     84.10748      168.755      338.015      1.418     3.01      1014.49     59.61622     569.7919        21     1.388     0.840  68.10   0
       115     99.8141    869.8517 307.8738599  +6.3141895     2559.255     3658.407     3800.842     84.10748     169.1589     337.9477      1.533     3.61      1024.53     59.61622     373.5393        18     1.281     0.835  69.40   0
       116    568.2120    861.0624 307.6796225  +6.3335279     347433.4     510113.2     532246.4     84.24259      168.957     337.9477      1.557     3.25     1021.097     59.61622     46986.76       159     1.602     1.277  72.74   0
       117    656.0428    864.0748 307.6430420  +6.3352220      1300.54     1730.366     1574.053     84.64664     169.2261     338.2505      1.380     4.29     1018.231     59.61622     173.6428        15     1.206     0.918  78.83   0
       118    355.7077    862.0764 307.7678471  +6.3259910     12783.49      19173.1     19822.07     84.64664     169.3604     338.2169      1.603     3.39     1025.068     59.61622     1792.674        41     1.444     1.111  67.86   0
       119    906.4914    857.1483 307.5392523  +6.3464446     5929.985     8109.057     8941.383     84.64664      168.957     338.3849      1.434     3.04     1012.238     59.61622     903.3419        24     1.335     0.850  72.80   0
       120    674.0850    858.2852 307.6357430  +6.3382154     3896.064     5772.202     6342.538     84.51217     169.2933     338.2841      1.554     3.17     1017.354     59.61622     548.5154        26     1.315     1.001  75.48   0
       121    745.7124    854.6531 307.6061151  +6.3421085     800.9741     1243.096     1671.875     84.78089     169.0243     338.3513      1.675     3.42     1014.673     59.61622      147.993         8     0.965     0.786 -88.29   0
       122    648.9515    852.4015 307.6463797  +6.3398043     3509.354     4997.119     5235.644     84.10748      168.755     337.7794      1.491     2.93     1017.846     59.61622      555.623        22     1.257     0.931  61.47   0
       123    837.5634    851.1991 307.5680811  +6.3466013     1680.917      2424.41     2563.878      83.8366      168.957      338.015      1.476     3.85     1013.606     59.61622     291.7582        16     1.242     0.982  20.19   0
       124    639.4664    850.9761 307.6503671  +6.3400756      1029.82     1514.041     1521.643     84.37749     169.1589     338.1496      1.534     3.37     1018.098     59.61622     161.9332        10     1.026     0.702  78.30   3
       125    641.8452    846.9119 307.6495158  +6.3418331     2216.943     3200.274     3446.399     84.78089     169.0243     338.2505      1.523     3.41     1017.797     59.61622     294.2341        15     1.168     0.803  77.72   2
       126    412.5087    863.6547 307.7442033  +6.3272435     8010.436     11761.66     12055.33     84.64664     169.0243     338.3513      1.619     3.40     1023.446     59.61622     1004.885        33     1.439     1.029  70.36   0
       127    192.0013    851.5479 307.8361923  +6.3248436     628.4078     1072.347     447.7211     84.10748      168.755     337.7458      1.736     4.32     1025.258     59.61622     85.72839         6     1.008     0.528  77.41   0
       128    964.2919    850.4564 307.5154690  +6.3511346     1007.563      1352.99     1097.619     84.64664     169.0916     338.3513      1.341     3.26     1009.651     59.61622     181.8846         9     0.982     0.643 -87.93   0
       129    925.4176    845.0356 307.5317973  +6.3520767     3579.382     4999.286     4867.745     84.24259      168.957     337.9814      1.428     3.13     1011.097     59.61622     535.5504        18     1.254     0.786  71.73   0
       130    335.8098    846.1179 307.7766492  +6.3319121     938.8912     1301.121     934.3466     84.37749      168.755     338.0487      1.538     5.31     1025.198     59.61622     153.5934        12     1.202     0.733  89.38   0
       131    383.5826    840.8193 307.7569865  +6.3357014     2656.997     3847.949     3980.396     84.51217      168.957     338.1496      1.585     3.41     1023.919     59.61622     368.0202        22     1.381     0.888  66.56   0
       132    519.8060    830.7775 307.7007464  +6.3444109     3165.893      4670.18      4310.37     84.24259     168.8897     338.0487      1.560     3.46     1020.347     59.61622     473.8547        22     1.369     0.882  69.25   0
       133    864.5551    829.8240 307.5575870  +6.3563268      1228.51     1911.276     2033.166     84.24259     169.1589     338.0823      1.631     4.13     1011.738     59.61622     178.7404        10     1.118     0.619  46.89   0
       134    585.0588    828.6349 307.6737161  +6.3474794     943.8383     1243.888     568.4944     84.64664     169.1589     338.1832      1.497     5.43     1018.387     59.61622     159.5164        11     1.204     0.761 -70.30   0
       135    566.6489    826.8760 307.6814218  +6.3475895     6166.688     9184.109     9717.049     84.64664     169.2261     338.2169      1.576     3.32     1018.743     59.61622     820.4302        31     1.423     1.056  77.61   2
       136    573.5801    826.4696 307.6785566  +6.3479892     1463.668     2020.081     2104.932     84.37749     169.0243     338.1496      1.563     3.63     1018.486     59.61622     229.4637        15     1.071     0.963   7.02   2
       137    902.2567    825.1253 307.5420848  +6.3595244     1552.384     2092.487     1567.603     84.64664     169.0916     338.1832      1.321     3.94     1010.675     59.61622     271.0462        12     1.321     0.599  81.11   0
       138    484.4752    825.7671 307.7155893  +6.3452964     1630.104     2391.818     2176.159     84.64664     169.1589     338.1832      1.601     3.90     1021.206     59.61622     207.0214        16     1.200     0.874  72.59   0
       139    278.4369    826.6182 307.8011353  +6.3380375     664.4287     962.3687     975.0208     84.37749      168.957     337.9814      1.310     3.39     1025.509     59.61622     107.5511         5     1.082     0.307  67.93   0
       140    126.1316    824.8217 307.8644517  +6.3336641     1288.793     1991.876     1736.202     84.37749     169.0916     338.1832      1.493     5.01     1024.243     59.61622     176.6724        14     1.493     0.629  71.28   0
       141    702.3688    824.3620 307.6251353  +6.3531661     821.6479     1046.794     1033.375     84.37749     168.8897     338.0487      1.406     3.66     1014.978     59.61622     131.7417         7     0.862     0.648 -65.89   0
       142    537.3383    820.7773 307.6938010  +6.3491264     20025.01     29718.57      30905.6     84.37749     169.1589      338.116      1.590     3.27     1019.163     59.61622     2571.401        42     1.426     1.112  72.56   0
       143    950.8324    818.9064 307.5221168  +6.3637117     4363.111     5630.457     5515.283     84.91493     169.0243     338.2841      1.318     2.90     1009.187     59.61622     718.6927        17     1.188     0.756  69.28   0
       144     71.4188    817.0443 307.8874376  +6.3350356     577.4939     1018.789     654.4395     84.24259     169.0243     337.9814      1.625     3.87     1023.429     59.61622     103.2908         5     0.892     0.481  81.59   0
       145    705.1509    812.3904 307.6243819  +6.3582016     741.3331     1213.639     897.2286     84.24259      168.957     337.8804      1.564     4.15     1014.468     59.61622     108.3948         6     0.751     0.655 -64.33   0
       146     47.7825    810.8809 307.8974625  +6.3367851      1586.07     1969.287     1902.879     84.37749     168.8224      338.116      1.368     3.82     1022.844     59.61622     232.8798        15     1.252     0.761  66.57   0
       147    330.0329    809.3813 307.7802872  +6.3468848     3165.333     4925.624     5094.449     84.24259      168.957      338.015      1.652     3.61     1024.548     59.61622     417.1851        24     1.341     1.027  53.96   0
       148     29.9878    807.5574 307.9049653  +6.3375586      2339.05     3484.025     3625.788     84.10748      168.957     337.9141      1.608     3.82     1022.394     59.61622     325.3618        21     1.387     0.946  61.99   0
       149    795.4416    805.2719 307.5871178  +6.3641566     60332.47     83778.19     87149.14     84.64664     169.1589     338.2841      1.501     3.04     1012.703     59.61622      8428.76        61     1.446     1.093  70.88   0
       150    438.8117    803.7675 307.7352962  +6.3528492     877.9583      1397.96       1233.1     84.24259     168.8224     338.0823      1.729     6.15     1021.839     59.61622     119.8083        11     1.157     0.954 -71.85   0
       151    252.2021    781.7772 307.8135445  +6.3556693     765710.2      1850796      2048211     84.37749     168.8224      338.015      2.330     5.88     1024.479     59.61622     63039.98       601     2.788     2.003  80.41   4
       152    723.7343    799.8260 307.6170852  +6.3640099     22255.91     33085.03     34969.31     84.37749     169.0916      338.116      1.580     3.26     1013.652     59.61622     3008.441        47     1.503     1.104  66.36   3
       153    717.4251    796.3907 307.6198212  +6.3652173     93786.88     134689.6     141104.8     84.37749      168.957     338.0823      1.587     3.20     1013.626     59.61622      12400.7        79     1.525     1.159  72.31   3
       154    362.3693    797.2836 307.7672646  +6.3529637     20169.12     31047.51     32846.92     84.78089      168.957     338.0823      1.689     3.56     1023.669     59.61622     2524.304        51     1.570     1.164  67.78   0
       155    411.4387    797.3871 307.7468804  +6.3545660     1405.213     2313.352     1966.612     84.24259      168.957     337.9141      1.745     4.85     1022.389     59.61622     201.3185        15     1.234     0.867  78.29   0
       156    920.7121    800.4722 307.5352457  +6.3703182     9733.374     13128.35     14303.91     84.91493     169.4276     338.2169      1.470     3.11     1009.194     59.61622     1367.775        30     1.324     0.925  76.30   0
       157    424.1868    795.1140 307.7416621  +6.3559317     21715.87     33471.29        34824     84.37749      168.957      338.116      1.622     3.43     1021.944     59.61622     2643.177        46     1.481     1.152  70.53   0
       158    651.0091    796.6205 307.6474001  +6.3629025     800.1013     1370.782     1842.328     84.37749     168.8897      338.015      1.965     3.69     1015.074     59.61622     131.1354         9     0.946     0.810  50.44   0
       159    961.2557    794.0157 307.5186214  +6.3743355     2439.625     3421.058     3528.394     84.10748     169.0916     337.9141      1.456     3.24     1008.024     59.61622     410.9009        17     1.245     0.835  76.62   0
       160    658.2524    791.0522 307.6445787  +6.3654435     6423.826     9498.435     9753.292     85.04876     169.0243     338.2169      1.577     3.34     1014.762     59.61622     810.5759        31     1.451     1.006  70.11   0
       161    917.6329    791.7679 307.5368165  +6.3738091     7520.854      10372.4     11314.88     84.24259     168.8897     337.9477      1.443     2.96     1009.031     59.61622     1172.689        26     1.309     0.897  66.99   0
       162    890.4108    792.5650 307.5480971  +6.3725721     773.5359     1093.271     1143.139     84.24259      168.957     337.9814      1.382     4.46      1009.39     59.61622     119.4159         8     1.273     0.445  79.86   0
       163    446.9727    788.7968 307.7324108  +6.3593033     1748.597     2628.374      2266.44     84.24259     168.8897      338.015      1.509     4.34     1020.993     59.61622     211.9304        14     1.238     0.783  59.17   0
       164    172.0349    788.2197 307.8466234  +6.3503173     835.7285     1177.597     1003.825     84.24259      168.957     337.9814      1.500     5.00       1024.2     59.61622     115.6936         7     1.056     0.670  64.73   0
       165    745.8209    785.3297 307.6083981  +6.3707327     604.8024     930.3481     589.4853     84.37749     169.0243     338.1832      1.832     4.98     1012.508     59.61622      86.6333         5     1.115     0.629 -60.50   0
       166    886.4083    783.0402 307.5500790  +6.3763710     785.7301     1004.808     1155.298     84.10748      168.957     337.9141      1.302     2.73     1009.283     59.61622      158.458         6     0.797     0.485  82.87   0
       167    693.3569    781.0729 307.6303329  +6.3707370      2444.51     3744.114     3937.292     84.64664     169.2261     338.2505      1.652     3.71     1013.664     59.61622     308.0751        21     1.299     0.979  73.97   0
       168    611.2240    782.8923 307.6643868  +6.3672397     1006.249     1295.637     1594.834     84.91493      168.957     338.0487      1.453     3.68     1015.365     59.61622     132.7886         9     0.938     0.687 -80.64   0
       169    137.7947    781.3536 307.8610763  +6.3520014     1056.333     1571.651     1182.385     84.10748      168.957     337.8804      1.428     5.27     1023.924     59.61622     149.5616        10     1.391     0.563  50.85   0
       170    427.1154    777.8043 307.7410289  +6.3631761     51708.79     81595.62     85332.73     84.24259      168.755     337.8804      1.671     3.52     1021.114     59.61622     6453.006        78     1.591     1.273  71.02   0
       171    162.5666    781.7688 307.8507737  +6.3526624         1134     1764.626     1469.999     84.24259     168.8897     337.9477      1.677     3.04     1024.148     59.61622     190.4767        12     1.001     0.844  69.97   0
       172    969.7289    779.3011 307.5155949  +6.3806931     700.0647      1019.54     345.9793     84.51217     169.3604     338.2169      1.568     4.15     1007.031     59.61622     110.6313         8     0.980     0.587  70.66   0
       173    544.8744    776.8286 307.6921498  +6.3675229     7016.087     10874.07     11255.92     84.64664     169.1589     338.1832      1.642     3.46      1016.67     59.61622     906.0399        35     1.448     1.130  78.84   0
       174    790.0637    773.3590 307.5904229  +6.3771525     12336.91     17614.91     18327.85     84.78089     169.0916     338.3177      1.512     3.14     1011.346     59.61622     1802.692        38     1.448     1.050  76.84   0
       175    461.6972    775.3835 307.7267467  +6.3653342     4482.621     7162.655     8434.938     84.64664      168.957     337.9814      1.781     3.71     1019.853     59.61622     578.5608        27     1.362     1.063  72.42   0
       176    212.1984    771.3658 307.8305111  +6.3586243     769.9505     1900.734      3180.88      83.8366      168.957     337.9814      3.027     5.09     1024.261     59.61622     114.2303         8     1.166     0.628  40.26   2
       177    458.3403    768.7607 307.7283641  +6.3679559     2199.957     3673.725     4302.017     84.78089     169.2261     338.3177      1.833     3.70     1019.691     59.61622     312.1092        19     1.259     0.962  73.37   1
       178     19.8997    769.6901 307.9104359  +6.3528521     1264.744     1810.881       1695.3     84.78089     169.6288     338.1832      1.515     4.29      1022.12     59.61622     172.9602        13     1.065     0.931  67.51   0
       179    147.9027    765.4831 307.8574143  +6.3588930     11476.02     17884.49     19344.64     84.78089     169.5618     338.2841      1.685     3.62     1023.936     59.61622     1495.211        44     1.577     1.173  76.05   0
       180    811.7038    767.4874 307.5816312  +6.3802991     1381.775     1828.105     1858.987     84.78089     169.5618     338.2505      1.486     3.65     1010.675     59.61622     194.3151        13     1.088     0.811  67.56   0
       181    155.9719    765.6591 307.8540569  +6.3590915     2905.496     4941.307     4682.394     84.37749     169.2261      338.116      1.732     4.19     1024.036     59.61622     369.2136        26     1.499     1.055  73.94   0
       182    979.8472    766.9646 307.5118053  +6.3861236     686.7245     840.1179      1069.89     84.37749     169.0916     338.0823      1.444     3.99     1006.014     59.61622     91.04773         6     0.962     0.474  54.15   0
       183    140.1575    762.7843 307.8607224  +6.3597469     2891.289     4710.367     4927.273     84.24259     168.8897     337.9814      1.715     4.59     1023.827     59.61622     378.9376        27     1.494     1.013  58.15   1
       184    935.5656    761.9713 307.5303666  +6.3867090     7028.015     9716.899     9989.883     84.24259     168.8897     337.9814      1.418     2.97     1007.761     59.61622     1036.153        26     1.225     0.942  69.78   0
       185    984.7604    761.7942 307.5099377  +6.3884220     1751.814     2301.366     2757.659     83.97215     168.8224     337.9141      1.344     2.92     1005.514     59.61622     260.2878        11     0.887     0.792  84.68   0
       186    578.0018    758.8797 307.6789938  +6.3760418     2193.847     3495.882     3605.318     84.10748     168.6201     337.9814      1.671     4.28     1015.294     59.61622     267.4875        22     1.366     1.020  82.41   0
       187    691.1083    759.4257 307.6319943  +6.3795991     1714.129     2425.551     2611.615     84.91493     168.8897     338.0487      1.463     3.13     1013.019     59.61622     230.5815        11     0.965     0.736  67.80   0
       188    426.0025    758.5124 307.7421411  +6.3711034     1109.092     1613.898     1215.765     84.10748      168.755     337.9477      1.575     3.16     1020.318     59.61622     152.6638        10     0.974     0.657  61.41   0
       189    140.0063    756.1671 307.8610088  +6.3624736     1806.926     2734.422     2562.936     84.10748      168.957      338.015      1.628     4.05     1023.782     59.61622     209.3824        17     1.220     0.920  63.66   1
       190    959.3177    753.4271 307.5207867  +6.3910284     3403.736     4709.857      4842.43     84.64664      168.957     338.1496      1.475     2.77      1006.32     59.61622     614.0472        22     1.299     0.868  57.98   0
       191    929.8101    753.8303 307.5330302  +6.3898781     3378.983     4432.833     4938.595     84.24259      168.957     338.0487      1.360     3.00     1007.815     59.61622     493.8572        17     1.194     0.799  73.49   0
       192    990.0453    753.1896 307.5080308  +6.3921506     2168.673     3086.362     2981.553     84.24259     169.0243     337.9141      1.438     3.13     1004.751     59.61622      360.162        16     1.117     0.852  76.05   0
       193    682.1844    753.1302 307.6359126  +6.3818999     1397.943     2452.241     3089.901     84.24259     169.0916      338.116      1.950     3.76      1013.18     59.61622     188.0787        15     1.141     0.914  72.89   0
       194    829.6523    751.3841 307.5747162  +6.3875466     1024.885     1365.854     1228.144     84.10748     169.2261     337.9141      1.312     3.12     1009.784     59.61622     168.9651         9     0.985     0.636  45.91   0
       195    904.7817    749.1417 307.5435839  +6.3909792     958.1224     1286.535     1481.615     84.37749     169.0243     337.9477      1.586     4.65     1008.303     59.61622      145.594         9     0.967     0.633  67.45   0
       196    254.8245    748.0752 307.8135927  +6.3696709     1862.152     2902.384      4015.09     84.37749      168.957     338.1832      1.778     4.04     1024.163     59.61622      248.495        17     1.263     0.904 -88.96   0
       197    947.8798    743.8160 307.5258600  +6.3946151      1123.91     1483.564     1197.462     84.37749     168.8897      338.015      1.328     4.08     1006.542     59.61622     183.5129        10     1.164     0.652  68.03   0
       198    974.2822    741.4107 307.5149733  +6.3964883     2735.186      3786.55     4296.253     84.37749     168.8224     338.0487      1.498     3.26      1004.95     59.61622     457.7434        18     1.340     0.807  70.82   0
       199    170.8492    743.0940 307.8486400  +6.3689071     799.3257     975.9539     723.1154     84.64664     169.0243     338.3513      1.517     5.04     1024.046     59.61622     120.7941         8     1.216     0.591  81.14   0
       200    921.2863    742.2325 307.5369597  +6.3943821      1198.62      1430.07     1114.026     84.78089      168.957     338.2169      1.394     3.62     1007.746     59.61622     185.4119        10     1.001     0.724  58.91   0
       201    693.7277    740.3182 307.6315484  +6.3875752     1041.227     1653.921     2742.299     85.04876     169.4947     338.2505      1.782     3.43     1012.279     59.61622     139.6027        10     0.926     0.751  50.78   0
       202   1015.7559    734.4083 307.4979800  +6.4007613     2081.098     2902.919     3375.917     84.24259     169.0243     337.9477      1.456     3.47     1002.272     59.61622     309.6296        16     1.201     0.807  69.38   0
       203    414.3617    735.6660 307.7477460  +6.3801454     578.1392     867.0462     602.5349     84.64664     169.0916     338.3177      1.679     5.30     1019.716     59.61622     79.25879         6     0.956     0.879 -47.00   0
       204    816.9998    733.1085 307.5805853  +6.3946695     1084.458     1687.707     1457.401     83.97215     168.6201     337.9141      1.682     4.35     1009.315     59.61622     183.3776        10     1.179     0.573  58.72   0
       205    903.5077    730.5452 307.5447367  +6.3986144     1659.238     2455.493     2031.591     84.64664     169.0243     338.3849      1.584     3.73     1007.796     59.61622     225.9196        15     1.199     0.762  57.52   0
       206    877.9745    725.7586 307.5555035  +6.3997389     1040.694     1159.259     1307.988     84.37749     169.0243     337.9814      1.388     4.12     1008.275     59.61622     139.6985        10     0.981     0.731  59.23   0
       207    860.2710    721.9313 307.5629858  +6.4007283     1677.285      2119.25     1849.792     84.78089     169.2933     338.1832      1.369     3.62     1008.498     59.61622     259.0716        13     1.232     0.657  64.20   0
       208     59.6110    720.7452 307.8955977  +6.3743941      2362.35     3695.704     3764.553     84.10748     169.0916     337.8804      1.717     3.96      1022.53     59.61622     312.9797        20     1.360     0.912  77.52   0
       209    123.6378    719.4036 307.8690496  +6.3771009     989.3101     1959.134     1753.047      83.8366      168.957     337.9814      1.919     6.56     1023.043     59.61622     134.3115        14     1.605     0.752  80.57   0
       210    577.2256    715.8227 307.6807647  +6.3937920     610.7618     713.7084     401.0937     84.24259      168.957     338.1496      1.421     4.35     1013.857     59.61622     95.09784         5     0.762     0.707  51.41   0
       211    714.7145    712.6637 307.6237600  +6.3996939     557.7531     754.5785     473.1525     84.91493     169.2933     338.2169      1.353     4.82     1010.467     59.61622     90.01819         5     1.063     0.640 -62.57   0
       212    873.8629    712.3053 307.5576627  +6.4051560     1757.252     1691.874       1606.2     84.64664     169.2933     338.2841      0.631     1.26     1007.736     59.61622     891.4421         5     0.545     0.344 -89.83   0
       213    672.1758    709.2892 307.6415435  +6.3996653     6140.197     9128.959     9377.366     84.78089      168.957     338.0823      1.581     3.48     1011.763     59.61622     733.8856        28     1.371     1.009  67.55   0
       214    618.7213    708.7433 307.6637662  +6.3981031     1419.621     2166.896     2405.141     84.78089     169.1589     338.2169      1.675     5.41     1012.419     59.61622     189.7001        15     1.320     0.897  78.27   0
       215    540.6713    708.9461 307.6961802  +6.3954075     586.9742     823.9659   -0.9054177     84.64664     169.0243      338.116      1.654     5.90     1014.799     59.61622     97.44788         6     1.305     0.750  82.14   0
       216    530.1850    709.2250 307.7005266  +6.3949413     759.4777     1302.635     509.9306     84.51217      168.957     338.1496      1.787     4.24     1015.112     59.61622     128.3508         9     1.003     0.854  80.21   0
       217    135.2824    705.3420 307.8646881  +6.3832974     3657.006      5772.18     5880.469     84.91493     169.1589     338.2841      1.733     3.93     1022.822     59.61622     434.1499        28     1.442     1.084  77.07   0
       218    645.9727    705.0632 307.6525701  +6.4005338     2066.088     3401.328     3837.362     84.37749     169.0916      338.116      1.778     4.14     1011.904     59.61622     238.7247        19     1.322     0.905  82.70   0
       219   1009.2808    704.5235 307.5016708  +6.4128839     2984.331     4222.172     4262.971     85.04876     169.4276     338.3513      1.486     3.19     1002.602     59.61622     478.4125        18     1.272     0.770  70.97   0
       220    322.1030    704.4265 307.7871205  +6.3899487     658.7332     907.0005     761.4343     84.91493     168.8897     338.1496      1.519     4.12     1021.008     59.61622     107.6546         5     0.948     0.692  74.15   0
       221    257.9984    704.6826 307.8137389  +6.3876917     634.2006     960.0561     943.0016     83.97215     168.6876     337.9141      1.613     4.33     1022.602     59.61622     75.12207         7     0.758     0.704  -4.28   0
       222    789.0302    701.3922 307.5932683  +6.4068300     20579.49     29885.15     31287.71     84.24259      168.957     337.9814      1.536     3.31     1008.571     59.61622     2910.325        43     1.439     1.064  70.73   0
       223    488.2869    701.7966 307.7181804  +6.3966051     1277.645     2139.691     1725.699     84.24259      168.755     337.9477      1.661     4.05     1016.117     59.61622     192.8837        12     1.188     0.681  84.84   0
       224    919.0535    701.0192 307.5392691  +6.4113230     3908.519     5383.647     5751.341     84.24259     169.1589      338.015      1.428     3.09     1005.939     59.61622     639.0044        21     1.227     0.888  61.65   0
       225    516.6000    701.3843 307.7064335  +6.3977235     967.3203     1364.125      1548.14     84.24259     168.8224     337.9477      1.626     5.15      1015.25     59.61622     143.7583        13     1.156     0.876  52.84   0
       226    262.6206    695.0737 307.8121433  +6.3918138     5628.917     9333.938     9130.329     84.37749     169.0243     338.1496      1.776     3.94     1022.135     59.61622     710.7025        33     1.567     1.080  63.55   0
       227    669.6460    694.2305 307.6431005  +6.4057977     6832.155     10358.98     10713.51     84.37749     169.2261     338.0823      1.619     3.57     1011.051     59.61622     878.6481        31     1.414     1.051  63.32   0
       228    652.0145    695.2778 307.6503894  +6.4047758     868.6106      1381.77     1556.738     84.37749     168.8224     338.0487      1.521     3.59     1011.365     59.61622     121.5211         7     0.814     0.704 -65.73   0
       229    364.3568    694.4652 307.7699054  +6.3954785     725.3332     1105.745     1098.823     84.78089     169.0916     338.2169      1.844     5.46     1018.913     59.61622     84.84851         8     0.985     0.855  79.13   0
       230    929.2890    686.8474 307.5354924  +6.4175153     1287.429     1859.368     2270.095     84.78089     169.0243     338.3849      1.554     3.66     1004.972     59.61622     202.4914        16     1.202     0.896  72.56   0
       231    741.2807    682.5220 307.6137371  +6.4130258     3622.924      5648.76     6423.562     85.04876     169.4276     338.3849      1.717     3.59     1008.955     59.61622     430.3152        29     1.488     1.070  69.76   0
       232    696.7925    683.1132 307.6321977  +6.4112950     1071.885     1535.846     981.9112     84.37749     168.8224     337.9477      1.646     4.80     1009.926     59.61622     154.8999         9     0.949     0.764  75.75   0
       233   1007.6158    679.2091 307.5032105  +6.4232797     10069.18     13648.22     13971.43     84.51217     168.8897     338.0823      1.412     2.98     1002.563     59.61622      1427.26        30     1.304     0.946  66.22   0
       234     26.7534    678.8754 307.9106613  +6.3905740     1849.401      3094.24     3569.922     84.64664     169.2261     338.2169      1.903     4.69     1022.346     59.61622     252.6613        19     1.401     1.002  35.36   0
       235      7.2090    681.0093 307.9187069  +6.3890354     738.6635     1046.342     1001.133     84.24259      168.957     331.6634      1.419     3.25      1022.32     59.61622     124.1657         6     0.902     0.442  54.37  16
       236    946.1317    679.6815 307.5287360  +6.4210354     2770.323     3584.155      3741.06     84.91493     169.4276     338.2505      1.402     3.19     1004.187     59.61622     421.5908        16     1.109     0.800  75.16   0
       237    546.2629    675.0744 307.6949975  +6.4095787     1809.975     2982.957     2493.791     85.04876     169.1589     338.2169      1.661     4.76     1013.606     59.61622     225.4001        22     1.575     0.913  66.05   0
       238     85.0109    674.0794 307.8866256  +6.3945136      23977.5     38930.94     40743.74     84.37749     168.8897     338.0487      1.716     3.58      1022.36     59.61622     3016.841        55     1.613     1.207  74.05   0
       239    515.0237    672.4561 307.7080622  +6.4096138     1384.166     1999.052     2207.183     84.37749     169.1589      338.015      1.655     4.00     1014.467     59.61622      178.576        15     1.073     0.998  81.64   0
       240    935.8232    671.3484 307.5332976  +6.4241321     983.2761     1526.414     2195.666     84.24259     169.1589     338.0823      1.654     4.50     1004.098     59.61622     179.4629         8     1.021     0.563  75.03   0
       241    555.4875    668.8098 307.6913764  +6.4124738     859.6014     1458.797     946.6559     84.37749     168.8224     338.0487      1.720     6.29     1013.055     59.61622     107.9043        11     1.447     0.767  61.44   0
       242    730.9476    666.3472 307.6185729  +6.4193583     3571.724     5036.642     5040.683     85.04876     169.0243     338.2505      1.502     3.16     1008.659     59.61622     506.4762        23     1.236     0.972  78.44   0
       243    752.9583    664.5662 307.6094893  +6.4208290     4167.668     6235.619     6455.785     84.51217     169.1589     338.0487      1.640     3.59     1008.208     59.61622     585.1672        24     1.376     0.945  63.94   0
       244    584.5499    662.3937 307.6795199  +6.4160953     3144.251     4859.791     4530.445     84.24259      168.957     337.8131      1.675     3.73     1011.707     59.61622     370.2426        25     1.377     1.033  71.81   0
       245    420.4485    662.7879 307.7476736  +6.4104369     1218.316     2002.019     2361.546     84.10748     169.0916     337.8804      1.763     3.99     1016.191     59.61622     174.0542        15     1.087     1.015  41.45   0
       246    245.1826    661.9415 307.8205049  +6.4049068     1628.712     2484.774      2580.11     84.37749     169.0243     337.9477      1.578     3.97     1020.649     59.61622     234.3505        15     1.229     0.875  87.74   0
       247    991.2400    659.5827 307.5106709  +6.4308370      9018.81     12097.52     12127.89     84.37749      168.957     337.9814      1.425     3.05     1002.462     59.61622     1408.634        28     1.325     0.880  69.89   0
       248    328.8175    661.2047 307.7857893  +6.4080179     1244.998     2172.936     2096.075     84.37749      168.755     338.0487      1.871     5.33     1018.692     59.61622     168.9551        13     1.320     0.783  69.81   0
       249    544.5400    659.7827 307.6962278  +6.4158342      592.011     744.9436     612.2334     84.37749     169.0916     337.9477      1.439     3.84     1013.086     59.61622     92.09235         6     1.020     0.768  42.66   0
       250    711.0776    658.0703 307.6271051  +6.4221115     1040.648     1530.663      1498.41     85.04876     169.4276     338.1832      1.595     5.06     1008.709     59.61622     134.6181        12     1.353     0.706  32.05   0
       251    103.1899    656.9506 307.8796537  +6.4021963     781.9034      1293.13     1092.912     84.24259     169.0243     337.8804      1.403     4.29     1021.871     59.61622     149.7659         6     1.193     0.440 -63.08   0
       252    149.7981    653.0478 307.8604258  +6.4053743     22067.41     36320.82      37846.7     84.10748     168.8224     337.7794      1.747     3.78     1021.417     59.61622     2729.126        55     1.631     1.222  70.68   0
       253    436.5903    653.8563 307.7412693  +6.4146652     2613.938     4395.757     4501.783     84.10748     169.0916     337.8804      1.788     3.99     1015.674     59.61622     333.4121        23     1.313     1.093  69.79   0
       254    818.0338    653.5304 307.5828268  +6.4275584     1257.335     1820.445     1549.617     84.64664     169.1589     338.2841      1.561     4.60     1006.705     59.61622     145.9211        12     1.063     0.776  80.30   0
       255    369.8806    647.5530 307.7691926  +6.4150312     616.1202     1022.698     925.9586     84.78089     169.1589     338.2169      1.418     3.98      1016.92     59.61622     82.41858         6     1.390     0.326  42.28   0
       256    986.0974    642.5161 307.5133792  +6.4377117     7704.049     11204.04     11772.97     84.78089     169.5618     338.2841      1.555     3.19     1002.017     59.61622     1194.276        30     1.471     0.937  60.05   0
       257    579.7253    637.8054 307.6823513  +6.4260852     44812.83     72399.25     75611.95     84.37749     168.6201      338.116      1.734     3.64     1011.106     59.61622     5279.643        65     1.586     1.265  69.25   0
       258     31.0307    641.8054 307.9101387  +6.4060217     1053.787     1621.815     1802.561     84.10748     169.0243     337.9814      1.496     3.84     1022.379     59.61622     152.8171         9     0.893     0.724  -2.29   0
       259    944.2001    638.9716 307.5309032  +6.4377785     741.2518     803.1865     855.9604     83.97215     168.8897      338.015      1.335     3.29     1003.235     59.61622     121.2903         6     0.895     0.457  54.50   0
       260    223.7847    638.7218 307.8301772  +6.4137742     598.0607     1062.768     1887.927     84.37749     168.8897     338.0487      2.246     3.70     1019.975     59.61622     92.90894         5     0.969     0.405 -85.55   0
       261    187.3601    634.4708 307.8454509  +6.4143057     2577.599     4377.795     4192.473     84.64664     169.1589     338.2841      1.804     4.26     1020.396     59.61622     327.9312        25     1.476     1.024  69.54   0
       262     80.5667    629.0687 307.8899935  +6.4129462     1101.641     1728.853     1915.818     84.64664     169.1589     338.2505      1.901     4.83     1021.451     59.61622     175.2865        11     1.353     0.592  84.51   0
       263    477.0117    621.6459 307.7255633  +6.4293175     57154.96     94652.34     99593.66     84.24259      168.957     337.9141      1.772     3.68     1014.053     59.61622     6651.945        76     1.602     1.340  72.23   0
       264    662.8448    618.8190 307.6484609  +6.4367042     845.2587     1234.613     1157.218     84.37749     169.0243     337.9814      1.493     5.45     1008.118     59.61622     110.8735        11     1.184     0.708  86.29   0
       265    151.7554    616.8970 307.8608343  +6.4203645     1346.777     2317.844     1953.966     84.78089     169.0916     338.3849      1.774     5.86     1020.434     59.61622     172.2465        18     1.450     0.932  77.47   0
       266    946.9163    614.3049 307.5306018  +6.4480529     727.4171     895.6268     929.8926     84.64664     169.5618     338.3177      1.346     4.60     1002.583     59.61622     100.1624         6     0.812     0.739 -26.41   0
       267    430.7195    614.0688 307.7450487  +6.4308946     702.2319     1224.537     1370.371     85.04876     169.4276     338.2169      1.894     4.29     1014.671     59.61622     109.7093         6     0.889     0.589   2.50   0
       268    322.4622    611.3550 307.7901108  +6.4283847     1916.976     3538.531     3930.322     84.64664     169.0916     338.3177      1.992     5.47     1016.122     59.61622     236.2877        22     1.595     0.947  89.30   0
       269    622.9001    612.9165 307.6652532  +6.4378052     761.5567     1224.866     1468.065     84.78089     169.6959     338.3177      2.026     3.40     1009.052     59.61622      102.375         8     0.825     0.663 -49.36   0
       270     20.7648    623.3090 307.9150286  +6.4133121     1675.693      2677.39     3217.785     84.91493     169.0243     338.2505      1.733     4.77     1022.609     59.61622     195.3498        19     1.395     0.913  57.35   0
       271    749.0426    605.1929 307.6131103  +6.4452108     5186.927     7992.719     8159.785     84.24259     168.8897     337.9141      1.631     3.54      1006.25     59.61622     681.3227        29     1.410     1.050  73.43   0
       272    802.5877    600.4106 307.5910267  +6.4489736     14109.72     20777.43      21417.3     84.51217      168.957     338.1496      1.621     3.33     1005.737     59.61622      1752.54        40     1.440     1.116  74.94   0
       273   1019.9657    600.8320 307.5007059  +6.4560501      1125.09     1454.104     1232.341     84.37749     168.8897     309.8575      1.369     3.60     999.1495     59.61622     172.3971        10     1.038     0.639  80.22  16
       274    544.8634    600.3008 307.6980956  +6.4404021       1074.9      2053.66     2116.434     84.64664     169.2261     338.2505      2.218     5.99     1010.799     59.61622     132.5635        14     1.502     0.673  81.89   0
       275    626.4856    598.4680 307.6642497  +6.4438902     2695.267     4145.965     4456.927     85.04877     169.4276     338.2505      1.685     4.00     1008.401     59.61622     306.7112        25     1.430     1.072  74.34   0
       276     47.6391    598.7069 307.9046978  +6.4243730     668.6339     1016.698     741.6954     84.91493     169.0916     338.2841      1.576     5.03     1021.727     59.61622     96.39514         8     1.097     0.653  52.27   0
       277    943.4053    594.2947 307.5327313  +6.4561973     1245.564     1896.166     2565.229     84.51217     168.8224     337.9477      1.616     4.17     1002.023     59.61622     152.5835        11     1.048     0.776  82.34   0
       278    239.3542    592.0485 307.8252856  +6.4335657     1168.512     2143.961     3290.278     84.78089     169.0243     338.2505      2.439     5.38     1017.582     59.61622     175.0406        17     1.366     0.963  60.54   0
       279    384.4274    591.5483 307.7650380  +6.4386403     843.5967     1300.866     1283.234     84.37749     169.2933     338.1496      1.796     5.21     1014.815     59.61622     136.8817         8     1.008     0.759  16.08   0
       280    878.6292    583.6400 307.5599992  +6.4584356      2911.28     4112.263     4305.287     84.37749     168.8897     338.0823      1.564     3.34     1003.632     59.61622     377.0223        21     1.273     0.969  82.38   0
       281    173.5575    583.3586 307.8529110  +6.4349430      726.801     1243.432     1487.937     84.51217     169.1589     338.0823      1.915     5.87     1019.213     59.61622     115.2025         8     1.177     0.824  80.88   0
       282    837.3361    581.0473 307.5772410  +6.4581279     2663.232     3966.219     4121.933     84.64664     169.0243     338.2841      1.563     3.29     1004.407     59.61622      384.657        19     1.223     0.915  78.96   0
       283    808.1682    577.0300 307.5894934  +6.4588128     2633.159     4179.736     5301.643     84.24259     168.8897     337.9477      1.805     3.75     1004.693     59.61622     322.8331        24     1.363     1.035  60.22   0
       284    265.4345    576.0562 307.8149915  +6.4410437     6882.685     11864.81     12342.63     84.64664     169.1589     338.2169      1.861     4.06     1016.201     59.61622     855.3562        37     1.597     1.174  67.14   0
       285    817.9748    572.2701 307.5855791  +6.4611053       156562     237116.4     248059.9     84.37749     169.0243     338.1496      1.625     3.40     1004.366     59.61622     20328.29       111     1.610     1.271  74.41   0
       286    869.1157    573.7428 307.5642836  +6.4622043     609.5032     897.7798     912.7197     84.78089     169.1589     338.3177      1.565     5.33     1003.698     59.61622     97.61566         7     1.257     0.639  87.77   0
       287    199.6235    570.5781 307.8425149  +6.4410951     52004.56     88967.14     95228.95     84.37749      168.957     338.1832      1.862     3.98     1018.007     59.61622     6509.342        82     1.709     1.393  71.51   0
       288    123.6264    566.9141 307.8742082  +6.4400537     5579.801     9318.099     9449.396     84.91493     168.8897     338.0823      1.812     4.05     1019.648     59.61622      671.842        33     1.435     1.198  70.19   0
       289    988.9749    564.1143 307.5148113  +6.4701767     1458.944      2086.17     1927.005     84.91493     168.8897     338.0487      1.500     3.74      998.933     59.61622     220.7175        11     1.030     0.753  69.75   0
       290   1009.3426    562.9058 307.5063900  +6.4713543     786.0796      864.809     590.6624     84.64664     169.1589     338.3849      1.348     4.23     998.0838     59.61622     124.9364         7     0.900     0.567  60.27   0
       291    238.4096    562.3914 307.8266793  +6.4457776      737.358     1228.001     1693.301     84.24259      168.957      338.116      1.790     4.15     1016.433     59.61622     98.26556         7     1.033     0.476 -82.21   0
       292    854.4953    559.6781 307.5708295  +6.4675231     4573.861     6675.136     6661.486     84.51217     169.4276     338.2505      1.558     3.56     1003.621     59.61622     589.7867        24     1.318     0.961  70.63   0
       293    373.0331    557.7307 307.7709117  +6.4522196     14344.84     25149.93     26402.12     84.64664     169.1589     338.2505      1.858     4.11      1014.13     59.61622     1587.293        48     1.589     1.324  69.53   0
       294    462.7367    558.0066 307.7336372  +6.4551127     570.8398     1060.882     417.7388     84.10748     168.8224     337.9814      1.587     5.31     1012.004     59.61622     79.58209         7     1.165     0.684 -59.06   0
       295    174.9918    556.6111 307.8532189  +6.4460336      1737.87     3120.497     3787.345     84.37749      168.957     338.1496      1.961     4.82     1018.506     59.61622     240.8079        23     1.495     1.055  70.66   0
       296    808.5202    552.9506 307.5901556  +6.4687659     5793.849     8787.792     9170.729     84.78089     169.2261     338.2169      1.672     3.56     1003.713     59.61622     717.5459        32     1.391     1.094  73.06   0
       297    539.4247    552.6392 307.7019594  +6.4598971     5756.334     9708.695     9772.745     84.37749      168.957      338.015      1.804     4.11     1009.239     59.61622     605.1793        35     1.523     1.171  69.46   0
       298    250.0426    553.9515 307.8221317  +6.4496526     786.8665     1276.023     742.1266     84.78089     169.0916     338.1496      1.652     4.09     1015.856     59.61622     104.5367         7     0.893     0.536  44.44   0
       299    112.3518    553.5978 307.8793418  +6.4451721     895.1902     1482.334      1288.32     84.10748     168.8224     337.7794      1.770     5.78     1019.546     59.61622      135.978        11     1.229     0.765  59.29   0
       300    397.8231    549.3707 307.7608952  +6.4565022     1261.896     2231.115     2276.444     84.24259      168.957     338.0487      1.792     5.97     1013.166     59.61622     145.4854        19     1.413     1.003  62.55   0
       301    186.4724    545.8659 307.8488128  +6.4508554     6005.768     10301.65     10723.55     84.78089     169.2261     338.2505      1.847     3.86     1017.742     59.61622     714.6314        37     1.490     1.279  73.16   0
       302    584.1853    545.4524 307.6836061  +6.4643625     2159.427     3977.033     3919.457     84.10748     169.0916     337.9477      1.952     4.43     1007.315     59.61622     248.0828        27     1.348     1.259 -55.64   0
       303    281.6042    542.2317 307.8094161  +6.4555506     73281.66     129334.2     137418.2     84.10748     169.0243     337.9814      1.895     4.19      1014.72     59.61622     8555.452        89     1.731     1.403  73.01   0
       304     58.0498    544.4751 307.9022077  +6.4471119     4488.287     7633.597     7948.364     84.78089     169.2261     338.2505      1.836     3.95     1020.327     59.61622      524.525        30     1.555     1.070  73.60   0
       305    825.0676    545.2083 307.5835409  +6.4725148     1190.495     1804.618     2175.469     84.24259     168.8897      338.116      1.621     4.20      1003.34     59.61622     167.1475        13     1.122     0.842  85.52   0
       306    571.1389    539.8485 307.6892147  +6.4662394      832.682     1561.283     2004.717     84.78089     169.0916     338.2841      2.509     6.85     1007.613     59.61622     111.6049        10     1.554     0.847 -66.62   0
       307    265.6039    537.3569 307.8162275  +6.4570260     1319.261     2137.787     3087.094     84.10748      168.755     337.9141      1.948     4.55     1014.741     59.61622      165.505        17     1.230     0.975  75.49   0
       308    804.6999    534.7027 307.5923555  +6.4761720      15788.2     23767.46     24549.46     84.78089     169.6959     338.0487      1.628     3.38     1002.944     59.61622      1984.02        44     1.475     1.139  74.98   0
       309    980.9771    535.9866 307.5190767  +6.4815229     1805.888     2345.568     2572.165     84.51217      168.957      338.116      1.430     3.34     998.1471     59.61622     268.8851        13     1.156     0.683  72.90   0
       310    508.3527    533.0833 307.7155263  +6.4669303     34973.18     64199.34     69780.71     84.78089     169.1589     338.2169      1.965     4.12     1009.438     59.61622     3817.042        79     1.754     1.500  54.03   0
       311    658.2872    531.2992 307.6532971  +6.4726846     768.2718     1310.698     1844.173     84.78089     169.6288     338.2841      1.697     4.93     1005.549     59.61622     116.9241         8     1.161     0.593  78.72   0
       312    221.0230    529.4354 307.8350148  +6.4587993     1364.134     2651.908     3402.548     84.24259     168.8897     337.9814      2.238     5.10     1015.562     59.61622      155.304        21     1.390     1.088 -74.75   0
       313     56.5135    529.4495 307.9033541  +6.4532633     1137.126     1816.721     1971.632     84.78089     169.0916     338.3177      1.681     4.10     1019.877     59.61622     176.1868        12     1.343     0.701  55.87   0
       314    678.3806    527.9708 307.6450612  +6.4747306     1230.778     1884.173     2301.255     84.37749      168.957     338.1496      1.658     5.18     1005.163     59.61622     154.3251        13     1.088     0.889  44.79   0
       315    668.2642    528.0864 307.6492602  +6.4743446      2754.64     4222.912     4657.827     84.91493     169.3604     338.2169      1.689     3.70     1005.308     59.61622     349.1298        20     1.231     1.016  66.70   0
       316    730.5684    526.9516 307.6234140  +6.4768958     1223.617     2092.245     2326.609     84.51217     169.1589     338.1496      1.966     4.75     1004.349     59.61622     167.3655        12     1.187     0.742  34.22   0
       317    406.1856    524.0809 307.7582737  +6.4672234     1414.068     2320.772     1920.424     84.37749     168.8897      338.015      1.770     4.77     1011.706     59.61622     182.9317        19     1.384     1.011 -87.39   0
       318     87.4159    525.1301 307.8906630  +6.4560860     663.6301     1182.945     1572.702     84.24259     169.0916      338.116      1.785     5.67     1019.288     59.61622     116.2878         8     1.252     0.725  65.66   0
       319    337.3780    521.9056 307.7869320  +6.4658138     3163.741     5610.116     5526.818     84.78089      168.957     338.0487      1.895     4.46     1012.735     59.61622     371.4512        30     1.536     1.168  66.11   0
       320    152.7513    520.6542 307.8636729  +6.4601305     22638.15     38898.45     41114.78     84.78089     169.1589     338.2841      1.850     4.08     1017.825     59.61622     2775.128        58     1.658     1.307  71.99   0
       321    517.4824    521.2964 307.7121304  +6.4721022     1940.768       3159.5     3560.389     84.64664     169.5618     338.3177      1.748     4.46     1008.488     59.61622     208.3219        22     1.370     1.051  81.18   0
       322    880.6371    520.6267 307.5612793  +6.4845181     1604.083     2386.979     2188.551     84.37749      168.957      338.015      1.599     4.04     1001.478     59.61622     223.1881        18     1.278     0.956  77.85   0
       323    117.8120    519.0863 307.8782403  +6.4596032     2381.334      4091.36     4339.882     84.37749     168.8897     338.0487      1.859     4.86     1018.527     59.61622     285.8854        25     1.523     1.092 -68.95   0
       324    355.2679    517.1461 307.7796605  +6.4683788     878.7542     1434.659     1508.981     84.78089     169.0916      338.116      1.835     4.79     1012.203     59.61622       138.95        10     1.188     0.580  83.13   0
       325    978.1268    515.1174 307.5209605  +6.4900439     5376.762     7612.401     7412.961     85.04876     169.4947     338.2505      1.483     3.23     997.4639     59.61622     788.3932        27     1.375     0.901  68.38   0
       326     16.9946    505.0194 307.9205973  +6.4620190     22764.57     38020.61     40922.32     84.37749      168.755      338.015      1.781     3.79     1019.556     59.61622     2784.212        57     1.655     1.254  71.80   0
       327    551.5429    507.3589 307.6984493  +6.4789968     1381.678     2186.286     2218.566     84.78089     169.1589     338.2505      1.723     4.22     1006.879     59.61622     168.6771        14     1.073     0.933 -75.13   0
       328    449.6997    501.7250 307.7409497  +6.4779115     36351.03     63208.88     67004.27     84.24259     169.2933      338.116      1.857     4.05     1009.367     59.61622      4098.69        73     1.698     1.366  72.47   0
       329    657.6700    501.4294 307.6545580  +6.4849958     11371.84     18128.74     19155.39     84.64664     169.1589     338.1496      1.732     3.73     1004.541     59.61622     1242.441        37     1.474     1.166  73.87   0
       330      1.3907    499.5447 307.9272646  +6.4637539     56772.09     71064.48     75058.76     74.03941     135.1488       255.28      1.169     3.20     1019.505     59.61622     15462.57        59     1.632     0.803 -87.97  24
       331    297.6674    501.8278 307.8041066  +6.4727702     778.6467     1388.551     1630.467     84.37749     169.0916      338.116      2.203     5.92     1011.509     59.61622     98.63928         8     1.050     0.939 -46.47   0
       332    214.8932    499.3381 307.8385778  +6.4710187     16361.46     29939.98     31794.49     84.78089     169.1589     338.2841      1.960     4.27     1014.617     59.61622     1791.126        59     1.756     1.371  61.73   0
       333    180.8470    500.7325 307.8526745  +6.4692992     1355.419     2520.194     1989.398     84.78089     169.0916     338.2169      1.940     5.37     1015.951     59.61622     158.3137        19     1.311     1.164  71.03   0
       334    991.6951    499.7539 307.5158382  +6.4968391      1147.16     1354.486     1387.676     84.64664     169.0916     338.3513      1.354     3.46     996.3534     59.61622     186.3151        10     1.115     0.567  83.35   0
       335    920.2781    499.1321 307.5455308  +6.4947147     794.5306     953.9406     702.5473     84.91493     169.2261     338.1832      1.431     4.84     999.0609     59.61622     106.7513         7     0.967     0.686  76.09   0
       336    831.6310    499.3885 307.5823523  +6.4916509      1061.41     1344.893     1351.785     84.24259     168.8897     338.0823      1.412     3.73     1001.195     59.61622     146.0006         9     0.985     0.643 -87.53   0
       337    579.5441    498.2274 307.6871235  +6.4837040     2524.541     4264.828     3758.598     84.37749     169.2261     338.0487      1.807     4.29     1006.077     59.61622     266.2051        23     1.351     1.088  80.72   0
       338    953.3169    495.3339 307.5319315  +6.4973846     4973.894     7051.638     7319.615     85.04876     169.4276     338.2841      1.520     3.14     997.6541     59.61622     747.6324        24     1.262     0.948  62.75   0
       339    626.5397    493.8452 307.6677464  +6.4870857      5883.89     9604.007     10213.12     84.64664     169.0916     338.3177      1.773     3.98     1005.103     59.61622     653.8916        36     1.465     1.185  69.11   0
       340    114.2600    494.3686 307.8805516  +6.4696882     941.8177     1639.046     968.2385     84.51217     169.2261     338.1832      1.793     5.29     1017.897     59.61622     131.2887        10     1.372     0.575 -85.23   0
       341    975.8774    487.5681 307.5228185  +6.5013429     3574.904     5198.968     5034.088     84.64664     169.1589     338.1832      1.526     3.37     996.5079     59.61622     543.8766        22     1.319     0.891  76.56   0
       342    538.6921    485.0750 307.7045385  +6.4877664     6316.797     10882.88     11566.11     84.78089     169.2933     338.2169      1.866     3.98     1006.147     59.61622     687.7974        37     1.506     1.248  75.16   0
       343    414.3033    486.9431 307.7561532  +6.4828277     637.9268     746.7236     908.9186     84.64664     169.0916     338.4521      1.278     4.30      1009.76     59.61622     82.17059         7     0.753     0.700 -72.65   0
       344    384.7772    485.2049 307.7684783  +6.4825553     2004.744     3404.235     3024.555     84.37749     168.8897      338.015      1.780     4.99     1009.718     59.61622     237.3154        22     1.399     1.087  68.79   0
       345    895.1534    480.8160 307.5565839  +6.5014386     3107.173     4608.878      5131.44     84.24259     169.0243     337.9477      1.567     3.51     999.1941     59.61622       429.17        20     1.236     0.917  60.02   0
       346    243.6567    479.9926 307.8272818  +6.4799713     658.8214     895.6162     845.2817     84.10748     169.0243     337.9814      1.698     5.05     1012.448     59.61622     90.36511         7     1.098     0.658  27.67   0
       347    942.0425    474.3614 307.5373190  +6.5056673     1285.487      2022.44     1785.531     84.51217     169.1589     338.0823      1.711     4.60     997.2381     59.61622     194.5718        16     1.462     0.757  65.84   0
       348    902.5063    475.1884 307.5537177  +6.5040072     2322.113     3329.304     3113.435     84.51217     168.8224      338.015      1.528     3.33     998.6539     59.61622     331.8141        20     1.268     0.945  58.65   0
       349    726.5338    471.2991 307.6269604  +6.4997373     2767.102     4232.856     4241.715     84.78089     169.2933     338.2169      1.647     3.74     1002.923     59.61622     323.4977        23     1.372     0.967  79.40   0
       350    397.3561    469.4050 307.7637852  +6.4895000     3106.363     5560.024      6248.75     84.10748     168.8224     337.8467      1.911     4.49     1008.709     59.61622     361.6554        29     1.518     1.162  72.91   0
       351     88.4621    470.5143 307.8920754  +6.4786684     1771.597       2940.3     3335.646     84.91493     169.3604     338.2169      1.841     4.61     1017.734     59.61622     209.5494        19     1.279     1.036 -82.54   0
       352    437.6505    469.3704 307.7470459  +6.4908651       977.66     1509.851     1676.168     84.37749     169.2933      338.116      1.699     6.57     1007.854     59.61622     133.5729        15     1.289     0.939  41.25   0
       353    625.1929    466.0242 307.6692418  +6.4985266     8814.612     14746.84     16001.98     84.24259      168.957     338.0487      1.779     3.83     1004.224     59.61622      977.886        39     1.542     1.192  72.69   0
       354    787.8480    462.5704 307.6017792  +6.5053895     15731.53     24225.43     25388.71     84.37749     169.2261      338.116      1.660     3.45     1000.453     59.61622     1897.509        42     1.501     1.119  71.61   2
       355    791.9669    457.9652 307.6002226  +6.5074283     1319.629     2436.748     2804.962     84.37749     168.8897     337.9477      1.881     4.21     1000.124     59.61622     167.3563        15     1.151     0.960 -62.38   3
       356    307.6831    462.9634 307.8012572  +6.4891512     2174.733     3750.291     3572.271     84.78089     169.0916     338.1496      1.833     4.71     1009.088     59.61622      241.271        25     1.421     1.161  55.72   0
       357    816.9658    460.0276 307.5897668  +6.5074116     1044.019     1586.934     1274.743     84.24259     168.8897     337.9814      1.613     2.79     999.6622     59.61622     178.8698         9     0.798     0.746  56.20   0
       358    390.7520    459.1840 307.7668735  +6.4934982     1323.175      2353.83     2856.552     84.24259     169.1589     337.9814      2.037     6.18     1008.093     59.61622     151.2637        18     1.267     1.037  51.82   0
       359    973.2110    457.5004 307.5249344  +6.5136677     2169.411     2888.091     2899.057     84.51217      168.755     337.9814      1.503     3.53     995.2933     59.61622     303.0485        18     1.302     0.825  78.51   0
       360    763.4739    453.5615 307.6122087  +6.5082947     2225.544     3259.497      3610.72     84.64664     169.1589     338.2841      1.725     4.21     1001.089     59.61622     267.1218        20     1.378     0.935  68.38   0
       361    125.3760    454.5478 307.8772799  +6.4865013     3696.724     6418.062     7052.083     84.24259     169.1589      338.116      1.855     4.05     1015.837     59.61622     474.7971        33     1.469     1.255  59.82   0
       362    282.9947    451.5410 307.8118996  +6.4930381     1224.313     2173.573     2983.822     84.24259     169.0243     337.9814      1.924     6.74     1009.208     59.61622     170.5923        15     1.625     0.801  56.30   0
       363    361.3120    449.2762 307.7794387  +6.4966012     2631.663     4573.752     4694.688     84.78089     169.4947     338.3177      1.834     4.61     1007.605     59.61622     291.4384        29     1.583     1.169  75.43   0
       364    717.0984    446.9233 307.6316998  +6.5094856     1507.981     2399.692     2596.899     84.37749     169.4276     338.2169      1.774     3.73     1001.767     59.61622     214.9401        15     1.186     0.817  82.17   0
       365    990.9787    445.4236 307.5179570  +6.5192460     703.0614     807.6156     610.1987     84.51217      168.957     338.1832      1.228     4.21     993.8932     59.61622      113.138         7     0.944     0.598  51.65   0
       366    558.6593    439.6241 307.6977730  +6.5071992     983.8591     1613.172     1585.475     84.37749     169.1589     338.0487      1.785     5.03     1003.783     59.61622     118.7306        10     1.149     0.916  52.06   0
       367    480.9629    438.0468 307.7301067  +6.5052483     1137.019     1931.114       1892.3     84.51217     169.1589      338.116      1.860     6.90     1004.093     59.61622      133.052        16     1.278     1.045  60.57   0
       368    843.3741    437.3402 307.5795563  +6.5176599      1432.99     2315.796     2823.633     84.37749     169.1589     338.0823      1.887     4.06     998.3522     59.61622     208.1794        15     1.314     0.754  58.99   0
       369    829.2462    436.1397 307.5854666  +6.5176839      1857.49     2855.141     2997.314     84.64664     169.1589     338.2841      1.638     3.86     998.5703     59.61622     261.1375        18     1.237     0.976  89.09   0
       370    726.3552    434.2533 307.6282797  +6.5150258     13744.99     22111.68     23341.54     84.78089     169.1589     338.2505      1.749     3.80     1001.113     59.61622     1567.195        45     1.545     1.236  75.79   0
       371    647.4188    430.2473 307.6612110  +6.5140406     2384.917     3948.424     4214.389     84.24259     169.1589      338.015      1.821     4.16     1001.949     59.61622     268.9823        21     1.358     0.961  78.11   0
       372   1015.6063    430.8031 307.5082144  +6.5261029      479.103     605.9845     545.8964     84.10748     168.8224     338.0823      1.906     4.43       992.02     59.61622     68.57697         5     1.185     0.472  32.73   0
       373    619.8315    425.3921 307.6728364  +6.5151222      11546.9     24838.77     29839.26     84.24259      168.957     337.9814      2.370     6.37     1002.643     59.61622     1429.866        69     2.462     1.325  39.52   0
       374    951.5829    424.1451 307.5350391  +6.5267177     3885.271     5491.021     5474.682     84.24259     169.0916     337.9477      1.494     3.22     994.7469     59.61622     520.0183        25     1.382     0.939  66.38   0
       375    390.7952    420.1353 307.7681723  +6.5096206     23634.33     42907.88     45450.44     84.10748     168.8224     337.9814      1.910     4.19     1005.651     59.61622     2519.666        59     1.681     1.362  71.96   0
       376    906.7775    419.5602 307.5538094  +6.5271162     1636.144     2768.743     3544.424     84.37749      168.957      338.015      1.951     6.32     996.1761     59.61622     233.2258        20     1.950     0.821  49.21   0
       377    137.2436    419.7890 307.8735247  +6.5012500     1954.234     3386.127     3186.912     84.24259      168.957     337.9141      1.808     4.45     1013.676     59.61622     222.6899        22     1.382     1.114  89.66   0
       378    920.4668    414.5578 307.5482894  +6.5296381     5213.939      7464.54     7688.855     84.78089     169.0916     338.2841      1.556     3.39     995.6892     59.61622     687.7034        24     1.370     0.920  75.39   0
       379     70.5383    415.4962 307.9013825  +6.5007787     1215.585     2397.854     2490.839     84.51218     169.2261     338.2841      2.116     7.03     1015.211     59.61622     171.4801        16     1.321     1.049 -50.01   0
       380    248.3393    410.7051 307.8276761  +6.5087331     11463.44     20651.64     21995.75     84.64664     169.1589     338.3177      1.935     4.23     1008.413     59.61622     1373.685        50     1.674     1.337  70.05   0
       381    975.8604    412.0750 307.5253566  +6.5325103     637.7743     891.5602     993.1535     85.04876     169.1589     338.1832      1.348     3.31     993.1236     59.61622     131.2242         5     1.262     0.251  78.86   0
       382     84.3201    404.8875 307.8960157  +6.5056220     809.8567     1415.014      1401.86     84.51217     169.4276     338.3513      1.795     5.59      1014.91     59.61622     102.7798         9     1.356     0.650 -78.44   0
       383    743.1785    405.4325 307.6222584  +6.5274868     518.7548     622.2327     686.1763     84.24259      168.957      338.015      1.259     3.42     999.6384     59.61622     90.66559         5     0.739     0.459  18.81   0
       384    971.4514    402.8250 307.5274986  +6.5361822     1049.492     1574.924      1726.14     84.37749     169.1589      338.116      1.648     4.00     993.1008     59.61622      151.794         9     1.066     0.620  60.83   0
       385    148.5738    399.3816 307.8695074  +6.5100557     4304.149     7592.149     8441.256     84.37749      168.957      338.116      1.922     4.11      1012.36     59.61622     515.7964        35     1.590     1.231  79.37   0
       386    361.3849    400.3129 307.7810600  +6.5168177     1056.523     1926.011     1911.738     84.37749     168.8897      338.116      1.941     4.72     1004.642     59.61622     155.1897        12     1.195     0.762  78.54   0
       387    194.3875    400.4580 307.8504372  +6.5111511     698.9041     1230.391     1502.341     84.10748     169.0916     337.9141      1.959     5.65     1010.244     59.61622     89.09875         9     1.379     0.652  57.02   0
       388    253.6681    397.9853 307.8258917  +6.5141633     1152.349     2056.634     1727.373     84.24259     169.0243      338.116      1.840     6.57     1007.888     59.61622     156.8259        16     1.313     1.030  73.51   0
       389    446.7302    398.1142 307.7456751  +6.5205872     574.6261     667.6072     354.9836     84.91493     169.4276     338.2505      1.619     3.52     1002.786     59.61622     114.4073         5     1.044     0.343  46.58   0
       390    170.6863    395.2405 307.8604604  +6.5125086     2109.484     4050.038     4601.084     84.78089     169.0916     338.2505      2.049     5.29     1011.184     59.61622     259.7193        27     1.651     1.134 -84.35   0
       391    834.8867    395.9900 307.5844711  +6.5344482     701.8765     1080.925     565.6889     84.37749     168.8224     338.0487      1.562     4.35     997.0074     59.61622     110.4473         6     1.029     0.525 -12.15   0
       392    566.0079    394.3273 307.6962447  +6.5261460      759.493      1154.83      942.991     84.37749     168.6201      338.116      1.648     4.01     1001.363     59.61622     117.2231         7     1.074     0.632  70.18   0
       393    394.3422    389.8504 307.7677199  +6.5222425     1825.701     3172.225     2884.487     84.78089     169.1589     338.2169      1.802     4.01     1003.536     59.61622     262.1912        22     1.273     1.117 -17.53   0
       394     13.2439    389.9286 307.9260506  +6.5094057     665.4178     972.8458     1018.765     84.64664     169.1589     338.2505      1.920     5.78     1015.606     59.61622     104.0408         8     1.541     0.610  58.81   0
       395    982.4196    388.7744 307.5234124  +6.5423488     868.4838     1393.044     1572.488     84.37749      168.957      338.116      1.699     3.86     992.3021     59.61622     137.4146         9     1.141     0.627  64.47   0
       396    327.5996    387.9734 307.7955133  +6.5207785     492.9584     782.8351     906.7804     84.37749     168.8224      338.015      1.665     4.55     1004.984     59.61622      77.6908         5     1.026     0.574  16.50   0
       397    447.8852    383.5603 307.7456858  +6.5266344     5984.596     10697.21     11516.08     84.78089     169.0916     338.1832      1.927     4.14     1001.838     59.61622     676.6031        44     1.581     1.440  80.41   0
       398     44.1588    384.5789 307.9133880  +6.5126547     2881.413     5015.238      5939.65     84.37749      168.957      338.015      1.927     3.83     1015.121     59.61622     345.1381        28     1.358     1.207  80.29   0
       399    788.5093    380.8807 307.6042484  +6.5391374     12068.08     18971.68     20465.24     84.51217     169.4276     338.2505      1.714     3.63     997.6641     59.61622     1483.125        40     1.497     1.176  72.31   0
       400    780.4328    382.5297 307.6075488  +6.5381869     1922.369     3092.003     3306.114     84.64664     169.1589     338.2505      1.755     4.03     997.9448     59.61622     218.4403        19     1.179     1.108  71.95   0
       401    351.5527    379.2504 307.7858556  +6.5251834     795.9804     1584.533      1601.77     84.78089     169.0243     338.2169      2.015     5.96     1003.458     59.61622     112.3543         8     1.171     0.854 -22.21   0
       402    963.6593    372.3252 307.5317591  +6.5485145     608.3547      815.178     1402.119     85.04876     169.1589     338.1832      1.233     4.00     992.3976     59.61622     92.53485         6     0.913     0.501  45.15   0
       403      2.1031    370.4431 307.9313388  +6.5170748     913.7278     1801.441     2467.558     82.46886     146.3017     267.8461      2.504     6.82      1015.77     59.61622     109.3441        14     1.448     0.900 -88.41  24
       404    196.9628    371.2559 307.8503539  +6.5232934       618.34      1172.62     820.4056     84.78089     169.1589     338.2505      1.746     4.20     1009.201     59.61622     100.3158         6     1.238     0.406 -33.35   0
       405    468.4713    367.8424 307.7376623  +6.5338133     1839.958      3254.31     3313.809     84.64664     169.1589     338.2505      1.867     4.90     1000.288     59.61622     204.0009        21     1.396     1.029  83.34   0
       406    496.0506    367.2756 307.7262224  +6.5349714      2557.48     4735.862     4857.597     84.78089     169.2261     338.2169      1.931     4.47     999.8859     59.61622     289.4942        27     1.462     1.146  78.22   0
       407    924.5983    366.9216 307.5481707  +6.5494428     825.9583     1059.291     486.9692     84.10748     168.5527     337.9814      1.500     3.68     993.2477     59.61622     139.9742         9     1.051     0.726  46.03   0
       408    853.8680    363.7391 307.5776669  +6.5483967     31880.22     50410.19     52772.84     84.91493     169.0916     338.2169      1.703     3.59     995.5549     59.61622     4045.553        57     1.629     1.177  77.78   0
       409    346.2837    359.5767 307.7887086  +6.5331287     775.2327     1301.228      1471.79     84.64664     168.8897     338.1496      2.156     5.35     1002.566     59.61622     114.2239         8     1.001     0.809  17.32   0
       410    625.7132    356.2168 307.6727201  +6.5438779     2446.077     4364.581     4719.785     84.37749     168.8897      338.116      1.931     4.58     998.8648     59.61622      279.236        24     1.440     1.117  49.73   0
       411     34.0639    356.6555 307.9185270  +6.5238426     977.7496     1680.534     1865.039     84.91493     169.1589     338.2169      1.881     4.82     1015.062     59.61622     137.4745        12     1.100     0.870  37.63   0
       412    710.3422    349.7451 307.6377738  +6.5493800     71384.38     117171.8     123509.5     84.91493     169.2261     338.2505      1.793     3.89     997.7534     59.61622     8171.922        83     1.651     1.326  70.70   0
       413    868.6772    351.1247 307.5719369  +6.5540989     1119.419     1845.677     2278.146     85.04876     169.4276     338.2841      1.792     4.74     994.7133     59.61622     154.5161        11     1.208     0.702  69.75   0
       414     89.6583    349.4521 307.8956730  +6.5286871     1323.127     2143.128     1587.043     84.78089     169.1589     338.2169      1.779     5.23     1013.668     59.61622     177.4366        17     1.311     0.995 -79.43   0
       415    572.7319    346.5048 307.6950609  +6.5461144     2379.993     4237.874      4334.28     84.64664     169.2261     338.2505      1.931     4.57     998.5936     59.61622     259.8973        28     1.436     1.293  76.23   0
       416    110.1547    345.3802 307.8872950  +6.5310575     5192.921     9338.129     9870.681     84.37749     169.0243     338.0487      1.909     4.21     1012.684     59.61622     653.6514        35     1.573     1.239 -86.41   0
       417    951.7799    346.7069 307.5375543  +6.5586951      877.929     963.8412     671.8045     84.64664      168.957     338.0487      1.230     3.76     991.7366     59.61622     134.4355         8     0.909     0.724  72.46   0
       418    556.0426    342.6330 307.7021257  +6.5471542     6039.751     10529.24      11124.1     84.51217     169.1589     338.0487      1.853     4.03     998.3299     59.61622     634.0124        35     1.562     1.199  74.46   0
       419    285.2151    340.3427 307.8147309  +6.5390197     2189.468     4012.908     4280.504     84.10748     169.0916     337.9141      1.955     4.41     1004.623     59.61622     268.5912        26     1.456     1.140  62.23   0
       420    419.0190    337.8595 307.7592201  +6.5445340     21412.98     38950.88     41933.92     84.37749     169.0243      338.015      1.925     4.26     999.7258     59.61622     2278.325        59     1.670     1.385  71.00   0
       421    526.6670    336.1691 307.7145491  +6.5488391     1125.196     1907.288     1734.793     84.51217     169.1589     338.1832      1.772     6.07     997.9127     59.61622     131.9819        14     1.126     1.047  41.82   0
       422    398.6275    335.3130 307.7677786  +6.5449016      1039.99     2058.133     2486.089     84.91493     168.8897     338.0823      2.264     7.47     1000.135     59.61622      141.426        16     1.510     1.034  56.78   0
       423    497.9639    333.3047 307.7265719  +6.5490602     947.1491     1716.366     2223.654     84.91493     169.0243     338.3513      2.004     6.20     997.8134     59.61622     104.6337        12     1.378     0.785  12.11   0
       424    813.7554    330.4033 307.5954538  +6.5608203     911.4127     1460.767     1717.363     84.10748      168.755     337.8467      1.815     4.59     995.2687     59.61622     117.5304         9     1.044     0.646  65.88   0
       425    508.1178    328.2841 307.7225220  +6.5514731     7297.569     12864.25     13866.46     84.51217     169.4276     338.2841      1.888     4.16     997.4518     59.61622     802.1405        40     1.573     1.262  72.60   0
       426    777.1092    327.0173 307.6107948  +6.5609943     2785.252      4648.62     5220.201     84.51217     168.8897      338.116      1.755     3.77     995.9211     59.61622     351.1075        25     1.391     1.070  59.43   0
       427    932.6569    326.4194 307.5461809  +6.5664331     856.5408     978.0076     825.4579     84.24259     169.0916      338.015      1.382     4.40     991.4285     59.61622     132.7745         7     0.940     0.587  71.73   0
       428    334.7900    324.6382 307.7946630  +6.5471671      870.307     1440.012     1581.329     83.97215      168.957     337.9141      1.876     4.95     1001.893     59.61622     133.9062         7     1.016     0.683 -81.38   0
       429    170.5495    318.8393 307.8630995  +6.5440451     1134.429     1892.875     1891.141     84.64664     169.1589     338.1832      1.951     4.76     1008.781     59.61622     152.0892        11     1.019     0.829  33.50   0
       430    397.9428    312.4561 307.7688339  +6.5543149     6295.214      11453.7      12419.3     84.91493     169.2261     338.2841      1.934     4.29     999.2836     59.61622     672.5151        43     1.645     1.305  69.82   0
       431    253.8515    312.9742 307.8286864  +6.5492653     1721.026     3237.127     3674.743     84.37749     169.2261      338.116      1.981     5.68     1004.712     59.61622     208.9402        23     1.454     1.101  69.83   0
       432    751.2712    312.3620 307.6220236  +6.5661815     936.7734     1420.889     1012.524     84.64664     169.1589     338.2841      1.715     5.62     995.7506     59.61622     111.0535        11     1.070     0.871  47.29   0
       433    765.8195    308.2962 307.6161150  +6.5683461     50001.61     79667.29      83142.5     84.64664      168.957     337.9814      1.712     3.62      995.316     59.61622     5784.519        66     1.582     1.250  72.80   0
       434    437.3275    307.7775 307.7526270  +6.5575669     2047.626     3441.775       3301.4     84.37749      168.957     338.2169      1.772     4.24      997.749     59.61622     230.3453        22     1.267     1.117  81.92   0
       435    583.7424    305.3242 307.6918722  +6.5634843     1069.834     1887.995      1204.71     84.91493     169.1589     338.1496      1.827     7.27     995.7117     59.61622     117.1731        15     1.451     1.020  81.81   0
       436   1000.5079    305.1378 307.5187002  +6.5774816     1839.441     2554.866     2725.361     84.78089     169.2261     338.2841      1.431     3.32     987.8341     59.61622     279.5585        13     1.189     0.690  65.82   0
       437    941.5547    304.4054 307.5432221  +6.5758185     2467.282     3415.848     3382.397     84.10748     168.8224     337.8467      1.569     3.16     990.3022     59.61622     319.7762        17     1.134     0.844  81.04   0
       438    474.8482    304.1765 307.7371581  +6.5603111     874.2043     1669.529     2438.954     84.37749     169.1589      338.116      2.616     6.17     996.2594     59.61622     102.0043        14     1.404     0.763 -66.12   0
       439    845.3282    298.0016 307.5834225  +6.5752516       1048.4      1550.75     1454.578     84.24259     168.6876     338.0487      1.460     3.49     993.2274     59.61622     160.1022         9     1.046     0.589  30.93   0
       440    423.8949    303.2073 307.7583625  +6.5590034     1508.648     3122.484      3418.41     84.51217     168.8224      338.015      2.175     6.12     997.9373     59.61622     182.1406        26     1.513     1.336  80.11   0
       441    200.6510    294.8315 307.8514039  +6.5549680     1952.587     3375.557     3484.368     84.64664     169.2261     338.1496      1.859     4.65      1006.66     59.61622     216.1682        22     1.379     1.080  75.91   0
       442    454.6349    294.8429 307.7458716  +6.5634870     1031.547     2007.664     3048.255     84.51217     169.1589     338.0487      2.652     6.11     996.4341     59.61622     121.8101        15     1.320     0.960 -62.09   0
       443    764.2764    292.8984 307.6172737  +6.5746516     5647.954     9229.895     10132.06     84.37749     169.4276     338.2169      1.763     3.78     994.7057     59.61622      710.823        33     1.427     1.148  71.45   0
       444     96.9335    292.6174 307.8945728  +6.5523949     1000.806     1764.116     1953.275     84.24259     169.0916     338.0823      1.845     5.14     1012.672     59.61622     130.4393        11     1.123     0.882 -48.20   0
       445    780.6861    290.7939 307.6105256  +6.5760687     2678.537     4101.158     4633.855     84.24259     168.8224     337.9141      1.726     3.97     994.3535     59.61622     341.2151        22     1.322     1.042  62.65   0
       446    369.8576    285.4398 307.7814148  +6.5645263     1326.688     3125.674     3753.039     84.78089     169.2261     338.2505      2.399     7.61     999.5394     59.61622     166.3568        25     1.564     1.470  76.74   0
       447     84.2659    286.0250 307.9000591  +6.5546903     1177.611     2050.128     2020.171     84.37749     169.1589     338.0823      1.775     5.03     1012.879     59.61622     183.6987        15     1.227     0.970  71.53   0
       448   1018.9141    281.7214 307.5118367  +6.5877626     6332.256     8890.453     9227.114     84.78089     169.4947     321.8834      1.465     3.18     985.6685     59.61622      958.697        27     1.371     0.902  64.99  16
       449    496.9673    281.8153 307.7287208  +6.5702839     1685.195     3178.427     3057.321     84.37749     168.8897      338.116      1.943     5.04     994.6449     59.61622     223.5953        22     1.383     1.144  78.42   0
       450    259.5387    277.2353 307.8275304  +6.5642106     4946.729     8628.843     9530.864     84.78089     169.1589     338.1832      1.910     4.01      1003.29     59.61622     573.3564        35     1.544     1.250  69.98   0
       451    927.6277    276.0847 307.5499594  +6.5870463     581.1138     503.2491      340.624     84.91493     168.8897     338.0823      1.348     4.72     989.7628     59.61622     82.40594         6     0.964     0.656  64.95   0
       452    393.7095    268.0766 307.7720897  +6.5724946     1421.961      2586.16     2769.479     84.64664     169.4276     338.2505      1.999     5.98     997.8103     59.61622      155.028        22     1.542     1.083  61.76   0
       453    980.7941    266.8867 307.5281748  +6.5926166     1179.711     1552.841     1926.095     84.24259     168.8224     337.9141      1.478     4.02     986.9957     59.61622     191.1165         9     0.910     0.789 -89.34   0
       454    163.2813    263.7155 307.8679828  +6.5665577     1585.932     2785.113     2346.104     84.51217     169.4947     338.2841      1.864     4.85     1008.319     59.61622     209.3448        20     1.308     1.117  74.72   0
       455    316.7484    263.9277 307.8042084  +6.5716252     801.2068     1460.286     1749.518     84.78089     169.1589     338.2505      1.724     4.66     1000.811     59.61622     107.7394         8     0.967     0.638  26.22   0
       456    572.9810    259.3513 307.6978916  +6.5821037     1958.113     3149.374     3276.179     84.24259     169.2261      338.015      1.732     4.73     993.4503     59.61622     208.7837        21     1.415     0.995  60.66   0
       457    916.8726    258.6931 307.5550122  +6.5938678     1749.973     2491.986     2785.966     84.64664     169.2933     338.2841      1.538     3.60     989.3238     59.61622      217.614        15     1.105     0.885  74.23   0
       458    736.6901    257.1064 307.6299398  +6.5885065     4649.656     7519.482     7909.954     84.78089     169.6959     338.2505      1.746     3.72     993.5866     59.61622     560.1332        32     1.523     1.133  69.21   0
       459    677.4571    257.0012 307.6545571  +6.5865697     1944.198     2990.457     3136.855     84.10748     168.8224     337.9141      1.787     4.08     993.6086     59.61622     215.0755        19     1.249     0.992  45.41   0
       460    974.4997    256.4813 307.5311393  +6.5967027     898.8367     1191.353     1231.694     84.78089     169.6959     338.3177      1.435     4.03        986.9     59.61622      145.155        10     1.000     0.747  76.53   0
       461    932.9472    249.3954 307.5486443  +6.5982425     1124.028     1757.799     2351.684     84.10748     168.8897     337.8131      1.822     4.61     988.2076     59.61622     142.8847        12     1.260     0.672  70.90   0
       462    236.1535    242.3948 307.8384240  +6.5778085     1938.968     3607.945     3796.166     84.10748      168.957     337.8804      1.930     4.61      1004.51     59.61622     232.8654        23     1.409     1.141 -89.35   0
       463    878.7524    241.2002 307.5714403  +6.5998178     1672.326     2638.753     2815.857     83.97215      168.755     337.7458      1.620     3.80     990.0711     59.61622     210.4209        18     1.267     0.892  57.85   0
       464    769.4365    240.8304 307.6168791  +6.5963203     1513.728      2600.39     2401.543     84.37749     168.8897     338.0487      1.785     3.97       992.78     59.61622     202.9728        17     1.183     0.954  72.49   0
       465    470.1604    232.2125 307.7415315  +6.5898638     18789.26     34471.64     36675.06     84.24259      168.957     337.9814      1.924     4.29     992.6569     59.61622     2077.863        59     1.665     1.402  68.38   0
       466    796.2331    231.2518 307.6060656  +6.6011700     12456.91     19959.96     21579.51     84.64664     169.1589      338.116      1.749     3.65     992.3916     59.61622     1586.119        50     1.493     1.446  23.80   0
       467    475.7309    226.8488 307.7393975  +6.5922649     1304.298     2210.698     1944.937     84.78089     169.0916     338.2505      1.817     6.11     992.0891     59.61622     158.5535        14     1.098     0.955  72.62   0
       468    158.7135    225.5671 307.8711704  +6.5821530     1870.031     3446.452     3749.742     84.78089      168.957     338.2169      1.977     5.68     1008.131     59.61622      228.655        22     1.485     1.063  69.92   0
       469    133.1460    224.8534 307.8818183  +6.5815879     1051.319     1760.588     1748.596     85.04876     169.0916     338.2169      1.906     5.29     1009.668     59.61622      120.978        14     1.152     1.061 -26.22   0
       470    932.2671    221.8718 307.5498504  +6.6095831      1425.56     2344.301     2224.099     84.78089     169.2933     338.2505      1.673     4.53     986.9575     59.61622     220.0728        16     1.337     0.924  84.98   0
       471    594.2188    218.0029 307.6904586  +6.5998852     3983.775     6605.918     6796.262     84.37749     168.6876     337.9814      1.773     3.90     992.0065     59.61622     463.8163        31     1.440     1.183  65.30   0
       472    314.2836    218.7102 307.8067590  +6.5902100      1041.18      2062.52      1962.34     84.51217     169.4276     338.3177      2.112     6.58     1000.455     59.61622     134.1162        15     1.381     0.880  85.66   0
       473    557.0804    217.9689 307.7058925  +6.5986559     1710.086     2932.425     3166.132     84.64664     169.1589     338.1832      1.876     4.83     992.0065     59.61622     171.2534        22     1.323     1.129  67.54   0
       474    399.0175    217.0631 307.7716047  +6.5937330     1216.302     2230.349      2058.39     84.37749     169.0916     338.0487      1.906     5.38     995.6764     59.61622     140.0887        18     1.247     1.070  59.41   0
       475    955.0533    214.9916 307.5406121  +6.6131835     2860.259     4033.913      4240.23     84.24259     169.0243     337.9141      1.488     3.58     985.9723     59.61622     409.3938        22     1.297     0.943  65.76   0
       476    901.1792    214.4408 307.5630188  +6.6116139     11360.95     16622.85     17376.42     84.37749      168.957      338.015      1.593     3.38     988.0192     59.61622     1604.957        36     1.474     1.038  67.14   0
       477    328.8271    214.4843 307.8008583  +6.5924427     752.2292     1462.205     1616.205     84.91493     168.8897     338.0823      2.245     6.25      999.625     59.61622     99.89508         8     1.442     0.760  80.49   0
       478    987.8058    212.2563 307.5270929  +6.6154048      10311.6      14797.8     15117.99     84.24259     169.0243     337.9141      1.503     3.18      984.735     59.61622     1435.895        33     1.384     0.990  66.77   0
       479    699.2898    212.5227 307.6469805  +6.6056626     2635.356     4053.106     4276.159     84.51217     169.4276     338.2841      1.745     3.75     992.2335     59.61622     315.8484        22     1.328     1.026  72.19   0
       480     27.4492    211.1436 307.9262007  +6.5836913     22510.22     38634.02     40895.62     84.78089     169.1589     338.2841      1.861     4.16     1013.916     59.61622     2744.564        60     1.694     1.313  71.40   0
       481    273.7652    212.7336 307.8237974  +6.5913169     869.1668     1483.011     1525.109     84.64664     169.2261     338.2841      1.926     5.93     1002.752     59.61622     108.2567        10     1.238     0.800 -55.89   0
       482    507.9518    207.3718 307.7266647  +6.6013854     1649.207     3122.763     2686.513     84.37749     169.2261     338.1496      1.957     4.90     991.6459     59.61622     183.5861        22     1.268     1.187  45.10   0
       483     35.9364    209.1648 307.9227411  +6.5847939     7750.012     7933.606     8213.688     84.64664     169.1589     338.2169      0.493     0.00     1013.594     59.61622      5702.42         7     0.401     0.318 -82.15   0
       484    839.7574    203.7653 307.5889019  +6.6139712     1939.477      2837.76     3015.072     84.51217     169.1589     338.0487      1.607     3.55     989.8394     59.61622     267.6658        18     1.223     0.894  60.55   0
       485    519.8790    202.9600 307.7218570  +6.6036063     2005.401     3646.744     3686.894     84.64664     169.1589     338.1832      1.903     5.52     991.6412     59.61622     232.6836        29     1.557     1.303  55.45   0
       486    891.9048    202.7865 307.5672641  +6.6161159     2033.935     2730.399     3214.748     84.51217     168.8897     338.0487      1.427     3.77     987.9675     59.61622      290.158        14     1.158     0.815  66.55   0
       487    751.4008    200.4780 307.6257302  +6.6123771     36845.43      59384.8     62239.87     83.97215     168.5527     337.9814      1.760     3.82     991.4733     59.61622     4218.743        61     1.602     1.250  67.69   0
       488    354.5266    199.8677 307.7906725  +6.5993394     5039.325     11135.34     12915.63     84.91493     169.2933     338.1832      2.359     5.75     998.0484     59.61622     515.6801        51     2.101     1.379 -87.37   0
       489    985.0980    199.1865 307.5286565  +6.6207104     3022.109      4374.65     4746.947     84.64664     168.8897     337.9477      1.491     3.42     984.2448     59.61622     474.0928        21     1.280     0.886  62.50   0
       490   1023.2336    197.7658 307.5128560  +6.6225680      1727.87     2287.369     2702.886     78.80173     141.0777     261.7906      1.411     3.84      982.762     59.61622     276.5845        13     1.179     0.695  72.34  24
       491    919.2515    197.5311 307.5560760  +6.6191980     7678.477     11092.52     11793.93     84.64664     169.0243     338.1496      1.564     3.22      986.709     59.61622     1088.368        31     1.410     1.003  61.29   0
       492    462.8286    196.7545 307.7457733  +6.6042566     4153.805     7490.502     7801.762     84.24259     169.2261      338.116      1.899     4.72     992.0391     59.61622     426.3713        30     1.566     1.178  67.23   0
       493    237.2350    193.5828 307.8396238  +6.5979960     544.1672     866.6785     926.3898     84.37749      168.957     337.9814      1.696     4.34     1004.574     59.61622     74.34192         5     1.160     0.463 -57.51   0
       494    120.1767    188.0721 307.8884513  +6.5963362      4033.53     7352.212     7923.749     84.37749      168.957     338.1832      1.937     4.27     1009.159     59.61622     482.3036        35     1.549     1.239  67.35   0
       495    290.5283    184.7125 307.8177780  +6.6034479     28772.97     51662.25     55196.23     84.91493     169.4276     338.2169      1.944     4.25     1002.543     59.61622     2980.539        63     1.710     1.392  73.63   0
       496    265.9326    185.7148 307.8279646  +6.6022082     5661.796     9956.656     10402.46     84.91493     169.4276     338.2505      1.869     4.04     1003.522     59.61622     599.3313        36     1.513     1.266  78.92   0
       497    939.4553    187.0768 307.5480307  +6.6241880     1037.988     1720.526     2156.436     84.78089     169.1589     338.1832      1.904     4.21     985.5729     59.61622     153.7581        10     1.034     0.795 -11.12   0
       498    617.1497    185.8278 307.6820126  +6.6139359     635.7214     1107.931     1260.784     84.37749     169.2933     338.1496      1.941     4.45     991.5194     59.61622     87.51447         6     0.925     0.610  25.30   0
       499    719.7939    184.2592 307.6394102  +6.6180166     832.1697     1511.713     1840.132     84.10748     169.0243     337.9814      1.906     4.96     991.5014     59.61622     97.86768         9     1.002     0.733 -16.53   0
       500    414.6147    180.1683 307.7663678  +6.6094877     41312.73     74996.63     79778.38     84.37749     168.8897     338.1496      1.936     4.28     992.9127     59.61622     4246.038        78     1.732     1.434  70.91   0
       501    170.5096    181.3802 307.8677627  +6.6007913     3551.434     6303.242     6550.486     84.64664     168.8897     338.0487      1.882     4.67     1006.289     59.61622      409.213        33     1.568     1.211  70.47   0
       502    431.9154    180.9805 307.7591511  +6.6097325     1113.045     2000.294     1885.065     84.37749     168.8224     338.1832      1.812     6.45     992.4302     59.61622     144.2215        16     1.407     0.973  74.55   0
       503    318.5991    177.8750 307.8063442  +6.6072131     15171.12     27575.54     29981.04     83.97215     168.5527      338.015      1.934     4.32      1000.66     59.61622     1537.583        53     1.667     1.354  71.46   0
       504    753.8473    176.3429 307.6255249  +6.6224230     30841.37     49366.53     51807.41     84.78089     169.1589     338.3513      1.729     3.68     990.6696     59.61622     3499.212        56     1.573     1.225  66.31   0
       505    326.1003    177.7250 307.8032322  +6.6075268     1826.142     3625.708     4552.335     84.24259     169.2933      338.116      2.228     5.05      1000.15     59.61622     196.2081        24     1.476     1.130  78.44   1
       506    802.0750    176.8565 307.6054655  +6.6238222     1184.772     1883.647      2453.43     84.64664     169.0916     338.1496      1.813     4.57     989.3634     59.61622     161.8641        14     1.249     0.834  45.86   0
       507     70.7599    173.7319 307.9094705  +6.6005937     8105.922     13882.31      14070.2     84.64664     169.0916     338.3177      1.837     4.03     1011.631     59.61622     926.2874        40     1.570     1.248  69.92   0
       508    104.9990    172.1201 307.8952977  +6.6024111     1197.812     2042.822     1965.516     83.97215     168.5527     337.9814      1.822     5.36     1009.479     59.61622     134.8545        16     1.222     1.037 -75.03   0
       509   1012.1163    170.6511 307.5183852  +6.6333919     1163.627     1515.866     1971.448     84.78089     169.0916     338.3177      1.376     3.46     981.7527     59.61622     190.3755        10     0.999     0.658  64.22   0
       510    701.4053    177.9249 307.6472649  +6.6200169     827.4406     1441.611     1389.548     84.37749     168.6201      338.116      1.910     5.99     991.5859     59.61622     119.3123        10     1.352     0.747 -81.04   0
       511    587.3741    161.0121 307.6952217  +6.6231844     731.4047     1094.563     994.1424     84.37749      168.957     338.1496      1.812     6.89     991.0142     59.61622     90.71338        10     1.401     0.950  37.47   0
       512      4.5423    159.2909 307.9374746  +6.6043261     785.8445     1121.616     558.2278     84.64664     169.0916     303.9281      1.565     4.73     1016.018     59.61622     116.3058         7     1.050     0.606  69.66  16
       513   1013.2933    157.0703 307.5183514  +6.6390380     2409.842     3716.699     4381.206     84.78089     169.2261     338.2169      1.679     3.43     981.0779     59.61622     396.0984        19     1.318     0.916  62.55   0
       514    596.4086    154.7784 307.6916771  +6.6260603     1016.193     1401.937     1316.596     84.37749      168.957     337.9814      1.623     6.34     990.8957     59.61622     114.9771        14     1.139     0.990  28.19   0
       515    289.4424    150.9688 307.8193687  +6.6173420     25644.57     46419.59      49633.8     84.24259     169.0916     338.0487      1.936     4.25     1003.382     59.61622     2833.354        66     1.708     1.404  75.59   0
       516    604.4666    152.8402 307.6883937  +6.6271302     1687.078     3138.686     2864.526     84.64664     169.0916     338.3177      1.911     4.42      990.872     59.61622      200.082        21     1.293     1.118  60.87   0
       517     34.7157    149.6413 307.9252634  +6.6093257     4127.418     7020.353     6905.983     84.78089     169.0243     338.1496      1.846     4.18     1013.625     59.61622     482.6849        32     1.564     1.165  84.97   0
       518    721.0497    147.5267 307.6401235  +6.6332235     7482.111     11765.07     12118.71     84.78089     169.2261     338.2505      1.698     3.60      990.316     59.61622     871.2752        33     1.485     1.093  68.08   0
       519    198.6199    148.7018 307.8571865  +6.6152268     892.2079     1470.183     1190.463     84.64664     169.0243     337.9477      1.787     3.94     1005.295     59.61622     146.5562         9     0.983     0.760 -31.56   0
       520    131.8656    144.7007 307.8850611  +6.6146342     4134.833     7592.832     8139.066     84.78089     169.2933     338.2169      1.974     4.40     1007.254     59.61622     420.2001        33     1.609     1.207  82.95   0
       521    470.8536    141.8306 307.7442900  +6.6272004       1132.4     1911.589     1433.688     84.64664     169.2261      338.116      1.770     6.60      991.001     59.61622     148.4742        14     1.270     0.963  63.22   0
       522    402.5056    140.7264 307.7727302  +6.6253647     3249.435     6326.521     7128.604     84.64664     169.2933     338.2169      2.085     4.79      993.218     59.61622     350.4523        35     1.652     1.266  78.05   0
       523    659.4069    141.8734 307.6659311  +6.6334961     739.7225     1319.704     1114.686     84.37749     168.6876      338.116      1.697     4.35     990.7084     59.61622     142.0695         7     0.797     0.675 -67.05   0
       524    348.9075    152.5471 307.7946045  +6.6186865     744.0385      1276.09     1285.482     84.64664     169.0243     338.4521      1.997     5.60     998.5455     59.61622     88.64435         8     1.126     0.786 -84.33   0
       525    367.1091    139.7669 307.7874720  +6.6245734     2689.991     4700.294     4652.498     84.91493     169.0243     338.2169      1.861     4.48     996.8704     59.61622     296.5084        29     1.515     1.170  66.65   0
       526    578.7533    140.5193 307.6994943  +6.6313560     606.2298     1181.762     1139.857     84.78089     169.1589     338.2169      2.344     4.38      990.535     59.61622     85.87042         5     1.165     0.468  55.65   0
       527    121.3771    139.5935 307.8895923  +6.6163899     1592.483       2459.1     2461.774     84.24259      168.957     338.0487      1.680     4.18     1007.743     59.61622     200.6748        18     1.205     1.039  58.03   0
       528    949.4291    138.3501 307.5455206  +6.6446375     516.1266     720.0747      350.288     84.37749     169.2933      338.116      1.370     6.78     983.2588     59.61622      90.7793         7     1.589     0.812 -75.38   0
       529    757.0598    137.8314 307.6254844  +6.6384297      567.843     579.8326     764.1066     84.51217     169.2261     338.1832      1.360     4.75     988.8307     59.61622     76.76086         5     0.938     0.681  29.03   0
       530    682.4464    137.4154 307.6565063  +6.6361071     570.3997     1075.931     999.9287     84.24259      168.957     337.9477      1.637     4.23     990.3275     59.61622     90.05835         5     1.036     0.493   0.28   0
       531   1013.6724    133.6982 307.5189775  +6.6486999     1726.486     2481.149     2464.566     84.51217     169.2933     338.2169      1.571     3.27     980.4675     59.61622     233.1096        14     1.079     0.798  63.39   0
       532    218.8805    128.4944 307.8494502  +6.6242499     4683.556     8073.738     8070.764     84.51217     169.4276     338.2841      1.830     4.28     1004.942     59.61622     535.0274        30     1.459     1.196  73.70   0
       533    680.6429    127.3508 307.6575944  +6.6402019      5680.62     9102.583     9766.203     84.78089     169.0916     338.1832      1.743     3.79     989.8494     59.61622     682.6062        29     1.525     1.021  74.71   0
       534    101.8643    128.5972 307.8980727  +6.6202731     1793.049     3066.623      3647.96     84.10748      168.957     337.9814      1.804     4.49     1008.452     59.61622     206.8664        19     1.288     1.003  52.98   0
       535    857.0143    127.2064 307.5843015  +6.6461546     518.2473     714.5509     729.8925     84.37749     168.8897     338.0487      1.469     4.61     985.8353     59.61622      89.1109         5     1.211     0.498  71.33   0
       536    828.7338    126.9142 307.5960644  +6.6453311     911.8409     1696.166     1652.287     84.91493     169.4276     338.2841      1.961     6.29     986.3076     59.61622     117.0215        12     1.397     0.795  61.21   0
       537    632.7726    124.5728 307.6775819  +6.6397475     8245.679     14233.04     15259.01     84.24259      168.957     338.0487      1.858     4.01     990.2203     59.61622      874.674        41     1.541     1.270  75.06   3
       538    636.3011    116.1080 307.6764005  +6.6433602     47693.73     79575.39     84230.46     84.78089     169.6959     338.1832      1.798     3.90     989.9261     59.61622     5302.888        75     1.668     1.329  68.81   2
       539    267.2766    125.2892 307.8294472  +6.6271990     678.7443     1051.813     753.6232     84.78089     169.4276     338.2841      1.755     5.60      1004.15     59.61622     108.3716         6     1.179     0.750 -30.29   0
       540     30.9282    124.0127 307.9277049  +6.6197782     798.4971     1706.468     1292.707     84.24259      168.755      338.015      2.130     7.64     1013.125     59.61622     122.6978        10     1.389     1.175 -53.89   0
       541    359.9371    120.3695 307.7911070  +6.6323407     3176.534     6100.236     6540.623     84.51217     169.2261     338.1832      2.031     4.41     997.6744     59.61622     355.6968        34     1.512     1.357 -67.33   0
       542   1006.2500    119.4252 307.5225408  +6.6543451     901.2093      1131.46     1029.832     84.37749     169.1589      338.116      1.563     3.72     980.3898     59.61622     166.7194         8     1.106     0.482  70.40   0
       543    541.7374    119.6079 307.7155815  +6.6387497     1499.655     2177.453     2405.226     84.10748      168.957      338.015      1.578     3.89     989.7325     59.61622     202.3823        16     1.097     0.953 -37.64   0
       544    315.4944    109.8965 307.8099295  +6.6351727      3088.67     5665.421     6634.809     84.78089     169.7629     338.0823      2.028     5.10     1001.744     59.61622     372.5797        28     1.637     1.081  84.61   0
       545    715.1027    104.1828 307.6440526  +6.6509190     818.2456     1286.175     1185.819     84.64664      168.957     337.9814      1.379     5.08     988.0267     59.61622     131.8004         9     1.228     0.605  59.42   0
       546    686.4220    103.3683 307.6559995  +6.6502963     1240.151     2191.522     2232.455     84.24259      168.957      338.015      1.877     4.38     988.5626     59.61622     185.2193        15     1.343     0.879  57.22   0
       547     12.9107     92.9729 307.9362430  +6.6319855     758640.7      1778250      1949660     84.91493     168.8897     338.0823      2.281     6.27     1013.176     59.61622     61697.11       428     2.206     1.863  75.30  28
       548    700.7289    100.0690 307.6501646  +6.6521368     2808.372     4642.435     4852.186     84.78089     169.2933     338.1832      1.778     4.17     988.1013     59.61622      342.639        23     1.372     1.058  73.80   0
       549    442.3929     91.0739 307.7578288  +6.6472006     3687.684     6407.913     6258.658     84.37749     168.6876     338.0823      1.854     4.04      991.343     59.61622     415.2118        31     1.442     1.220  59.86   0
       550    914.9290     86.2365 307.5616077  +6.6650018     4014.297     5514.671     5892.313     84.64664     169.1589     338.2841      1.477     3.32     982.3935     59.61622      572.088        24     1.233     0.997  74.77   0
       551    896.9027     87.2327 307.5690661  +6.6639891     2311.047     3043.451      2683.58     84.91493     169.0243     338.3513      1.419     3.49     982.9742     59.61622     327.2036        16     1.189     0.789  71.81   0
       552    607.1127     84.9460 307.6895798  +6.6552484      1467.47     2218.529     1957.746     84.78089     169.0243     338.3849      1.583     4.83     989.3564     59.61622     167.9224        16     1.250     0.984  45.00   0
       553    405.9660     83.1232 307.7732353  +6.6492615     1633.663     3062.155     3802.538     84.64664     169.1589     338.1832      2.127     4.60     993.2444     59.61622     177.6312        23     1.380     1.112  63.89   0
       554    253.0946     84.6703 307.8367129  +6.6434914     759.0737     1354.892      1905.68     84.64664     169.2261     338.2169      1.837     4.44     1004.436     59.61622      111.658         7     0.924     0.606  31.68   0
       555    153.8164     79.8032 307.8781342  +6.6421639     2809.415     5056.029     5815.085     84.37749      168.755     338.0487      1.949     4.43     1005.305     59.61622     338.0236        28     1.474     1.175  64.02   0
       556     35.8300     77.8269 307.9272317  +6.6390098      11072.1     19262.28     21727.55     84.24259     168.8897     338.0487      1.908     4.13     1010.731     59.61622     1241.538        54     1.737     1.327  63.83   0
       557    302.3322     78.5453 307.8164579  +6.6476736     1211.288     2165.478     2689.059     84.78089     169.0916     338.1496      2.072     6.08     1003.069     59.61622      136.972        17     1.444     0.926  61.97   0
       558    770.7732     76.6590 307.6218414  +6.6641427     593.7191     963.8381     1555.319     84.37749     169.2261     338.0487      1.904     3.81     985.6905     59.61622     95.54736         5     1.017     0.410 -84.85   0
       559    956.5762     76.3575 307.5446302  +6.6704695     781.5786     1111.505     1071.892     84.37749     169.0243      338.015      1.529     3.61     980.2874     59.61622     124.7977         7     0.854     0.653  19.91   0
       560    904.1940     73.5415 307.5664954  +6.6698847     529.4753     1004.333     1060.614     84.24259     169.0243     337.9141      1.589     3.46     982.3785     59.61622       83.828         5     1.237     0.279  54.01   0
       561    837.3447     72.2018 307.5943236  +6.6682065     6097.146     9239.582     9569.799     84.10748     168.8224     337.8804      1.605     3.53     983.9792     59.61622     816.8928        29     1.371     1.023  62.02   0
       562    782.3802     72.5071 307.6171570  +6.6662446      2992.67     4842.023     4598.014     84.64664      168.957     338.0487      1.765     3.82     985.3741     59.61622     396.6041        26     1.418     1.070  63.78   0
       563    427.5094     73.1330 307.7646192  +6.6541082     886.5018     1553.839     1447.625     84.91493     169.2933     338.2169      2.117     6.26     991.8502     59.61622     101.3604        13     1.203     0.915 -16.94   0
       564    544.5327     70.4312 307.7160766  +6.6591454     1173.546     2032.403     2560.469     84.64664     169.1589     338.1832      1.886     7.32     988.7205     59.61622     139.9106        17     1.632     1.000  73.16   0
       565     60.8471     70.2817 307.9170911  +6.6429668      940.455     1809.885     2107.417     84.78089     169.1589     338.2505      2.310     5.92     1009.227     59.61622     120.6697        13     1.381     1.090 -76.14   0
       566     76.1339     69.6273 307.9107606  +6.6437515      2724.25     4578.715     4651.347     84.37749     169.0916      338.116      1.814     4.08     1008.639     59.61622     336.9384        26     1.307     1.237  81.32   0
       567    437.3956     69.1803 307.7606440  +6.6560715     782.2009     1283.513     1510.457     84.37749     168.8224      338.015      1.990     5.71     991.5009     59.61622     103.1879         8     1.302     0.705  15.93   0
       568    599.6674     66.0565 307.6933101  +6.6627975     1039.325     1917.236     2660.831     84.91493     169.0916     338.1832      2.157     6.24     988.4835     59.61622     151.0147        14     1.523     0.851  62.48   0
       569     18.5261     65.2092 307.9348497  +6.6436361      2320.89     3881.776     5224.303     84.37749     168.6876     338.0487      2.000     4.45     1010.457     59.61622     288.7546        21     1.211     1.142  71.82   0
       570     91.3590     60.5449 307.9047410  +6.6480133     697.3278     1190.606     1226.775     84.64664     169.1589     338.2169      1.720     5.55     1007.986     59.61622     142.0325         7     1.365     0.636  75.93   0
       571    777.1783     60.1948 307.6197329  +6.6711539     1902.152     2949.327     3167.281     84.37749     168.8897      338.015      1.698     4.16     985.1793     59.61622     216.1759        16     1.211     0.846  68.59   0
       572    417.9275     59.9403 307.7690464  +6.6592333     1036.181     1507.549     1547.118     84.91493     169.1589     338.2505      1.638     5.65     992.4252     59.61622      134.694        12     1.036     0.920  36.00   0
       573    115.1423     59.2893 307.8948998  +6.6493318     773.1023     1139.937     1128.588     84.64664     169.0916     338.3513      1.544     4.59     1006.917     59.61622     107.0317         8     1.041     0.731 -73.09   0
       574    103.6923     53.8070 307.8998436  +6.6512099     8435.216     14411.37     15023.69     84.37749     168.8224      338.015      1.811     4.12     1007.448     59.61622     916.4996        43     1.624     1.256  67.51   0
       575    432.8241     53.6488 307.7630677  +6.6623302     2049.264      3975.05     4060.817     84.37749     169.1589      338.116      1.969     4.70     991.7255     59.61622     231.6899        25     1.453     1.127  60.37   0
       576    270.4365     48.1322 307.8307404  +6.6591580     1337.001     2469.473     4768.455     84.64664     169.1589     338.3177      4.579     5.14     1004.242     59.61622     170.4677        20     1.289     1.177  52.63   1
       577    646.4705     45.8343 307.6745393  +6.6727123     16810.85     27382.52     28970.87     84.64664     169.1589     338.2841      1.767     3.91     987.1791     59.61622     1994.393        47     1.590     1.211  66.47   0
       578    675.8288     47.3697 307.6622860  +6.6730606     577.1443     851.5977      889.581     84.24259     168.8897     337.9477      1.833     3.65     986.9102     59.61622     83.79907         5     1.036     0.371  86.11   0
       579    702.1694     46.3641 307.6513724  +6.6743567     471.6721     667.1468      1068.76     84.37749     168.8897     338.0487      1.454     4.58     986.1724     59.61622     71.20361         5     1.355     0.439  32.43   0
       580    546.2676     41.8975 307.7163168  +6.6709833     4559.633     7661.192     8118.112     84.78089     169.2261     338.2169      1.790     3.90     988.4718     59.61622     499.7512        33     1.478     1.180  68.98   0
       581    264.5755     41.9014 307.8333866  +6.6615333     1866.379     3430.159     5849.385     84.91493     168.8897     338.0487      3.089     4.63     1004.233     59.61622     243.2452        21     1.423     0.991  69.39   3
       582    260.3269     34.4922 307.8354026  +6.6644494     2775.762     5067.488     6885.689     84.64664     169.2933     338.2505      2.298     4.52     1004.211     59.61622     350.3428        31     1.580     1.278  73.51   2
       583    632.7322     36.4536 307.6805648  +6.6761254     3100.456     5862.187     6933.546     84.78089     169.0916      338.116      2.109     6.23     986.8649     59.61622     375.8606        35     2.036     1.104  70.74   0
       584    272.4376     37.9447 307.8302529  +6.6634309     8179.465     14424.83     16860.62     84.78089     169.2261     338.2505      1.982     4.18     1004.217     59.61622     914.8189        42     1.554     1.344  80.64   0
       585     13.8477     40.2590 307.9376389  +6.6537785     1178.225     2159.454      1896.87     84.78089     169.1589     338.3177      1.865     6.28     1008.408     59.61622     129.5439        15     1.301     0.851 -88.24   0
       586    929.5681     37.5608 307.5571572  +6.6855858     2101.943     3200.238       2503.9     84.37749      168.957     338.0487      1.524     3.79     981.1544     59.61622     308.7696        17     1.330     0.794  70.88   0
       587    451.8417     37.5316 307.7557076  +6.6696216     19952.61     34502.83      36882.6     84.64664     169.0916     338.3177      1.860     4.01     990.5853     59.61622     2062.664        53     1.607     1.333  63.99   0
       588    332.6204     38.3757 307.8052270  +6.6652737     886.9606     1580.933     2029.544     84.37749      168.957     338.1832      1.954     5.89     1000.535     59.61622     114.4332        11     1.157     0.843 -58.61   0
       589     37.9563     37.5365 307.9277122  +6.6557142     2071.739     3542.002     4097.182     84.78089     169.0916     338.2505      1.903     4.47     1008.103     59.61622     263.2746        23     1.457     1.051  76.86   0
       590    313.3656     32.5404 307.8134262  +6.6670363     826.3978     1719.433     1777.483     84.64664     169.1589     338.1832      2.069     7.36     1002.216     59.61622     116.8213        13     1.434     1.056  24.51   0
       591    701.5798     27.3450 307.6522573  +6.6821888     1593.445     2780.535      2905.37     84.24259     169.1589      338.015      1.898     5.15     985.5199     59.61622     205.8463        18     1.370     1.036  71.27   0
       592    950.2159     27.6292 307.5489087  +6.6903748     1035.562     1608.663     1936.532     84.37749     168.8897     338.1496      1.651     2.93     978.7823     59.61622     201.7838         7     0.851     0.695  69.33   0
       593    267.3549     23.0162 307.8328695  +6.6694231     598.1275      1059.46     1776.653     84.24259     169.0243     337.9814      1.797     4.64      1004.18     59.61622     73.01758         6     0.826     0.740 -89.26   0
       594    213.5111     22.3197 307.8552701  +6.6679015     617.4684     1269.506      950.553     84.51217     169.4276     338.3177      2.056     5.70     1004.104     59.61622     99.54004         7     1.090     0.839 -61.41   0
       595    632.5054   1019.5341 307.6475925  +6.2702532     682.6321      539.228      407.721     84.78089     169.2933     315.2069      1.255     3.75     1022.254     59.61622     108.1883         6     0.948     0.427  72.08  16
       596      3.8868     20.6722 307.9424417  +6.6615288     884.5272     1569.492     1619.865     84.91493     166.3111     295.0419      1.929     5.83     1006.594     59.61622     116.0048        10     1.227     0.779 -70.80  16
       597    967.7914   1016.0192 307.5084687  +6.2828969     7799.023     10958.76     10722.63     84.51217     168.8897      338.015      1.454     3.23     1015.797     59.61622     1248.393        31     1.384     0.931  68.37  16
       598    534.0348     18.0769 307.7222035  +6.6804076     2724.053     4615.257     4356.464     84.64664     169.2261     338.2505      1.786     4.01     988.2729     59.61622     313.5705        25     1.260     1.214  35.40   0
       599    722.3010   1016.7955 307.6103936  +6.2743850     1156.448     1704.432      2559.88     84.51217     168.8224     337.2403      1.658     3.69     1020.734     59.61622     153.2117        12     1.081     0.767  69.47  16
       600    252.3775   1016.0969 307.8055653  +6.2589382     1374.754     2219.498     1954.827     84.78089     168.8897      338.015      1.768     4.02     1024.947     59.61622       209.04        13     1.290     0.733  82.85  16
       601    450.8777   1015.4236 307.7231571  +6.2658717     1056.934     1287.157     1147.376     84.37749      168.957     338.1832      1.311     4.10     1025.297     59.61622     178.1279         9     1.199     0.621  82.75   0
       602    727.5664   1014.0466 307.6082992  +6.2756958     3016.865     4031.954     4709.098     84.51217     169.1589     338.1496      1.412     3.25     1020.655     59.61622     431.8352        19     1.248     0.805  74.26   0
       603    743.1119   1013.5190 307.6018610  +6.2764329     1215.488     1618.836     2038.811     84.51217     169.3604     338.3177      1.371     2.79     1020.361     59.61622     248.0878        11     0.987     0.720 -85.66   0
       604    374.2152   1011.6948 307.7551186  +6.2648422      2154.14     3081.323     3500.211     84.51217     168.8897      338.015      1.462     3.13     1025.417     59.61622     334.0406        16     1.174     0.810  65.47   0
       605    222.3294   1010.1415 307.8182441  +6.2603883     604.7034     606.9915     859.3365     84.91493     169.1589     338.2169      1.183     3.43     1024.793     59.61622     95.17908         5     0.773     0.440  75.03   0
       606    984.3804   1009.1241 307.5018102  +6.2862965     669.9147     683.9901     650.0494     84.37749     168.8224     338.1496      1.252     2.21     1014.988     59.61622     147.8712         5     0.721     0.424  66.09   0
       607    625.4473   1005.3576 307.6510001  +6.2758700     501.8352     577.2823     453.3999     84.78089     169.0916      338.116      1.450     5.01     1022.423     59.61622     91.43933         6     0.988     0.718  60.46   0
       608    556.6050   1001.7899 307.6797094  +6.2750400     4690.118     6798.398     7531.787     84.24259     168.8897     338.0823      1.550     3.22     1023.318     59.61622     705.5812        27     1.345     0.960  79.14   0
       609    526.7858   1003.0194 307.6920515  +6.2735345     1204.358     1707.497     1886.565     84.51217     168.8897      338.116      1.529     3.98     1023.835     59.61622     188.0034        13     1.240     0.694  67.51   0
       610    761.1130   1001.2056 307.5947986  +6.2821178     8976.618     12418.92     13226.61     84.24259     168.8224     337.9141      1.425     2.99       1019.1     59.61622     1512.136        30     1.296     0.955  69.41   0
