#   1 NUMBER                 Running object number                                     
#   2 X_IMAGE                Object position along x                                    [pixel]
#   3 Y_IMAGE                Object position along y                                    [pixel]
#   4 ALPHA_J2000            Right ascension of barycenter (J2000)                      [deg]
#   5 DELTA_J2000            Declination of barycenter (J2000)                          [deg]
#   6 FLUX_APER              Flux vector within fixed circular aperture(s)              [count]
#   9 FLUXERR_APER           RMS error vector for aperture flux(es)                     [count]
#  12 FLUX_RADIUS            Fraction-of-light radii                                    [pixel]
#  13 FWHM_IMAGE             FWHM assuming a gaussian core                              [pixel]
#  14 BACKGROUND             Background at centroid position                            [count]
#  15 THRESHOLD              Detection threshold above background                       [count]
#  16 FLUX_MAX               Peak flux above background                                 [count]
#  17 ISOAREA_IMAGE          Isophotal area above Analysis threshold                    [pixel**2]
#  18 A_IMAGE                Profile RMS along major axis                               [pixel]
#  19 B_IMAGE                Profile RMS along minor axis                               [pixel]
#  20 THETA_IMAGE            Position angle (CCW/x)                                     [deg]
#  21 FLAGS                  Extraction flags                                          
         1    708.0897     20.1358 307.6450198  +6.6899786     6018.698     10641.77     11324.32     78.07027     156.2025     311.9711      1.895     4.72     817.4894     54.98451     832.8088        41     1.900     1.021 -35.29   0
         2    628.2330     19.3517 307.6782224  +6.6876357     3076.972     5329.397     5892.935     77.94624     156.0166     311.8781      1.863     4.54     817.5289     54.98451     435.3074        27     1.678     0.903 -35.15   0
         3    428.3993     15.5888 307.7613680  +6.6825066     5205.523     9236.018     10165.34     77.82203     155.7062     311.7539      1.911     4.63     822.5574     54.98451     702.5198        36     1.799     1.010 -35.31   0
         4    675.4225     14.5417 307.6587790  +6.6911977     775.9069     1430.544     1888.404     77.82203     156.0166      311.785      1.930     5.09     817.2769     54.98451     141.2299        11     1.389     0.620 -25.36   0
         5    325.0161     10.5881 307.8044851  +6.6811084     10785.64     19455.85     21372.49     78.07027     155.7062      311.847      1.959     4.55     828.7721     54.98451      1404.26        52     1.953     1.137 -34.74  16
         6     98.5618     10.9618 307.8985471  +6.6733562     2102.102     3858.858     4200.466     77.94624     155.8925      311.816      1.915     4.74     830.2717     54.98451      282.987        25     1.699     0.917 -39.72  16
         7     29.3051     15.2469 307.9271726  +6.6692599     6952.992     12492.76     13729.15     78.07027     155.9545     312.0641      1.949     4.55     830.6288     54.98451     899.1463        45     1.929     1.106 -31.99   0
         8     89.6850      9.8085 307.9022735  +6.6735342      1229.56     2337.481     2405.486     77.82203     155.7062      311.785      1.870     5.46      830.223     54.98451     191.4213        19     1.689     0.830 -30.68  16
         9    793.1982      9.2304 307.6100267  +6.6973208     727.0547     1360.221     1679.812       77.573     155.8304     311.7539      1.912     4.63     815.5443     54.98451      98.2251         8     1.329     0.457 -41.58   0
        10    391.0496      8.5005 307.7771228  +6.6841825     2013.834     3216.293     3666.595     78.19408     156.0166     312.0951      1.834     4.93     824.6215     54.98451     236.9537        19     1.558     0.837 -32.73  16
        11    651.9077      4.0434 307.6689004  +6.6947469     8963.614     16011.45     17499.23     78.19409     154.2705     274.3501      1.920     4.42     816.9164     54.98451     1301.688        50     1.920     1.118 -35.83  24
        12    816.2302      3.5199 307.6006492  +6.7004464     1197.172     2446.618      2792.46     78.07027     150.2678     267.2768      2.218     7.27     815.0801     54.98451     180.3168        19     1.789     0.827 -48.74  24
        13    985.8013      5.5954 307.5301292  +6.7052382     562.5656     884.0023     826.9735       77.573     155.5819     291.7145      1.405     4.35     811.8514     54.98451     92.30646         5     1.108     0.487  -3.64  16
        14    529.3480      4.0404 307.7198178  +6.6906522     989.0106     1834.535     1780.095     78.19408     154.3332     274.1738      1.864     6.06     817.6561     54.98451     132.5861        13     1.556     0.664 -45.73  16
        15     70.0676      4.4690 307.9106031  +6.6750795     691.5316     1156.864     1437.624     78.19408     156.1405     279.4512      1.961     5.49     829.8684     54.98451      107.792         9     1.117     0.760 -15.06  16
        16    886.4028      2.0440 307.5715445  +6.7033946     1075.353     1610.439     1652.327     75.29466     133.7108     245.7014      1.509     5.32     815.1967     54.98451     180.9026        13     1.585     0.714 -40.65  24
        17    251.4133      1.8438 307.8353564  +6.6822511     4314.966       6175.2     6586.987     73.73667     131.3014     242.6506      1.519     4.49     831.2001     54.98451     717.4828        23     1.511     0.829 -17.48  24
        18    642.1860      1.4102 307.6730277  +6.6955094     2677.377     3299.545      3827.13      68.8515     124.8814     235.8983      1.167     2.95     816.8331     54.98451     644.0179        16     1.299     0.599  -3.65  24
        19    412.1869      1.3794 307.7685810  +6.6878304     2518.411     3183.203     3399.543     68.14532     124.2601     235.3645      1.210     2.84     823.3834     54.98451     632.7105        13     1.275     0.533  -4.50  24
        20    672.3929      1.2503 307.6604834  +6.6965842     1173.875     1627.146     2167.087     66.71052     122.4563     232.9683      1.229     3.08     816.7487     54.98451     325.5045        10     1.402     0.432   1.32  24
        21    621.8063    984.9465 307.6485144  +6.2887465     601.6998     1061.479     1099.893     77.69761     155.7683     311.6608      1.682     3.83      850.278     54.98451     87.71362         5     0.810     0.519 -32.51   0
        22    957.1165   1023.7919 307.5080199  +6.2838840     1257.386     1880.095      2010.36     66.27402      121.902      232.719      1.381     4.93      847.313     54.98451      350.141        12     1.724     0.404   1.27  24
        23    731.7297   1022.7834 307.6016161  +6.2767922      770.421     1140.238     1051.448     76.69502     136.5034     248.7148      1.620     3.55     849.9708     54.98451     143.8293         9     1.063     0.817 -13.24  24
        24    716.4272   1023.2642 307.6079523  +6.2760833     1794.573     2717.249      2829.82     72.27902     129.8194     241.0505      1.631     5.21     850.0715     54.98451     248.9432        17     1.546     0.716 -10.97  24
        25    362.8375   1021.6022 307.7547853  +6.2649554     1481.133     2828.681     3058.622     77.32317     149.2989     265.5336      1.993     5.14     852.7849     54.98451     189.8252        20     1.585     0.836 -29.83  24
        26    762.1359    980.2584 307.5904168  +6.2953640     5194.968       9937.7     12082.87     78.31772     155.9545     311.9711      2.201     4.95      848.875     54.98451     648.5979        47     1.958     1.298 -47.78   0
        27    231.6953    978.9830 307.8106551  +6.2781595     1096.716     1944.916     2066.667     78.07027     155.8304      311.785      2.029     6.83     852.0056     54.98451     147.1218        16     1.737     0.828 -59.40   0
        28    548.8838    979.3447 307.6789739  +6.2886239     706.6556     1372.686     1881.675     78.19409     156.0166     312.0331      2.173     6.10     851.3597     54.98451     112.7755         9     1.664     0.628 -34.69   0
        29     56.7573    977.1251 307.8833340  +6.2730588     2130.561     4006.432     4145.734     78.07027     156.0786     311.9711      1.971     5.20     850.6612     54.98451     278.8967        26     1.753     0.947 -37.15   0
        30    950.5929    975.1949 307.5123509  +6.3037320     5059.201     9926.461     11399.33       77.573     155.7683      311.785      2.133     4.87      845.644     54.98451     578.7774        47     1.925     1.304 -40.11   0
        31    196.6040    977.6053 307.8252679  +6.2775521     640.9857     1225.461     1461.238     77.44818     155.6441      311.816      1.915     5.69     851.4564     54.98451     88.30951         7     1.134     0.805 -18.27   0
        32    207.4081    970.9930 307.8210056  +6.2806443     549.9277     740.0327     447.0725       77.573     155.8304      311.785      1.396     3.82     851.4262     54.98451     92.15167         5     0.765     0.611  -1.12   0
        33    632.6245    968.8043 307.6445643  +6.2957725     625.3306     1182.209     944.9876     77.69762     155.7683      311.785      1.856     6.36     850.0047     54.98451     87.53192        12     1.263     0.970 -67.70   0
        34    924.2070    966.9579 307.5235799  +6.3062547     1487.198     3030.512     3235.246     77.69761     155.7062     311.6608      2.136     7.18     845.8508     54.98451     176.3256        21     1.699     0.901 -40.37   0
        35    783.7936    963.3965 307.5819900  +6.3030480     1052.702     1975.813     2113.145       77.573     155.7062      311.816      1.920     6.80      848.256     54.98451     130.5137        18     1.536     1.003 -43.39   0
        36    644.8854    962.8134 307.6396752  +6.2986553     3744.066       6715.9     6857.294     77.82203     155.8304      311.847      1.922     4.64     849.7911     54.98451     468.2137        34     1.818     1.049 -40.67   0
        37    257.1275    962.8740 307.8006398  +6.2856627     3672.892     6806.325     7421.254     78.44115     156.1405     312.0021      2.012     4.77     851.8062     54.98451     451.9272        35     1.753     1.128 -41.11   0
        38     25.7802    960.4352 307.8967549  +6.2789093     1744.615     3369.933     3543.997     77.69762     155.8304     311.7229      2.030     5.28     850.2151     54.98451     237.9796        22     1.599     0.950 -28.07   0
        39    467.0835    961.0518 307.7135447  +6.2934426     885.9479     1534.211     1502.335     78.19409     155.9545     312.0331      1.872     4.11     851.7231     54.98451     119.8814         7     0.948     0.509 -45.84   0
        40    876.7989    958.6946 307.5435371  +6.3080881     735.0344     1350.708     1145.139     77.69762     155.5819     311.5988      1.716     4.26     846.5798     54.98451     139.1813         9     1.255     0.640 -30.65   0
        41    569.7878    955.1358 307.6711078  +6.2993177     1418.818     2838.783     2591.493     77.69761     155.8304     311.7539      2.114     5.76     850.6624     54.98451      180.922        22     1.702     1.021 -31.66   0
        42    293.4370    956.5020 307.7857815  +6.2895099     794.2779     1289.969     1388.163     78.19409     155.8925     312.1261      1.711     4.35     852.0934     54.98451     113.8853         8     1.194     0.777 -13.60   0
        43   1000.8634    954.3879 307.4921761  +6.3139954     774.0557     1550.203     1556.141     77.69761     155.8304     311.7539      2.449     6.84     843.8795     54.98451     123.0944        13     1.763     0.745 -60.85   0
        44    608.4156    952.1454 307.6551724  +6.3018424     952.0089     1602.727      1685.68       77.573     156.0166     311.6608      1.899     6.71     850.1797     54.98451     139.1666        16     1.736     0.834 -36.24   0
        45     58.2543    952.3300 307.8835481  +6.2833460     611.0734     1227.498     1127.097     78.07027     155.8925     311.9091      2.095     4.11     850.0052     54.98451      111.288         6     1.144     0.556 -67.76   0
        46    288.6728    949.4028 307.7879978  +6.2922814     1222.654     1861.596     2197.408     77.69762     155.5819      311.785      1.956     3.65     851.9908     54.98451     224.3159        12     1.289     0.622 -43.04   0
        47    556.3770    947.3918 307.6769346  +6.3020670     540.9061     1103.919     973.0049     77.82203     155.8304     311.7539      1.498     3.60     850.6948     54.98451     96.92859         5     1.252     0.298 -45.07   0
        48    755.6530    945.4604 307.5942724  +6.3095154      802.655     1524.757     1498.591     78.19409     155.9545     311.9401      1.944     5.76     848.1401     54.98451     114.8484         9     1.230     0.759 -26.12   0
        49    893.2924    942.1147 307.5372440  +6.3154830     5405.017     10105.42     11066.24     77.94624       156.45     312.0331      2.009     4.74     845.9403     54.98451      636.681        44     1.914     1.184 -29.36   0
        50    429.2619    939.0805 307.7299828  +6.3012492     1834.636      3174.35      3158.88     78.31772     156.0166     311.9091      1.831     5.58     851.6172     54.98451     246.9034        23     1.763     0.913 -36.83   0
        51    330.7299    937.5069 307.7709389  +6.2986014     8137.589     14137.03      15591.5     78.19409     156.1405     311.9401      1.897     4.69     851.8497     54.98451     1129.364        45     1.902     1.102 -35.36   0
        52    250.8256    936.4977 307.8041428  +6.2963416     5915.168     10514.76     11825.04     78.31772     155.7683      311.847      1.947     4.77     851.0782     54.98451      848.222        42     1.899     1.101 -32.56   0
        53    168.8750    935.0462 307.8382107  +6.2941937     502.3594     884.0894     799.2878     78.07027     156.0786     311.9401      1.994     4.59     850.1301     54.98451     87.92688         5     0.932     0.641 -62.79   0
        54    578.9377    930.8182 307.6681245  +6.3096636     1003.457     1722.498     2189.109     77.82203     155.9545      311.816      1.683     5.22     850.2448     54.98451     140.0053        11     1.352     0.570 -35.89   0
        55    908.9910    926.8716 307.5312360  +6.3222994       855.31     1826.257     2221.364     77.69762     155.5819      311.785      2.396     6.14     845.1686     54.98451     113.6243        11     1.602     0.661 -31.28   0
        56    407.7331    925.4365 307.7393782  +6.3061622     519.8679     921.3492     824.4598     78.07027     156.0166     312.0021      2.025     3.67      851.513     54.98451     95.11993         5     1.465     0.265 -45.69   0
        57    974.6498    922.6710 307.5041177  +6.3262190     478.7463      783.932     1420.441     78.19409     156.0166     311.9711      1.771     4.28     843.2724     54.98451     77.71179         5     1.292     0.403  37.08   0
        58    745.2940    920.2945 307.5994151  +6.3195606     1338.654     2624.895     3610.615     78.19409     156.5737     311.9091      2.700     6.10     847.8146     54.98451     207.9125        20     1.772     0.915 -31.71   0
        59    569.0096    920.8076 307.6725817  +6.3134651     548.0721     860.1115     1220.382     77.69762     155.8304      311.816      1.635     3.94     850.1779     54.98451     75.24799         6     0.941     0.474 -35.97   0
        60    608.6398    917.3768 307.6562445  +6.3162052     767.0037     1272.486     1163.688     77.82203     155.8304     311.7229      1.777     5.15     849.6914     54.98451      93.3902         9     1.052     0.712  33.08   0
        61    663.7733    913.5409 307.6334845  +6.3196295     2061.011     3584.331     3974.159     77.82203     156.0786      311.785      1.910     5.46     848.6945     54.98451     280.8151        25     1.847     0.892 -36.18   0
        62    976.5533    915.6475 307.5035619  +6.3291822     1028.948     1674.078     2291.734     78.19409     155.8925     311.9401      1.841     4.41     843.0392     54.98451     144.7905        13     1.154     0.833 -14.32   0
        63    530.2532    915.6542 307.6888439  +6.3142979     841.7394     1570.184     1440.991     78.44115     155.9545     311.9401      2.093     6.03     850.5864     54.98451      138.244        13     1.652     0.619 -27.40   0
        64    203.9484    908.6722 307.8245386  +6.3062587     1807.582     3123.471     3579.809     78.19408     156.0166     311.9711      1.964     5.86      850.001     54.98451     224.2203        22     1.730     0.883 -37.82   0
        65     77.9109    908.8876 307.8768522  +6.3019418      1689.68     2857.033     3209.927     77.94624     156.5119     312.0331      1.851     5.20     848.7518     54.98451     204.6182        22     1.624     0.907 -35.96   0
        66     60.2813    909.6429 307.8841450  +6.3010381     2304.521     4272.002     4212.216     78.19409     156.0166     311.9091      1.953     5.71      848.704     54.98451     296.2787        28     1.816     0.993 -41.08   0
        67    824.9267    909.8006 307.5667064  +6.3265479     724.5429     1379.619     1751.903     77.44818     155.3952      311.785      1.986     5.15     846.5532     54.98451     102.4573         9     1.201     0.624 -24.28   0
        68    237.9478    905.1918 307.8105416  +6.3088353     699.9427      1069.76     870.6973     77.69761     155.8925     311.6608      1.750     4.55     850.4052     54.98451     111.6301         7     1.138     0.517 -57.09   0
        69    797.0654    903.9930 307.5784675  +6.3280172     530.3948     815.8313     900.6576     77.69762     155.7683      311.785      1.543     4.03     846.8815     54.98451     101.8527         5     1.358     0.341  58.32   0
        70    658.4861    902.6824 307.6360432  +6.3239363     5769.676     10396.94        11177     77.94624     156.2025     312.0331      1.946     4.55     848.5161     54.98451     784.8895        40     1.843     1.069 -35.08   0
        71    343.2734    904.1863 307.7668514  +6.3127786     605.9629     1172.794     1701.886     77.69762     155.7683     311.7229      1.923     4.77     851.1207     54.98451     122.3719         7     1.415     0.456 -22.42   0
        72    896.2485    898.9719 307.5374584  +6.3333946     2201.114     3981.191     4216.837     77.82203     156.0786     311.8781      1.956     4.85     844.8731     54.98451     273.9109        29     1.685     1.039 -37.43   0
        73    447.4047    900.6514 307.7237412  +6.3177225      376.395     1028.945     466.0369       77.573     155.8304     311.5367      2.228     4.27     851.0032     54.98451     83.45935         5     1.205     0.431 -53.15   0
        74     18.7469    900.5533 307.9016929  +6.3033962     903.5311     1459.642     1526.349     78.19409     156.0166     311.9711      1.950     5.90     848.1044     54.98451     105.8965        12     1.381     0.708 -28.44   0
        75     31.2649    899.1620 307.8965434  +6.3043910     844.3625     1458.513     1230.992     78.07027     155.9545     312.0331      1.857     3.62     848.0961     54.98451     148.9697        10     1.050     0.664 -46.71   0
        76    341.4791    895.8173 307.7678776  +6.3161738     13579.52     24005.71     27049.86     77.82203     155.7062     311.8781      1.923     4.59     850.9278     54.98451     1774.986        58     1.971     1.150 -34.20   0
        77     76.0731    896.5063 307.8780322  +6.3069919     1099.011      1603.89     1613.027     78.07027     156.1405     311.9711      1.617     5.15     848.3467     54.98451     156.9575        11     1.346     0.735 -23.62   0
        78    212.3432    895.1123 307.8215100  +6.3121386     1071.402     1905.404     1742.197     78.19409     155.8925     312.0641      1.768     5.71     849.9604     54.98451     128.6695        15     1.279     0.889 -40.30   0
        79    391.8972    894.6981 307.7469846  +6.3183235     582.9803      826.513      662.795     78.19409     156.5119      311.785      1.419     4.49     850.9078     54.98451     73.83582         7     0.908     0.631 -28.68   0
        80    419.1609    887.0923 307.7359217  +6.3223760     738.0161     1272.595     1290.162     78.31771     155.9545     312.0021      2.213     5.36      850.769     54.98451     116.0512         9     1.320     0.614 -50.99   0
        81    105.2051    886.3255 307.8662818  +6.3121730     1219.178     2066.449     2230.496     77.82203     155.5197      311.847      2.009     6.37     848.3046     54.98451     176.0786        18     1.646     0.786 -31.32   0
        82    672.3832    883.2546 307.6309245  +6.3324215     761.8795     1465.819     2387.665     77.69762     155.9545     311.6919      3.508     6.02     847.7794     54.98451     92.15833        11     1.421     0.717 -39.25   0
        83    500.1584    883.3354 307.7024218  +6.3266359     698.3105     1195.269     1664.274     78.19409     155.9545     312.0021      2.373     4.83     850.4432     54.98451     118.5753         7     1.025     0.646  -3.93   0
        84     87.9915    880.1000 307.8736373  +6.3141656     1876.967     3575.489     4293.255     77.94624     155.6441      311.785      2.318     5.17     847.9242     54.98451     275.2878        27     1.834     0.971 -39.78   0
        85    886.6150    880.6478 307.5420704  +6.3406395     1553.384     2563.263     2516.268       77.573     155.9545     311.6919      1.774     4.96     844.6226     54.98451     214.5692        20     1.566     0.859 -38.45   0
        86    857.2277    880.2191 307.5542854  +6.3398378     1725.768     3107.469     2967.534     77.82203     155.8304      311.847      1.889     4.92     845.2446     54.98451     208.0546        23     1.606     0.993 -41.79   0
        87    820.7792    879.5142 307.5694412  +6.3389145     2507.951     4378.456     4966.711     78.07027     155.7683      311.847      1.919     5.00     846.0753     54.98451     319.5568        27     1.775     0.881 -34.19   0
        88    556.5658    871.0447 307.6794163  +6.3335955     275344.9     489611.7     538906.9     77.82203     155.9545      311.816      1.940     4.52     849.7559     54.98451     34809.02       192     2.109     1.401 -34.35   0
        89    400.8212    873.5986 307.7439885  +6.3273336     6374.944     11191.24     11832.13     77.82203     155.7062     311.6608      1.922     4.54     850.4835     54.98451     948.8916        42     1.915     1.028 -35.93   0
        90    644.3044    874.2080 307.6428847  +6.3352196      1003.59     1640.738     2057.953     77.94624     155.6441     311.7229      1.743     5.21     848.0099     54.98451     140.2394        13     1.412     0.763 -34.86   0
        91    344.0216    872.0435 307.7676210  +6.3260746     10312.12     18581.12     20720.87     77.69762     155.8925     311.7539      1.975     4.61     850.3325     54.98451     1380.956        49     1.920     1.133 -33.70   0
        92    662.4186    868.2820 307.6355629  +6.3382709     2929.641     5188.399     5761.979     77.82203     155.7062     311.8781      1.907     4.66     847.5641     54.98451     392.6201        30     1.805     0.936 -35.10   0
        93    894.8207    867.1880 307.5391134  +6.3464702     4159.637     8094.306     9441.735     77.82203     155.7062      311.847      2.101     4.78     844.1061     54.98451     500.2911        42     1.837     1.241 -32.38   0
        94    733.9088    864.7405 307.6060012  +6.3421183     643.8019     1039.413     652.9039     78.07027     156.0166     312.0331      1.773     5.26     847.1462     54.98451     87.67035         8     1.350     0.579 -27.49   0
        95    637.1475    862.4853 307.6462488  +6.3398208     2819.125      5054.82     5667.754     78.19409     155.9545     312.0951      1.951     5.08     847.8485     54.98451     409.3315        30     1.824     0.990 -40.58   0
        96    825.7078    861.6296 307.5679931  +6.3464630     1284.265      2587.85     2745.082     78.31772     155.7683      311.847      2.062     6.61     845.5767     54.98451     174.7176        21     1.641     0.905 -45.30   0
        97    629.4338    857.9341 307.6496038  +6.3414423     1728.852     3816.032     4887.122     78.07027     156.0786     311.9401      2.459    10.03     847.9067     54.98451     241.6898        37     2.701     1.074 -52.81   0
        98    179.6133    861.8230 307.8362176  +6.3247854     466.9819     695.6525     574.8354     77.94624     155.8304      311.847      1.280     3.37      848.962     54.98451     84.32971         5     1.200     0.275 -34.25   0
        99    952.3333    860.6693 307.5154534  +6.3510762     643.0766     1001.194     1171.755     78.19409     156.0786     311.9401      1.806     4.21     842.5263     54.98451     86.64252         7     1.186     0.426 -61.31   0
       100    914.0154    854.3714 307.5315725  +6.3524011     2434.801     5587.757     6401.593     77.82203     155.7683      311.847      2.380     9.30     843.4546     54.98451     942.7751        30     2.170     1.112 -65.26   0
       101    323.8840    855.6307 307.7765326  +6.3321767     919.5015     1516.616     1973.536     78.19409     155.8304      311.816      1.909     5.22     849.8964     54.98451     121.3737        12     1.284     0.767 -40.83   0
       102    371.9432    850.9631 307.7567376  +6.3357128      2050.42     3688.287      3724.28     78.19409     156.0166     311.9711      1.928     5.70     849.6362     54.98451     276.0051        27     1.898     0.896 -33.23   0
       103    508.0892    840.8116 307.7005560  +6.3444582     2547.831     4455.983     4798.011     77.94624     155.7062      311.816      1.868     4.67     848.9529     54.98451     357.0255        28     1.810     0.890 -29.79   0
       104    852.9177    839.5197 307.5574355  +6.3564985     910.8784     1520.997     2111.267     78.19408     156.2644     312.0331      1.850     4.56     844.4316     54.98451     148.5042        14     1.397     0.777 -32.58   0
       105    554.8858    836.7712 307.6812631  +6.3476903     4978.908     8598.354     9271.448     78.31772     155.7062      311.785      1.864     4.31     848.5553     54.98451     642.3988        35     1.741     1.028 -32.85   2
       106    561.5860    836.3310 307.6784962  +6.3480959      1247.73     2266.045      2524.05     77.69762     155.9545      311.847      1.820     6.70     848.4141     54.98451     146.9912        16     1.555     0.809 -25.54   3
       107    573.6426    837.8713 307.6734390  +6.3478627     673.8332     957.8962         1041     78.07027     156.0166     311.9711      1.393     3.26     848.3142     54.98451     114.5815         6     0.744     0.616 -33.64   0
       108    472.8295    835.8923 307.7153597  +6.3453104     1316.721     2486.568     2585.219     78.31771     155.7683      311.847      1.969     6.21        848.8     54.98451     185.1241        18     1.657     0.794 -38.85   0
       109    267.0093    836.6977 307.8007808  +6.3380885     519.6625     797.4493      459.217     77.94624     155.6441     311.7229      1.809     4.46     849.2987     54.98451      89.1756         6     1.293     0.437  -6.66   0
       110    890.9744    834.6270 307.5417986  +6.3597862     1032.764     1885.249     1842.885     77.69761     155.8304      311.785      1.888     6.08     843.5473     54.98451     132.1297        14     1.374     0.762 -27.43   0
       111    114.4271    834.8333 307.8641878  +6.3337419     1133.519      1830.46     1765.324     77.69762     155.7683     311.7229      1.777     4.26     847.1006     54.98451      167.121        11     1.320     0.694 -10.10   0
       112    525.6740    830.7520 307.6935929  +6.3491993     16318.18     29024.76     32144.96     78.07027     156.0786     311.9711      1.928     4.73     848.4474     54.98451     2185.466        62     1.939     1.200 -32.48   0
       113    367.3613    831.8714 307.7592812  +6.3434420     537.6641     731.5433      381.476     78.07027     156.0166     312.0021      1.262     3.40     848.8666     54.98451     88.81366         5     0.810     0.413 -69.38   0
       114    939.3712    829.0090 307.5218926  +6.3637170     2811.485     5236.004     6185.403     77.82203     155.8304      311.785      2.016     5.35     842.1948     54.98451     332.4703        33     1.823     1.068 -34.64   0
       115     35.8760    821.1236 307.8972597  +6.3367652     1365.704     2671.633     2623.022     78.44115     156.2644     312.0331      2.057     5.60     845.9371     54.98451     182.1476        19     1.622     0.985 -39.62   0
       116    318.2348    819.3672 307.7800969  +6.3469598     2829.826      4918.27     5567.768     77.82203     155.7683     311.6919      1.866     4.38     848.5824     54.98451       399.75        28     1.715     0.902 -41.02   0
       117    783.8217    815.3175 307.5869326  +6.3641887     44689.74     80004.72     88139.88     77.94624     155.7062      311.847      1.952     4.66     844.7284     54.98451     6258.524        85     1.998     1.262 -33.71   0
       118     18.2722    817.5297 307.9046890  +6.3376577      1770.17     3170.132     3156.428     78.31772     156.1405     311.9091      1.870     5.52     845.7839     54.98451     234.4427        22     1.682     0.865 -34.53   0
       119    240.6585    791.6682 307.8132353  +6.3557969     759134.3      1936205      2299347     78.31772     155.9545     311.9401      2.586     8.93     847.7871     54.98451     63457.13       703     2.949     2.272 -50.04   4
       120    909.0302    810.6605 307.5351030  +6.3702829      6651.84     12486.37     13695.79     77.94624     156.0166     311.9091      2.013     4.81     842.5884     54.98451     882.6454        47     1.902     1.221 -34.29   0
       121    711.9396    809.9604 307.6169563  +6.3640034     17738.14     31850.04        36517     78.19409     156.0166     312.0021      1.977     4.64     846.2555     54.98451     2271.818        67     2.040     1.216 -31.41   3
       122    705.7550    806.4100 307.6196430  +6.3652630     72626.38     128770.6       142767     77.69762     155.8925     311.6608      1.938     4.68     846.2831     54.98451     10490.54       104     2.051     1.289 -34.33   3
       123    350.6541    807.2435 307.7670450  +6.3530509     16991.32      30191.6     33551.64     78.19409     156.0166     311.9401      1.921     4.64     847.8865     54.98451       2385.1        58     1.992     1.134 -33.74   0
       124    399.7982    807.5078 307.7466330  +6.3545868     1140.794     1958.786     1988.667       77.573     155.7062     311.6919      1.907     6.23     847.9163     54.98451     139.0068        19     1.582     0.897 -34.70   0
       125    412.5566    805.0705 307.7414179  +6.3560200     18322.13     32178.53     35463.59     78.07027     156.0166     311.9711      1.908     4.58     847.7906     54.98451     2404.141        60     1.958     1.136 -33.91   0
       126    949.6476    804.0635 307.5184593  +6.3743588     1472.914     3124.443     3275.673     78.07027     155.8925     311.9711      2.194     6.82     841.2702     54.98451      163.345        21     1.736     0.906 -37.98   0
       127    906.0178    801.9810 307.5366438  +6.3737662     5293.538      9886.79      10570.6     77.94624     155.8304     311.8781      1.948     4.65     842.4729     54.98451     664.1539        46     1.840     1.209 -33.36   0
       128    877.9246    803.6490 307.5482522  +6.3721420     641.7026     965.2479     792.2242     78.07027     156.0786     311.9711      1.839     5.51     843.3176     54.98451     102.2735         7     1.321     0.648 -48.52   0
       129    646.6390    800.9764 307.6443691  +6.3655336     5323.418     9556.085     10587.79     77.82203     155.7683     311.7229      1.945     4.61     846.8768     54.98451     711.8066        39     1.809     1.070 -36.15   0
       130    135.4212    801.3527 307.8565998  +6.3482694     473.5933     655.1573     711.6129     77.82203     156.0166      311.785      1.413     3.45     846.8207     54.98451     82.58545         5     1.024     0.336 -68.01   0
       131    435.2233    799.0167 307.7322106  +6.3592778     1386.718     2407.137      2841.34     77.94624     155.8925      311.847      2.075     5.37     847.3643     54.98451     173.7905        20     1.577     0.849 -32.79   0
       132    599.4628    793.1088 307.6642197  +6.3672067      769.473     1315.526     1648.597     78.19408     156.1405     312.0331      2.079     5.44     846.6834     54.98451      117.062        11     1.605     0.521 -28.64   0
       133    874.4666    792.6087 307.5500570  +6.3765852     522.8544     937.8205     645.9127     77.69762     155.7683      311.816      1.828     4.27     843.1926     54.98451     94.13812         5     1.278     0.407 -34.66   0
       134    151.2213    791.7764 307.8503627  +6.3527532     766.9799      1193.81     1309.432     77.82203     155.8304     311.9091      1.682     5.70     846.9929     54.98451     115.2706        10     1.461     0.626 -38.26   0
       135    681.6384    791.1521 307.6301670  +6.3707580      2074.87     3526.039     3280.148     78.07027     156.0786      311.785      1.789     4.62     846.2537     54.98451     287.3386        22     1.660     0.851 -33.85   0
       136    415.4626    787.7666 307.7407926  +6.3632616     45099.22     78785.35     86476.25     78.07027     156.0786     311.8781      1.922     4.59     847.0096     54.98451      6188.77        85     2.022     1.214 -33.16   0
       137    126.0784    791.3859 307.8608142  +6.3520709      899.022     1645.913     1593.865     77.82203     155.7683     311.7539      1.898     5.56     846.3574     54.98451     114.7522        11     1.265     0.688 -30.38   0
       138    533.1606    786.8342 307.6919579  +6.3675823     5870.552     10393.23     10995.76     77.94624     155.8925     311.7539      1.887     4.89     846.4208     54.98451     768.7322        36     1.811     1.006 -34.43   0
       139    450.1719    785.3429 307.7264634  +6.3654234     3628.159     6696.516     7601.083     77.82203     156.0786      311.847      2.046     4.56     846.6362     54.98451     496.4315        38     1.911     1.075 -29.58   0
       140    778.4729    783.4352 307.5902202  +6.3771741     9633.298     16928.49     18456.35     78.07027     156.0166     311.9091      1.923     4.54     844.2156     54.98451     1270.181        51     1.904     1.152 -34.30   0
       141    446.3145    778.8778 307.7282819  +6.3679637     1752.562     3306.417     3712.413     78.19409     156.3263     312.0331      1.947     5.61     846.4066     54.98451      283.032        24     1.848     0.858 -41.11   0
       142    799.6663    777.7227 307.5816119  +6.3802392     1111.655     1915.268     2132.471     78.31772     156.0786     311.9091      1.970     7.03     843.6235     54.98451     178.0241        16     1.831     0.757 -40.41   0
       143      7.7809    779.3458 307.9103319  +6.3530701     1074.582      1811.29     1910.104     77.69762     156.0166     309.1988      1.819     5.11     845.5065     54.98451     140.7037        13     1.320     0.697 -37.41  16
       144    144.2687    775.5660 307.8537950  +6.3592127     2447.554     4597.305     5015.356     78.07027     156.0166     312.0021      2.061     5.20      846.363     54.98451     306.6322        29     1.889     0.942 -32.81   3
       145    136.1802    775.3421 307.8571606  +6.3590338     9603.582     17181.32     19675.46     77.82203     155.8925     311.7539      1.942     4.58     846.1984     54.98451     1312.919        51     1.955     1.124 -32.97   3
       146    923.8995    772.0223 307.5302205  +6.3867312     5069.711     9314.529     10193.25     78.19409     155.7683     311.7229      1.981     4.61     841.3864     54.98451     643.5289        42     1.835     1.128 -40.94   0
       147    973.5590    771.9155 307.5096050  +6.3884280     1191.077     2221.515     1749.559     78.19408     155.9545     311.9091      1.989     6.61     840.1501     54.98451     146.3731        22     1.701     1.087 -31.98   0
       148    128.2862    772.7341 307.8605258  +6.3598457     2364.594     4552.067     5676.952     78.19409     156.2025     312.0021      2.204     5.27     846.0195     54.98451     295.8342        26     1.698     1.003 -31.55   3
       149    128.2538    766.2903 307.8607563  +6.3625051     1622.059     2994.958     3895.724     78.07027     155.8304     312.0641      2.045     5.66     845.8693     54.98451     223.9308        25     1.934     0.913 -44.55   2
       150    679.5460    769.5377 307.6317597  +6.3796125     1380.676     2476.259     2851.105     78.19409     155.9545     311.9091      1.983     5.80     845.5068     54.98451     200.7433        17     1.540     0.849 -54.68   0
       151    427.3966    813.8213 307.7349629  +6.3529035     754.6556     1174.482     1046.839     77.82203     155.7062     311.7229      1.856     5.44     848.0963     54.98451     125.0745         9     1.369     0.611 -19.17   0
       152    566.2482    768.8346 307.6788240  +6.3761196     1931.988     3322.448     3536.946     77.94624     156.0166     311.8781      1.842     4.70     845.6196     54.98451     305.5475        19     1.538     0.776 -35.57   0
       153    413.9373    768.6466 307.7420680  +6.3711048     1027.862     1997.863         1595     78.07027     155.8925     311.9711      1.912     6.00     846.1175     54.98451     179.8115        18     1.612     0.912 -34.46   0
       154    978.3334    763.3685 307.5079081  +6.3921159      1342.17     2462.156     2130.108     78.07027     156.0166     311.8781      1.976     5.97     839.9358     54.98451     159.5317        19     1.543     1.012 -45.83   0
       155    918.1976    763.9852 307.5328565  +6.3898598     2278.403     4106.317      4522.32     77.82203     155.7062      311.785      1.869     4.95     841.3893     54.98451      285.546        26     1.674     0.997 -42.09   0
       156    947.4240    763.5123 307.5207372  +6.3910279     2399.294     4423.127     5104.017     78.19409     155.8304      311.816      1.987     5.11     840.6838     54.98451     306.2706        28     1.836     0.939 -32.86   0
       157    670.6622    762.9152 307.6356701  +6.3820503     1068.917     2005.982      2013.21     78.31772     156.0786     311.9401      1.951     5.65     845.3004     54.98451      193.759        17     1.692     0.842 -37.33   0
       158    817.5186    761.5496 307.5747406  +6.3875119     812.9498     1409.833     1520.067     78.19409     156.0786     311.9711      1.912     5.60     843.3096     54.98451     104.0444        10     1.349     0.656 -36.74   0
       159    242.9834    758.0805 307.8134000  +6.3697422     1600.591     2861.142     4228.264     77.82203     155.7062      311.785      2.121     5.23     846.7364     54.98451     227.6685        20     1.704     0.807 -33.94   0
       160    893.0620    758.9776 307.5434604  +6.3910904     621.3014     1021.038     1410.606     77.82203     156.0166      311.847      1.949     5.11     841.9136     54.98451     108.7833         8     1.189     0.622 -11.90   0
       161    263.1775    753.5505 307.8051683  +6.3722893     735.0563     1119.026     900.9377     77.82203     156.0786      311.847      1.490     4.97     846.6245     54.98451     126.1163         9     1.183     0.598 -51.44   0
       162    962.4696    751.4216 307.5148940  +6.3965207     1924.308      3587.03     4110.051     77.82203     155.9545     311.9091      1.957     6.11     840.1382     54.98451     223.8447        23     1.833     0.899 -36.75   0
       163    936.0864    753.1296 307.5257916  +6.3949374       800.08     1454.379     1843.947     78.31772     156.2644     311.9711      1.921     4.86     840.7535     54.98451     111.6658         9     1.204     0.555 -19.20   0
       164    909.9344    752.3592 307.5366760  +6.3943849     883.0246     1610.829     1515.177     78.19408     155.9545     312.0331      1.966     6.01     841.3511     54.98451     112.6891        12     1.175     0.907 -18.54   0
       165    681.8574    750.1075 307.6314509  +6.3877120     827.4258     1519.962     2406.231     78.07027     155.9545     312.0641      2.765     6.47     844.7606     54.98451     107.5616        13     1.518     0.774 -41.52   0
       166   1004.5374    744.3771 307.4976620  +6.4008290     1341.615     2461.596     2901.073     77.82203     156.0166      311.847      2.137     6.92     839.1082     54.98451     162.0982        21     1.720     1.020 -36.51   0
       167    631.6860    743.6788 307.6524976  +6.3886916     449.0453     860.0001     1198.089     78.07027     156.3263     312.0331      1.761     3.81      844.577     54.98451     80.59723         5     0.875     0.476  -8.96   2
       168    403.1514    745.3548 307.7473285  +6.3803605     565.9716     963.7332     1188.087     78.19409     155.8925     311.9711      2.060     5.89     844.9907     54.98451     74.90955         8     1.140     0.856  10.51   0
       169    805.6748    743.0339 307.5802777  +6.3947620     961.0003     1863.028      2028.97     78.07027     156.0166     311.9091      2.065     6.53     843.3646     54.98451     126.0062        15     1.840     0.651 -27.72   0
       170    891.7827    740.3716 307.5446136  +6.3987300      1219.65     2297.093     2363.213     77.82203     155.8304     311.8781      2.012     5.40     841.5222     54.98451     175.3609        16     1.413     0.844 -50.94   0
       171    866.0563    735.9557 307.5554432  +6.3996965     745.3585     1355.184     1777.971     78.19409     156.0166     311.9401      2.140     7.40     842.0209     54.98451      91.3819        14     1.773     0.865 -42.62   0
       172    848.5754    731.7684 307.5628416  +6.4008430     1258.959     2138.048      1996.99     77.69762     155.8925     311.7539      1.862     5.59     842.2921     54.98451     154.8366        17     1.487     0.917 -30.09   0
       173     47.9678    730.4800 307.8952953  +6.3745948     2044.182     3726.234     3982.903     78.07027     155.9545     311.9091      2.071     6.12      845.246     54.98451     242.0814        25     1.922     0.879 -39.64   0
       174    112.2905    729.5330 307.8686220  +6.3771453     538.9051     1585.292     1739.029     78.31772     156.1405     311.9401      2.614     6.53     845.0756     54.98451     80.91699         8     1.492     0.802  78.85   0
       175    660.5399    719.3852 307.6413314  +6.3996853      5147.29     9074.266     9898.241     77.69762     155.9545     311.6919      1.885     4.92     843.9335     54.98451     750.0397        36     1.800     1.019 -40.13   0
       176    528.7092    719.1807 307.6960757  +6.3953664     606.6543     1205.647     1359.354     78.07027     155.7683      311.785      1.700     5.67      843.942     54.98451     98.47845        10     1.443     0.627 -33.96   0
       177    607.6440    718.1429 307.6633361  +6.3984321     1157.299     2274.899     2717.936     78.07027     156.0166     311.9401      2.241     6.61     844.1215     54.98451      151.354        14     1.648     0.807 -45.08   0
       178    517.8338    718.8983 307.7006007  +6.3951194     725.3862     1270.035     1309.393     78.19408     155.8925     312.0641      1.945     3.90     844.0358     54.98451     116.0624         8     1.032     0.720 -35.71   0
       179    123.5465    715.1111 307.8644345  +6.3834774     3155.783     5743.668     6260.894     78.19408     155.8925     312.0641      1.957     4.40      844.705     54.98451     428.7328        37     1.932     1.030 -34.43   0
       180    634.2047    715.2099 307.6524061  +6.4005300     1803.688     3414.404     3896.019     77.69761     155.7683      311.816      1.972     5.38      843.983     54.98451     254.8221        26     1.856     0.958 -35.62   0
       181    997.3808    714.7239 307.5016238  +6.4128344     2082.485     3628.924      3144.16     77.82203     155.7062     311.8781      1.844     4.68     838.6019     54.98451     304.4757        23     1.646     0.886 -38.72   0
       182    777.4323    711.4507 307.5930613  +6.4068608     16579.89     28975.48     31590.21     78.07027     156.0786     311.8781      1.908     4.57     843.1933     54.98451     2298.093        56     1.940     1.127 -32.77   0
       183    907.4294    711.0969 307.5390952  +6.4113382     2930.671     5163.568     5602.709     78.31771     155.7683     311.9401      1.933     4.57     840.5607     54.98451     408.9487        29     1.682     1.006 -40.59   0
       184    476.5596    711.4218 307.7179890  +6.3968264     1151.734     2124.814     2096.478     77.82203     155.8304     311.7539      1.876     5.81     844.2462     54.98451     156.8359        15     1.637     0.702 -43.60   0
       185    505.5567    711.3187 307.7059526  +6.3978385     753.4443     1344.422     1305.947     78.19409     156.0166     311.9091      2.009     7.14     844.0101     54.98451     115.1595        13     1.696     0.843 -16.37   0
       186    321.8336    710.8994 307.7822492  +6.3918639     658.5834     1417.835     1299.534     78.19408     155.8925     312.0951      1.916     4.83     844.7115     54.98451     93.81628         8     1.404     0.471 -48.28   0
       187    548.7952    709.5947 307.6880574  +6.3999956     459.1787     530.8748     196.1022       77.573     155.7683      311.816      1.169     3.31     843.6488     54.98451     80.82391         5     0.727     0.463  16.87   0
       188    657.9215    704.1791 307.6429281  +6.4058762     5890.372     10512.82     11561.97     77.82203     155.7062     311.9401      1.914     4.63     843.6602     54.98451     854.4421        41     1.891     1.058 -32.98   0
       189    250.8325    705.0121 307.8119267  +6.3919158     5142.984     9111.055      10015.3     77.69762     155.7683      311.847      1.865     4.50     844.8774     54.98451     735.5985        37     1.792     1.013 -34.85   0
       190    640.4760    705.1771 307.6501383  +6.4048817      687.262     1379.932     2066.449     77.82203     155.8304      311.847      2.469     6.10     843.8033     54.98451      116.884        12     1.547     0.676 -22.68   0
       191    917.7545    696.8305 307.5352848  +6.4175725     1056.286     1767.564       1529.2     77.82203     156.0786      311.816      1.716     6.01     840.0244     54.98451     124.3221        14     1.365     0.744 -43.84   0
       192    729.6625    692.6744 307.6135250  +6.4130202     2906.704     5416.298     5771.819     78.44115     156.0166     311.9401      1.944     4.67     843.6066     54.98451     402.0452        32     1.787     1.028 -45.05   0
       193    685.0209    692.9308 307.6320527  +6.4114249     794.7031     1262.302     1723.824     77.82203     155.9545      311.847      1.954     6.09     843.3717     54.98451     127.8976        11     1.516     0.687 -27.67   0
       194    995.9529    689.2205 307.5030684  +6.4233171     7003.982     12774.51     13975.89     77.82203     156.0166      311.785      1.959     4.69     837.9149     54.98451     935.4053        44     1.890     1.142 -32.60   0
       195    934.6180    689.5865 307.5285246  +6.4211248     1902.867     3592.675     3671.416     77.82203     155.6441      311.816      1.935     5.89     839.4899     54.98451       260.97        23     1.801     0.833 -33.90   0
       196     14.7883    688.9753 307.9104702  +6.3906163     1505.874     3080.588     3682.317     77.82203     155.8304     311.8781      2.261     6.98     844.8703     54.98451     200.9402        25     1.959     1.046 -18.21   0
       197    432.5028    686.7479 307.7371103  +6.4055401     511.4971     991.9634     1003.455     78.07027     156.0166     312.1881      2.114     4.67     843.9136     54.98451     94.18018         6     1.015     0.609 -34.57   0
       198     73.3157    683.9800 307.8863387  +6.3946443     21033.96     37558.78      41627.9     77.82203     155.7062     311.8781      1.936     4.59     844.2072     54.98451     2785.596        64     1.970     1.169 -33.07   0
       199    534.6984    684.8312 307.6947414  +6.4097488     1665.842     3110.178     3691.759     78.19409     155.8304     312.0641      2.026     5.97     843.2341     54.98451     216.8348        22     1.724     0.942 -23.71   0
       200    502.8583    682.2686 307.7080480  +6.4097425     1109.017     1757.763     1741.455     78.31772     155.9545     311.9401      1.645     6.48     843.5845     54.98451     154.4016        15     1.481     0.821 -22.58   0
       201    924.3345    681.1333 307.5330772  +6.4242727     749.6733     1437.101     1585.584     78.19409     156.0166     311.9711      1.775     5.79       839.56     54.98451     141.6417        11     1.651     0.572 -40.59   0
       202    544.2197    678.2637 307.6910083  +6.4127786     848.6367     1769.225     2034.488     77.82203     156.0166      311.785      2.524     6.31       842.98     54.98451     144.4738        13     1.787     0.625 -27.37   0
       203    719.2648    676.3323 307.6183897  +6.4194208     2801.133     4940.519     5204.772     78.19409     156.0166     311.9711      1.897     4.70      843.264     54.98451     379.9032        27     1.711     0.900 -39.75   0
       204    741.2585    674.5901 307.6093155  +6.4208737     3175.569     5705.546     6292.809       77.573     155.8925     311.6608      1.885     4.67      843.283     54.98451      461.102        34     1.793     1.012 -38.33   0
       205    572.8243    672.4579 307.6793257  +6.4161315      2546.97     4855.244     5396.431     77.82203     156.0166      311.816      2.007     5.17     843.2148     54.98451     366.2502        30     1.977     0.951 -36.07   0
       206    409.2229    672.9600 307.7472395  +6.4104539     1094.571       1836.6     1980.378     77.82203     155.8304     311.7229      1.844     6.13     843.7347     54.98451     156.2964        15     1.740     0.768 -26.31   0
       207    233.2613    672.1468 307.8203281  +6.4048960      1413.84     2447.273     2618.659     78.19409     155.9545     311.9091      1.887     4.89     843.6254     54.98451     213.3809        18     1.605     0.743 -43.36   0
       208   1014.2814    670.7549 307.4960743  +6.4315510     4088.842      7349.13     7798.732     78.19409     156.0166     311.9091      1.910     4.62     836.9274     54.98451     503.5709        37     1.863     1.057 -32.19  16
       209    979.5734    669.5523 307.5105268  +6.4308929     6546.501     11803.32     12963.87     77.82203     156.0786     311.8781      1.979     4.68     837.8134     54.98451     842.5682        46     1.904     1.140 -32.64   0
       210    316.9745    671.1689 307.7856026  +6.4081049     1260.645     1906.912     1856.056     77.69762     155.8304      311.785      1.616     4.44     843.7253     54.98451     186.5067        16     1.432     0.720 -35.51   0
       211    699.0370    668.4299 307.6270536  +6.4220087     836.4434     1266.122     1136.963     77.82203     155.7683      311.785      1.591     5.74     842.7808     54.98451     115.6972        10     1.584     0.587 -47.98   0
       212    533.5016    669.5428 307.6957513  +6.4160211     518.4028     884.0889     1127.551     77.94625     156.0166     312.1261      1.754     3.71     842.9383     54.98451     91.12274         6     0.947     0.419 -18.52   0
       213    138.1077    662.9113 307.8601472  +6.4055177     19654.87     35323.53     38297.73     78.19409       156.45     312.0331      1.941     4.68     843.5151     54.98451     2621.014        65     1.965     1.202 -31.71   0
       214     90.8521    666.5958 307.8796436  +6.4024104     635.0629     1061.368     1623.227       77.573     155.8304     311.5677      1.667     4.30     843.7016     54.98451     110.6711         5     1.011     0.521 -49.10   0
       215    424.9177    663.8373 307.7410292  +6.4147456     2264.673     4050.507     4850.356     78.19408     156.0166     311.9091      2.067     4.81     843.4438     54.98451     282.4229        26     1.787     0.967 -38.55   0
       216    806.3813    663.5147 307.5826450  +6.4276180       936.74     1831.421     2033.458     77.82203     155.7683     311.8781      2.236     5.47     841.3478     54.98451     162.9077        13     1.537     0.671 -37.50   0
       217    974.5468    652.6088 307.5131800  +6.4377214     5391.423     10426.24     11785.89     77.69762     155.8925     311.6608      2.086     4.71      837.399     54.98451     627.6531        44     1.843     1.262 -29.71   0
       218     18.9936    651.5442 307.9099865  +6.4062115      1033.45     1481.236     1570.371     77.69761     155.8925     311.6608      1.567     4.19     844.1339     54.98451     140.6694        10     1.104     0.756 -61.67   0
       219    568.0612    647.7820 307.6821311  +6.4261606     39555.15     69714.29     76761.84     77.82203     155.9545     311.7539      1.897     4.59      842.336     54.98451     5194.845        83     2.006     1.195 -34.54   0
       220    527.4520    647.8311 307.6989917  +6.4247832     552.3038     906.0142     988.2172     78.07027     156.1405     311.8781      1.773     6.56      842.449     54.98451     105.5815         9     1.683     0.718 -43.12   0
       221    211.1840    648.9426 307.8302757  +6.4137361     454.1826     806.4947     809.4218       77.573     155.9545     311.6919      1.924     4.01     843.0947     54.98451     76.41724         6     0.954     0.481 -55.69   0
       222    175.5312    644.4971 307.8452288  +6.4143759      2356.34     4266.528      4730.77     78.07027     156.1405     311.9401      1.952     5.04     843.0885     54.98451     355.7695        30     1.828     1.080 -25.49   0
       223     68.2763    638.6824 307.8899579  +6.4131769     1172.381     1914.276     2137.672     78.31772     156.3263     312.0641      1.829     5.46      843.549     54.98451     158.5212        16     1.528     0.787 -35.79   0
       224    465.3441    631.5958 307.7253259  +6.4294098     51582.38     91136.44     99555.82       77.573     155.8304     311.6608      1.911     4.58     842.4896     54.98451     7349.515        88     2.003     1.227 -34.64   0
       225      8.9590    633.1190 307.9147743  +6.4134815     1428.066     2752.478     3318.548     78.19409     156.0166     311.8781      2.228     5.79     843.7294     54.98451     173.5193        24     1.812     0.932 -33.68  16
       226    139.7780    626.4449 307.8606820  +6.4206295     1438.208     2375.891     1832.622     77.69762     155.9545      311.785      1.703     4.76     842.9669     54.98451     192.0001        17     1.415     0.864 -43.02   0
       227    611.2606    622.9147 307.6650270  +6.4378709     856.1154     1449.161     1815.587     78.19409     156.0786     312.0331      1.789     5.22     841.2357     54.98451     139.2203        10     1.624     0.473 -37.01   0
       228    419.1647    623.8727 307.7447604  +6.4310535     732.6763     992.6796     815.7515     78.07027     156.0166     311.9091      1.611     4.54     842.2399     54.98451     126.0126         7     1.098     0.533 -27.44   0
       229    310.7449    620.7820 307.7898835  +6.4286996     1703.012     2967.828     3445.443     77.69762     155.9545     311.6919      1.919     4.85     841.9384     54.98451     238.8376        21     1.693     0.776 -34.10   0
       230    651.3602    628.5021 307.6481886  +6.4369029     812.5789     1435.062     1778.377     78.19409     155.8925     312.1571      2.047     5.70     840.9304     54.98451     128.3741        11     1.531     0.598 -25.16   0
       231    462.9462    619.6169 307.7267238  +6.4342754      747.209     1334.815     2166.368     77.69761     156.0786     311.6608      1.977     5.13     842.1241     54.98451      99.2702         8     1.054     0.705 -56.53   0
       232    737.3638    615.1326 307.6129237  +6.4452929     4283.118     7695.513      8593.13     78.07027     156.0786     312.0021      1.915     4.65     839.6901     54.98451     614.3822        34     1.882     0.974 -34.02   0
       233    790.9791    610.4190 307.5908176  +6.4490271     11365.44     20016.23     22047.61     77.94624     155.9545      311.847      1.913     4.70     839.3414     54.98451     1702.838        51     1.948     1.091 -34.19   0
       234   1008.5019    610.6760 307.5004805  +6.4561647     735.5635     1394.033     1399.929     77.82203     156.2025     311.9401      1.964     6.23     835.1325     54.98451     128.4274        11     1.691     0.644 -31.58   0
       235    533.3040    610.3807 307.6978184  +6.4404413     1019.252      1616.13     1772.767     78.07027     155.8304     311.7229      2.026     4.46     841.3907     54.98451     163.3906        13     1.269     0.797 -57.45   0
       236    614.7244    608.4880 307.6640724  +6.4439431     2511.427     4430.357     4736.152     78.19409     156.3263     312.0331      1.938     5.57     840.4588     54.98451     358.0114        24     1.717     0.885 -38.81   0
       237    931.8510    604.9175 307.5325032  +6.4559916     923.8936     1710.135     2351.265     78.19409     156.0166     312.0021      2.045     6.09     837.0208     54.98451     137.8022        13     1.598     0.683 -35.41   0
       238    372.6778    602.4144 307.7647845  +6.4383572     795.8602      1095.92     1084.055     77.82203     155.7062      311.785      1.638     5.08     841.3461     54.98451     133.4315        10     1.366     0.534 -44.45   0
       239    227.1978    601.8385 307.8252120  +6.4337210     1001.967     1613.595     2081.032     77.32317     155.7683     311.7229      1.824     5.25     841.9349     54.98451     150.0947        12     1.294     0.771 -39.55   0
       240    866.9549    593.6151 307.5598301  +6.4584971     2332.254     4128.627     4110.495     77.69761     155.8304     311.7229      1.832     5.08      838.226     54.98451     327.2575        27     1.765     0.947 -40.49   0
       241    825.5586    591.1484 307.5771030  +6.4581362     2049.876     3481.575     3541.434     78.19409     156.0166     311.9401      1.820     5.38     838.5928     54.98451     290.1635        22     1.664     0.805 -39.85   0
       242    806.1907    582.3339 307.5854407  +6.4611301     129512.6     228300.8     251964.1     77.69762     155.8304      311.847      1.931     4.55     838.5808     54.98451     17653.57       167     2.400     1.339 -31.76   0
       243    253.6822    585.9857 307.8147483  +6.4411540      6372.46      11391.4     12691.49     77.82203     155.7683     311.7539      1.937     4.75     841.3508     54.98451     749.0032        41     1.904     1.060 -34.14   0
       244    187.9033    580.5110 307.8422462  +6.4412088     48309.09     86291.61     95851.64     78.19408       156.45     311.9711      1.952     4.72     841.8285     54.98451     6600.486        97     2.097     1.260 -35.31   0
       245    111.9802    576.7627 307.8738981  +6.4402088      5093.86     9280.402     9992.672     77.82203     155.7683     311.6608      1.996     4.91     842.6171     54.98451     619.6559        40     1.930     1.031 -33.80   0
       246    976.7460    574.2146 307.5148857  +6.4701627     976.3481     1914.248     1521.571       77.573     155.9545     311.6608      1.894     6.48     835.0917     54.98451     135.9963        15     1.617     0.729 -33.46   0
       247    997.6762    573.2188 307.5062271  +6.4712703     669.4033     1004.562     861.1993     77.69762     155.7683     311.9091      1.688     4.17      834.553     54.98451     110.5875         7     1.128     0.572 -37.73   0
       248    842.9226    569.5744 307.5706140  +6.4676225     3554.141     6407.519      7291.16     77.94624     155.9545     311.9091      1.988     4.86     837.8126     54.98451     491.7203        33     1.798     1.046 -36.08   0
       249    226.8008    571.5063 307.8263978  +6.4462309     601.5656     1004.477     1154.262     77.69762     155.5819     311.6608      1.649     4.05     841.3619     54.98451     105.8112         7     0.997     0.470  11.20   0
       250    361.3225    567.6594 307.7706679  +6.4523265     14074.63     24886.79     27121.97     78.31772     156.0166     311.9091      1.920     4.60     840.1967     54.98451     1897.362        54     1.934     1.128 -33.26   0
       251    451.7525    567.5536 307.7331203  +6.4553967     732.4448      1066.18      832.178     78.19409     155.8925     311.9401      1.646     3.66     839.8085     54.98451     107.1379         7     0.986     0.687  10.13   0
       252    163.3812    566.5045 307.8529004  +6.4461690      1566.89      2804.71     3653.143     78.07027     155.8304     311.7539      2.401     8.10     841.7657     54.98451     206.8618        24     2.243     0.818 -27.61   2
       253    796.7855    562.9240 307.5899960  +6.4688307     4782.763     8593.937     9607.815     77.69761     155.7683      311.785      1.890     4.95     838.1903     54.98451     684.1886        35     1.782     1.042 -35.83   0
       254    527.5984    562.6176 307.7017905  +6.4599710     5379.539      9189.82     10148.71     77.82203     155.5819     311.6608      1.858     4.57     839.9188     54.98451     744.1665        39     1.862     1.017 -31.99   0
       255    238.4861    563.6489 307.8218100  +6.4498668     792.8522     1680.114       2302.4     78.19409     155.9545     311.9711      2.893     5.72     841.0812     54.98451     108.7892         9     1.032     0.891 -16.33   0
       256    100.5897    563.8536 307.8790629  +6.4451562     759.1246      1313.68     1699.113       77.573     155.9545     311.6608      1.832     5.62     842.6377     54.98451     114.3038        10     1.632     0.545 -29.18   0
       257    385.7701    559.2803 307.7607976  +6.4566046     1150.498     2006.293     2378.799     78.07027     156.0166     311.9091      1.749     5.18      839.665     54.98451     150.3625        13     1.528     0.623 -48.91   0
       258    174.7581    555.6987 307.8485401  +6.4510120     5531.464     9838.292     10990.82     78.19409     155.8925     312.1571      1.990     4.61     841.4763     54.98451     797.8151        40     1.847     1.084 -34.89   0
       259    572.2188    555.6954 307.6834936  +6.4643203     2151.523     3605.507     3501.387     78.07027     155.8304     311.7539      1.764     4.96     839.7202     54.98451     326.9775        20     1.623     0.802 -33.19   0
       260    813.4082    555.0649 307.5833561  +6.4726296     1174.926     2166.161     2502.635     77.69761     155.7683      311.816      2.006     4.69     837.8098     54.98451      180.636        18     1.449     0.844 -40.05   0
       261    269.9363    552.1377 307.8091378  +6.4556737     71110.69     126480.5     139131.7     78.19409     156.0166     311.9711      1.944     4.68     840.4495     54.98451     9633.165       100     2.051     1.246 -33.28   0
       262     46.2768    554.3441 307.9019359  +6.4472585     4154.941     7281.537     7822.296     78.19409     156.0166     311.9091      1.912     4.61     843.0123     54.98451      560.076        35     1.748     1.043 -35.08   0
       263    559.7397    549.2448 307.6888921  +6.4665666     733.0819     967.1398     1248.514     78.07027     155.9545     312.0331      1.422     4.44      839.608     54.98451     123.2077         8     1.147     0.488 -45.70   0
       264    496.6765    543.0006 307.7152896  +6.4670367     32816.39     62644.54     70537.15     77.44818     155.3952     311.7229      2.087     4.89     838.8378     54.98451     4192.281        95     2.144     1.372 -28.06   0
       265    253.3603    547.2555 307.8161853  +6.4571338     1184.304     2201.832      908.218     78.19409     156.0786     311.9091      1.824     5.93      840.556     54.98451     142.8128        18     1.502     0.849 -39.46   0
       266    969.2751    545.9581 307.5189323  +6.4815809     1330.155     2409.162     2348.321     78.07027     156.0786     311.9711      1.880     5.70     834.6088     54.98451     196.3419        18     1.703     0.728 -31.68   0
       267    793.0729    544.6417 307.5921497  +6.4762554     13245.76     23319.69     25308.11     78.07027     156.0786     311.9711      1.899     4.77     837.7778     54.98451     1808.368        53     1.957     1.072 -33.31   0
       268    646.8929    541.8122 307.6529494  +6.4725466     702.2644     1315.182     897.0975     77.94624     155.7683     311.7539      1.917     5.38     838.9491     54.98451     107.7969         9     1.540     0.531 -38.11   0
       269    208.9191    539.5324 307.8348994  +6.4588324     1590.216     2644.703     3211.171     78.31771     156.2644     311.9711      1.861     5.60     840.8127     54.98451     188.7394        18     1.410     0.933 -42.24   0
       270     44.7645    539.5280 307.9030635  +6.4533247     1058.688     1811.462     1839.255     78.07027     156.0166     311.9401      1.886     5.28     842.9784     54.98451     183.8059        15     1.505     0.804 -36.40   0
       271    656.7736    538.0229 307.6489732  +6.4744410     2255.795     4114.866     4345.743     77.69761     155.8925     311.8781      1.965     5.09     838.6951     54.98451     279.4543        29     1.925     0.905 -37.10   0
       272    718.4437    537.1797 307.6233914  +6.4768473     1060.443     2077.094     2092.711     77.69762     155.8925      311.785      2.068     6.84     837.9446     54.98451     119.1792        18     1.279     1.202  75.01   0
       273    666.7112    538.0145 307.6448467  +6.4747762     1265.902     2075.148     2128.229     77.94624     155.8304      311.816      1.732     4.49     838.6462     54.98451     155.1758        15     1.308     0.832 -34.85   0
       274     95.8463    538.8347 307.8818757  +6.4553264     569.5685     895.7562     427.4272     77.82203     155.9545      311.816      1.333     3.06     842.4238     54.98451     134.3351         5     1.057     0.318 -11.02   0
       275    394.3364    533.5670 307.7581045  +6.4675077     1501.095      2547.66     3065.024     78.07027     156.0786     311.9091      1.975     5.13     838.6018     54.98451     200.1594        20     1.537     0.922 -32.67   0
       276    325.7438    531.9286 307.7866434  +6.4658873     3188.545     5661.178     6637.951     78.19409     155.9545     311.9091      1.983     4.25     839.2015     54.98451     424.2553        30     1.685     1.061 -37.07   0
       277    140.9882    530.5056 307.8634115  +6.4602805     21024.44     37409.12     40994.81     77.94624     155.7683     311.7229      1.941     4.74     841.3554     54.98451     2782.731        68     1.981     1.188 -33.37   0
       278    505.6296    531.3593 307.7119625  +6.4721425     1815.868     3058.021     3246.489     77.82203     155.8304      311.816      1.839     5.38     838.4445     54.98451     251.6508        22     1.770     0.822 -29.73   0
       279    869.0477    530.7499 307.5610636  +6.4845230     1303.583     2084.066     1954.425     78.19409     155.8925     311.9401      1.630     4.33     836.2101     54.98451     170.6468        17     1.428     0.815 -40.27   0
       280    106.0828    528.6401 307.8779687  +6.4598791       2187.4     3767.522     4115.056     78.19409     156.0786     311.8781      1.835     4.40     842.0409     54.98451       293.42        20     1.521     0.815 -37.86   0
       281    342.7666    527.1343 307.7797357  +6.4684369     925.0479     1552.248     2190.271     78.07027     156.0786     311.9091      2.028     4.36      838.889     54.98451      126.244        11     1.217     0.669 -27.78   0
       282    966.6681    525.0870 307.5207123  +6.4901116      4040.53     7095.777     7482.713     78.31772     156.2644     311.9711      1.874     4.80     833.9816     54.98451      512.573        31     1.822     0.949 -34.80   0
       283    539.5179    517.5516 307.6983531  +6.4789763     1195.104     2125.244     2400.009     78.19409     156.0166     311.9711      1.928     4.78     837.9756     54.98451     167.0482        13     1.335     0.778 -22.97   0
       284      5.2348    514.8283 307.9203108  +6.4621942     20406.59      36707.3     40224.26     77.69761     155.7683     288.0097      1.943     4.67     843.5169     54.98451     2547.797        64     1.979     1.181 -33.40  24
       285    438.0578    511.6823 307.7406838  +6.4780066     34579.73     61420.45     67657.24     78.31772     156.0166     312.0021      1.933     4.64     837.5854     54.98451     4446.466        80     2.030     1.212 -33.24   0
       286    646.0793    511.4059 307.6543065  +6.4850736     9919.853     17299.66     18960.79     77.82203     155.5197     311.7229      1.889     4.68     837.3621     54.98451     1448.435        45     1.892     1.047 -35.39   0
       287    285.7560    511.6328 307.8039314  +6.4729272      808.303     1436.531     1550.461     77.82203     155.9545      311.816      1.988     4.16     838.5359     54.98451     134.7068        10     1.157     0.737   5.85   0
       288    203.2039    509.2064 307.8382937  +6.4711614     15206.07     28676.58     31602.24       77.573     155.7062      311.847      2.016     4.57     839.7131     54.98451     1850.339        68     1.959     1.333 -32.10   0
       289    168.5413    510.3574 307.8526488  +6.4695235      1398.71     2400.974     2343.814     78.07027     156.0166     312.0021      1.840     6.27     840.1645     54.98451      163.282        21     1.669     0.905 -34.51   0
       290    819.5361    509.6105 307.5823324  +6.4916014     749.2792     1368.661       1567.7     77.69762     155.8304      311.816      2.028     5.15      836.165     54.98451     108.9528         9     1.305     0.575 -59.37   0
       291    979.8019    509.3868 307.5157825  +6.4970311     859.5856     1533.156     1738.351     77.82203     155.7062     311.7229      2.018     5.08     833.3151     54.98451     134.3171         9     1.386     0.526 -41.53   0
       292    567.9692    508.1414 307.6868536  +6.4838124     2192.512     3699.808      3606.97     77.94624     156.0166     311.8781      1.844     5.41     837.3631     54.98451      287.097        26     1.788     0.940 -30.95   0
       293    909.0760    508.9421 307.5451695  +6.4948604     670.1913     1137.701     1174.953     78.31772     156.0166     311.9091      1.493     5.20     834.4177     54.98451     104.4709         8     1.371     0.557 -25.28   0
       294    941.8615    505.2706 307.5316766  +6.4974679     3913.582     6636.546     7354.459     78.31772     156.0166     312.0021      1.858     4.51     833.5855     54.98451     581.1415        36     1.813     1.057 -32.46   0
       295    614.8710    503.6691 307.6675262  +6.4872258     5204.002     8898.872     10181.63     78.19409     156.1405     311.9091      1.905     4.75     837.0636     54.98451     713.5253        35     1.798     0.955 -32.69   0
       296    102.1760    504.1761 307.8804155  +6.4698483     827.9875     1409.418     1598.062     77.69761     155.8304      311.847      2.004     5.70     841.6442     54.98451     124.6146        11     1.325     0.692 -59.11   0
       297    964.2044    497.4497 307.5226590  +6.5014407     2756.189     5100.019     5613.157       77.573     155.8304     311.5988      1.980     4.96     833.0964     54.98451      384.462        31     1.787     1.081 -32.71   0
       298    527.0312    494.9543 307.7042969  +6.4878889     6090.578     10694.75     11935.85     77.82203     156.0786      311.816      1.955     4.77     836.7694     54.98451     820.4227        39     1.880     0.986 -30.86   0
       299    373.1243    495.0495 307.7682078  +6.4827005     2075.781     3748.299     3948.182     78.07027     156.0786     311.9401      1.865     4.48     837.3791     54.98451     305.5669        25     1.687     0.921 -32.05   0
       300    743.2810    495.0027 307.6144895  +6.4950901     538.9935     814.6257     928.9918       77.573     155.5819     311.6919      1.546     4.13       835.67     54.98451     85.12408         5     0.830     0.587   0.32   0
       301    883.5657    490.6941 307.5563741  +6.5015451     2648.584     4526.805     5855.841     78.31772     155.8925     312.0331      2.022     5.26     834.4136     54.98451     359.0546        26     1.798     0.867 -34.46   0
       302    402.8095    496.0638 307.7558462  +6.4832755     651.3873     1071.327     1577.305     77.69761     155.8304     311.7539      1.689     5.53     837.1364     54.98451     93.55072         9     1.329     0.649 -34.57   0
       303    231.8335    489.9430 307.8270534  +6.4800748      578.843     971.6072     857.9055     78.07027     156.0166     311.9401      1.651     4.37     838.5515     54.98451     91.28351         6     0.937     0.580 -69.08   0
       304    890.7964    485.2448 307.5535534  +6.5040359     1749.953     3202.385     3642.934       77.573     155.7062     311.5988      2.057     6.19     833.9816     54.98451     298.7584        21     1.748     0.842 -30.72   1
       305    929.9670    484.5238 307.5373099  +6.5056380     1075.474     1719.094      2039.59     78.07027     156.0166     311.9091      1.759     4.37     832.8234     54.98451       149.77        13     1.239     0.706 -35.85   0
       306    110.1007    483.9839 307.8778052  +6.4784510      594.223     1119.091     1339.521     78.19409     155.7683     311.7539      2.059     6.55     841.0099     54.98451     108.9656         9     1.355     0.889 -24.79   0
       307    714.8795    481.2390 307.6267455  +6.4998254     2378.086      4243.56     4767.906     78.07027     156.0786     311.9091      1.873     5.10     835.2673     54.98451     310.3727        24     1.748     0.822 -31.93   0
       308    385.6367    479.4318 307.7635367  +6.4895676     3059.086     5401.655     5862.693     77.82203     155.7683     311.6919      1.921     4.87     836.6498     54.98451     406.0282        29     1.761     0.972 -32.95   0
       309     76.7537    480.0371 307.8917859  +6.4789608     1493.722     2676.035     3178.449     77.94624     155.9545      311.847      2.155     7.13     841.8276     54.98451     192.7264        22     1.949     0.801 -30.26   0
       310    426.0265    479.6685 307.7467556  +6.4908217     832.2433     1533.131     2027.803     77.82203     155.8925      311.847      2.162     5.81     836.4668     54.98451     104.6133        11     1.389     0.684 -50.73   0
       311    613.5745    475.9002 307.6689958  +6.4986478     8255.057     14417.96      16072.8     78.19408     155.7683      311.847      1.908     4.65        835.6     54.98451     1128.864        44     1.904     1.036 -33.66   0
       312    776.5891    472.1460 307.6014222  +6.5056381     12980.67     23552.64     26888.55       77.573     155.9545     311.6298      2.016     5.14     834.8625     54.98451     1852.953        68     2.425     1.126 -41.60   0
       313    295.7822    472.9240 307.8010701  +6.4892450     2143.266     3666.915     3448.252     77.69761     155.7683     311.8781      1.875     4.85     836.7693     54.98451     288.5991        24     1.676     0.870 -38.11   0
       314    378.8738    469.5260 307.7666781  +6.4934310     1348.385     2203.561      3030.55     78.44115     156.2644     312.0331      1.935     4.50     836.2878     54.98451     204.5173        15     1.319     0.775 -48.30   0
       315    805.0201    469.4058 307.5897064  +6.5077175      949.038     1418.403     1190.575     77.82203     155.7062     311.7539      1.563     4.52     834.8062     54.98451      159.454        13     1.389     0.625 -35.30   0
       316    961.5181    467.7106 307.5247685  +6.5136302     1524.222     2621.009     2601.529     77.94624     156.2025     312.0021      1.770     4.46     832.1356     54.98451     227.3217        22     1.476     1.033 -39.85   0
       317    113.5235    464.2976 307.8770474  +6.4866937     3679.651     6715.618         7250     77.82203     156.2644     311.9711      1.937     4.77      840.203     54.98451     534.7443        34     1.881     0.972 -30.92   0
       318   1015.3975    462.3203 307.5025718  +6.5176486     3139.109     6339.733     6801.234       77.573     155.5197     311.6919      2.115     5.44     831.6266     54.98451       309.02        37     1.852     1.216 -20.70  16
       319    751.6636    463.2504 307.6120717  +6.5084797      1894.76     3333.662     3591.428     78.19409     155.9545     311.9711      1.888     5.11     834.4573     54.98451     287.6588        21     1.656     0.846 -38.08   0
       320    270.9767    461.8894 307.8117425  +6.4929695     1149.401     2155.059     2489.234     78.19409     155.8304      311.816      2.093     5.71     836.8919     54.98451     159.1879        14     1.500     0.758 -45.53   2
       321    349.7239    459.2323 307.7791297  +6.4967049     2544.947     4578.348     4657.943     78.07027     156.0166     311.8781      1.906     5.22     835.9396     54.98451     313.0201        26     1.841     0.877 -37.34   0
       322    705.6324    456.7771 307.6314054  +6.5096168     1245.589     2387.043     2942.948     77.69762     155.8304     311.7229      2.163     6.01     834.4673     54.98451     161.3379        19     1.677     0.871 -44.88   0
       323    979.6249    455.5181 307.5176559  +6.5192669     602.0167     1033.418     1225.703     77.94625     155.7683     311.9091      1.878     4.33     831.6127     54.98451     119.2878         7     1.031     0.583 -24.56   0
       324    237.4327    454.6538 307.8259161  +6.4948324     536.4138     1024.202     1165.196     78.07027     155.9545     311.9091      2.005     5.97     837.5088     54.98451      91.8382         9     1.644     0.609 -33.42   0
       325    831.7607    447.2297 307.5793431  +6.5177649     1153.269     2038.632     2241.793     77.69762     155.7062      311.816      1.855     5.84     833.5541     54.98451     176.0478        17     1.531     0.893 -37.65   0
       326    817.2992    446.1471 307.5853853  +6.5177299     1741.344     2993.576     3065.695     78.07027     156.0166     312.1571      1.860     5.27     833.7513     54.98451     239.4351        21     1.772     0.812 -44.43   0
       327    547.1750    449.2102 307.6974667  +6.5074490     810.3782     1579.689     1959.976     77.82203     155.8304      311.816      2.071     5.34     834.4232     54.98451     112.9774        10     1.425     0.564 -16.71   0
       328    468.7431    448.1684 307.7300741  +6.5052565     1065.583     1776.398     1914.621     78.07027     156.0166      311.847      1.761     5.63     834.8445     54.98451     139.5241        12     1.430     0.626 -36.44   0
       329    714.7360    444.1670 307.6280471  +6.5151270     12259.55     21569.16     23526.17     78.07027     156.0786     311.9091      1.895     4.61     833.9197     54.98451     1786.106        55     1.920     1.127 -31.99   0
       330    617.0170    446.0480 307.6685673  +6.5110882     686.6089     1108.298     819.8457     77.69762     156.0166     311.7229      1.682     2.96     834.2719     54.98451     107.8533         7     0.863     0.529 -43.49   0
       331    635.7730    440.1077 307.6609770  +6.5141672     2191.611     3719.491     4234.264     78.31772     155.7683      311.785      1.873     4.64      833.995     54.98451     310.3732        23     1.685     0.844 -32.05   0
       332    610.9016    437.1579 307.6714052  +6.5145544      4369.94     7959.448     9147.226     78.19408     155.8925     312.1571      1.956     4.86     833.8773     54.98451     623.8679        32     1.874     0.934 -36.64   3
       333    607.2088    434.7336 307.6730202  +6.5154320     11833.32     21077.03     23010.05     77.69762     155.7683      311.847      1.903     4.62     833.7909     54.98451      1607.58        46     1.888     1.079 -33.23   3
       334    709.4420    438.1684 307.6304467  +6.5174271     479.3656     780.5022     921.2206     77.69762     155.8925     311.7539      1.692     3.49     833.7272     54.98451     97.02533         5     0.747     0.471  74.13   0
       335    939.9158    433.9461 307.5348688  +6.5268521      3225.55     5709.361      6116.91     78.19409     156.0166     312.0951      1.919     4.41     831.2439     54.98451     489.8129        31     1.818     0.989 -33.78   0
       336    379.1243    430.0215 307.7679021  +6.5097498     23631.09     42072.27      46068.1     77.82203     155.8304     311.8781      1.927     4.72     834.4327     54.98451     3190.139        66     1.977     1.168 -34.06   0
       337    895.2183    429.7648 307.5535723  +6.5270902     1163.154     2270.868     2557.487     77.69762     155.8304     311.7229      1.855     5.52     831.7724     54.98451     168.1443        15     1.400     0.853 -35.45   0
       338    125.1900    429.4203 307.8733780  +6.5014850     1839.395     3184.906     3367.159     77.82203     155.7062      311.785      1.978     5.31     838.7468     54.98451     271.0571        20     1.651     0.818 -29.76   0
       339    908.8347    424.4688 307.5480943  +6.5297303     4089.938      7136.94     7848.062     78.07027     156.0786     312.0331      1.888     4.49     831.3572     54.98451     619.2882        33     1.826     0.950 -32.48   0
       340     58.6682    424.8669 307.9011566  +6.5011312      1158.18     2082.074     2328.579     78.19409     156.0786     311.9711      1.955     5.60     840.5366     54.98451     169.3456        19     1.637     0.877 -22.82   0
       341    590.9954    425.4396 307.6800655  +6.5187277     537.3372     844.6596     705.1068     77.44818     155.7683     311.6298      1.475     3.73     833.3563     54.98451     85.07611         6     0.808     0.495   3.16   0
       342    236.5970    420.5947 307.8274097  +6.5088664      11306.1     20006.96     22215.56       77.573     155.7062      311.785      1.911     4.73     836.7575     54.98451     1591.921        51     1.976     1.088 -34.43   0
       343    964.2000    423.0803 307.5251462  +6.5321468     551.1467     770.3324     791.7566     77.44818     155.3952     311.6608      1.340     3.05     830.6154     54.98451     99.00122         6     0.907     0.742  36.17   0
       344     72.3202    414.9659 307.8958211  +6.5056775     703.9044     1148.707     1299.436     78.07027     156.0786     311.9711      1.971     5.83     839.7014     54.98451      105.884         9     1.200     0.797 -56.94   0
       345    698.8166    414.0471 307.6356679  +6.5270317     572.4501      940.343     1354.224     77.69762     155.9545     311.6919      1.548     4.30     832.8145     54.98451     108.9146         5     1.194     0.441 -35.17   0
       346    959.9258    412.5576 307.5272731  +6.5363492     794.6407     1483.375     1544.378     78.07027     156.0786     311.9711      1.998     5.16     830.3207     54.98451     120.3441         9     1.397     0.538 -27.80   0
       347    182.7989    411.0212 307.8500739  +6.5110146     591.2514     1220.775     1268.538     77.82203     155.7062     311.6608      2.006     4.73      837.485     54.98451     102.1671         7     1.528     0.416 -39.02   0
       348    136.7233    409.1906 307.8692702  +6.5102243     4075.458     7276.369     7960.656     77.82203     155.5819     311.7539      1.930     4.84     838.1149     54.98451     486.4485        37     1.920     1.043 -29.91   0
       349    349.9023    410.1073 307.7807075  +6.5169933     1032.134     1581.254     1562.706     78.19409     156.5119     311.8781      1.541     4.11     833.5729     54.98451     178.0158        11     1.202     0.620 -20.97   0
       350    241.4717    408.1248 307.8258051  +6.5141782     1140.043     1982.569     1824.028     78.44115     156.2644     311.9401      1.914     4.66      836.313     54.98451     149.0266        17     1.468     0.959 -30.45   0
       351    158.9656    404.8828 307.8601784  +6.5127493     1919.218     3693.161     4062.173     78.19409     156.0166     311.8781      2.045     6.04     837.8149     54.98451     284.0051        26     1.807     0.951 -44.35   0
       352    554.6693    403.7885 307.6958785  +6.5264531     840.8288     1307.346      1110.35     77.69762     155.8304      311.816      1.625     5.15     832.3588     54.98451     116.7676        10     1.331     0.563 -31.53   0
       353    382.3362    399.8360 307.7675829  +6.5223201     1766.662     3074.969     3773.661     78.07027     155.9545     311.9711      1.878     4.45     833.0009     54.98451     244.6937        21     1.578     0.806 -38.83   0
       354    971.1265    399.0901 307.5230712  +6.5422825     958.1542     1791.121     2185.496     78.19409     156.2644     311.9711      2.229     5.37     829.6028     54.98451     123.1143        12     1.361     0.773 -55.24   0
       355    270.6064    400.1222 307.8139749  +6.5184590     678.9373     1108.986     1001.292     77.82203     155.5197     311.7229      1.655     4.53     835.2753     54.98451     90.44067         7     0.898     0.650 -19.41   0
       356      1.6296    399.7021 307.9256923  +6.5096043      618.469      754.034     733.6746     71.87635     128.2448     239.8031      1.246     4.12      841.686     54.98451     93.52295         6     0.921     0.526 -46.62  24
       357    436.1820    393.3835 307.7454372  +6.5267865     5987.062     10731.49     11687.67     77.94624     155.7062     311.8781      1.900     4.73     832.3651     54.98451     821.0974        41     1.842     1.150 -39.40   0
       358     32.5419    394.0428 307.9130459  +6.5129796     2714.716     5042.261     5972.767     78.07027     155.9545     311.9711      2.114     5.19      840.395     54.98451     387.5367        28     1.795     0.966 -34.45   0
       359    776.8452    390.8074 307.6040393  +6.5392301     10668.19     18362.24     20298.41     77.69761     155.8304     311.5988      1.864     4.41     832.0536     54.98451     1443.592        49     1.917     1.056 -33.56   2
       360    768.8707    392.3176 307.6073007  +6.5383406     1597.794     2732.694     3013.694     78.44115     156.3263     311.9711      1.816     5.41     832.0701     54.98451     256.5266        19     1.654     0.738 -36.69   3
       361    339.7743    389.1437 307.7856187  +6.5253093     883.3135     1543.999     1532.173     77.82203     156.0166     311.7539      2.040     5.68     832.9141     54.98451     135.0219        10     1.301     0.700 -53.28   0
       362   1020.8169    385.9171 307.5028731  +6.5493748     2828.649     5138.401      5168.98     77.82203     154.6463     275.7921      1.859     4.68     828.0318     54.98451     399.3818        28     1.728     0.929 -32.51  24
       363    185.3882    381.5377 307.8499917  +6.5232743     550.0296     797.5635     428.9016     77.69762     155.8304     311.7229      1.390     4.58     837.0488     54.98451     86.25452         6     1.200     0.498 -62.12   0
       364    484.3877    377.0215 307.7259662  +6.5351547     2629.637     4579.646     4625.484     77.82203     155.7683      311.816      1.815     5.10     830.9554     54.98451     347.9009        25     1.849     0.810 -36.09   0
       365    456.7664    377.6362 307.7374172  +6.5339770     1814.151     3505.632      3258.02     77.94624     155.7683     311.6919      1.978     5.38     831.3227     54.98451     265.7446        24     1.731     0.936 -28.37   0
       366    913.4700    376.3775 307.5477773  +6.5497408     690.7993     987.1071     1040.159     77.82203     155.9545     311.9091      1.594     5.43     829.9469     54.98451     105.6838         9     1.204     0.690 -36.89   0
       367    842.2706    373.6948 307.5774388  +6.5484766     26783.79     48404.06     53343.12     78.07027     156.0786     311.9401      1.976     4.61     831.0254     54.98451     3478.379        73     2.008     1.242 -38.99   0
       368    334.6530    369.3063 307.7884128  +6.5333281     637.7135     1132.565     791.6815     78.07027     155.9545     312.1881      1.901     5.06     832.2427     54.98451     102.0421         9     1.411     0.513 -33.98   0
       369    613.9689    366.1075 307.6725143  +6.5439922     2217.283     3947.372     4672.817     78.31772     155.8304     311.9401      1.919     4.94     830.6283     54.98451     337.5716        24     1.732     0.873 -33.60   0
       370     22.3605    365.9090 307.9182233  +6.5242529     929.7247     1741.691     1789.554     78.19409     155.9545     311.9711      2.059     5.61     839.4499     54.98451     123.3831        12     1.283     0.692 -27.99   0
       371    698.7054    359.6619 307.6375366  +6.5494827     65764.52     114477.5     124751.4     78.07027     156.0786     311.9711      1.899     4.63     830.6222     54.98451     9440.524        94     2.008     1.218 -33.09   0
       372    856.8687    361.2159 307.5717932  +6.5541154      976.316     1670.842     1821.981     77.69761     155.9545      311.847      1.612     5.69     830.5389     54.98451     146.0477        12     1.425     0.641 -52.15   0
       373     77.9253    359.1451 307.8953756  +6.5289121     1210.851     2028.865     2573.393     78.07027     155.9545     311.9091      1.901     4.81     838.2188     54.98451     151.9316        14     1.248     0.858 -33.37   0
       374    561.1774    356.4065 307.6947657  +6.5462336     2192.616     4040.779     4046.839     77.69762     155.8304      311.785      1.930     5.21      829.939     54.98451     323.9769        30     1.870     0.981 -33.48   0
       375    939.6601    357.1764 307.5375415  +6.5585408     636.5414     855.5209     372.3148     77.82203     155.9545      311.816      1.692     4.26      828.801     54.98451     84.30316         6     1.224     0.422 -57.43   0
       376     98.4369    355.0551 307.8869950  +6.5312896     5006.252     8932.564     9939.463     78.07027     156.0166     311.9711      1.955     4.54     837.8482     54.98451     679.8605        42     1.901     1.119 -33.33   0
       377    544.4634    352.5885 307.7018356  +6.5472513     5766.069     10334.02     11542.86     77.69762     155.8304     311.7539      1.944     4.78      829.713     54.98451     767.8007        44     1.925     1.067 -35.08   0
       378    759.9298    354.4156 307.6122836  +6.5536915     550.1121     976.1415     1333.248     77.69761     155.9545      311.847      2.464     3.97      830.704     54.98451     99.32721         5     0.921     0.490   3.99   0
       379    273.0397    350.3794 307.8146384  +6.5390779     2104.075     3955.422     4103.941     77.82203     155.8304     311.6919      1.981     5.54     833.8576     54.98451      268.281        29     1.872     1.013 -37.10   0
       380    407.3364    347.7020 307.7589524  +6.5446818      20866.9     37539.51     41377.34     78.07027     156.0786     311.9711      1.966     4.71     830.5215     54.98451     2680.069        67     1.977     1.203 -33.84   0
       381    514.4761    346.6950 307.7144882  +6.5486821      1089.78     1934.408     2349.795     77.94624     156.2025     312.0021      1.904     5.54     829.3909     54.98451     128.3868        12     1.311     0.659 -51.78   0
       382    387.1113    346.0288 307.7674086  +6.5446956     930.9713     1909.972     3091.083     78.31772     155.7683      311.847      2.116     5.47     830.5878     54.98451     136.2517        13     1.662     0.700 -49.89   0
       383    486.3612    343.1923 307.7262827  +6.5491880     1086.693     1952.598     2460.705     77.44818     155.7683     311.6608      2.065     6.05     829.2252     54.98451     147.5876        14     1.500     0.774 -27.65   0
       384    801.7758    340.2150 307.5953787  +6.5609501      763.746     1441.709      1344.63     77.94624     155.8304     311.8781      1.854     4.25     830.2548     54.98451     118.2886         9     1.102     0.694 -63.60   0
       385    496.4493    338.0822 307.7222644  +6.5516352     6986.892     12402.85      13987.6     78.19408     156.0166     311.9711      1.961     4.66      828.955     54.98451     893.9188        40     1.862     1.041 -35.54   0
       386    921.0629    336.6967 307.5459506  +6.5663773     775.9086     1702.919     1493.388     78.07027     156.1405     312.0021      2.040     7.31     828.4982     54.98451     121.9096        14     1.718     1.058 -45.84   0
       387    765.4535    336.9735 307.6105735  +6.5610773     2642.032     4670.152     5126.299     77.94624     156.1405      311.847      1.975     4.36     829.9819     54.98451      342.356        26     1.638     0.951 -37.15   0
       388    586.2587    346.5847 307.6846782  +6.5511270     516.2519     632.5927     669.0925       77.573     155.9545     311.6919      1.405     3.52     829.5315     54.98451     85.57483         5     0.799     0.448 -18.10   0
       389    712.9943    336.9187 307.6323641  +6.5593498     567.4857     845.0367     801.4305     77.82203     155.5819     311.7229      1.687     4.45     829.7808     54.98451     108.1833         6     1.189     0.474 -34.23   0
       390    322.7716    335.3134 307.7944908  +6.5469648     754.2747     1336.603     1434.186     78.31772     155.7062      311.816      1.774     4.72     831.6863     54.98451     114.7571         9     1.278     0.495 -49.38   0
       391    158.9905    328.8007 307.8627315  +6.5441618     746.8994     1482.044     1655.186       77.573     155.7062     311.6919      1.753     5.42     837.3069     54.98451     117.7471         9     1.337     0.620 -52.32   0
       392    386.3203    322.2325 307.7685372  +6.5544939     6103.089     10938.24     11986.54     78.07027     156.0166     311.9091      1.951     4.61     830.2452     54.98451     806.6058        40     1.891     1.087 -31.45   0
       393    242.2259    322.7024 307.8283677  +6.5494718     1699.187     3173.175     3587.589     78.31772     155.7683      311.847      1.959     5.19     834.0678     54.98451     257.4821        22     1.738     0.871 -32.69   0
       394    754.1814    318.2354 307.6158830  +6.5684379     43741.16     76916.19      84270.7     77.69761     155.8304     311.7229      1.885     4.59     829.1157     54.98451     6247.336        84     2.002     1.197 -34.93   0
       395    740.0422    321.8521 307.6216346  +6.5664730     822.0248     1349.891     2054.235     78.19409     156.0786     311.9711      2.147     4.79     829.2605     54.98451     112.0777        10     1.165     0.620 -30.77   0
       396    425.9132    317.6315 307.7522476  +6.5577189     1914.249     3546.854     3786.733     78.31772     155.8304     311.8781      1.903     4.95     829.5907     54.98451     253.6648        27     1.728     1.000 -41.15   0
       397    988.9120    315.3860 307.5184814  +6.5774347       1436.2     2358.298     2313.535     77.94624     155.8304      311.816      1.743     4.54     826.3428     54.98451     192.6926        16     1.413     0.795 -36.39   0
       398    929.8525    314.4267 307.5430444  +6.5758649     1995.342     3464.194     3550.548     77.82203     156.1405     311.8781      1.818     4.82     827.4076     54.98451     257.4277        20     1.554     0.857 -39.40   0
       399    571.9170    315.0361 307.6916935  +6.5636735     1101.997     1977.386     1992.272     78.19409     155.9545     311.8781      2.083     6.45     827.5175     54.98451     171.4406        15     1.929     0.606 -32.60   0
       400    462.5728    314.1204 307.7371394  +6.5603953      864.856     1615.741     2259.914     78.07027     155.9545     311.9401      1.981     5.65     828.3837     54.98451     134.2048        11     1.440     0.625 -45.51   0
       401    292.4435    312.7204 307.8078470  +6.5552765     608.9565     860.3064     427.9789     78.19409     156.0166     311.9091      1.534     4.43     831.8917     54.98451     100.8101         5     1.325     0.422 -57.73   0
       402    833.6750    307.8673 307.5832121  +6.5753692     930.0783     1785.841     2578.845     78.31772     156.1405     311.9401      2.163     6.26     828.4559     54.98451     143.6084        12     1.448     0.761 -36.68   0
       403    412.3148    313.1115 307.7580473  +6.5591300     1685.704     3032.227     3087.142     77.94624     156.2644     312.0331      1.971     4.33     829.8007     54.98451     233.3173        20     1.597     0.793 -39.91   0
       404    442.6433    304.7258 307.7457326  +6.5636073     972.0493     1659.561     1637.796     78.07027     156.0786     311.9711      1.994     5.44     828.6955     54.98451     167.0067        13     1.509     0.662 -39.00   0
       405    188.8154    304.7554 307.8511547  +6.5550901      1711.53     3136.567     3180.156     77.69762     155.8304     311.7229      1.899     5.28     835.9001     54.98451     212.0238        21     1.616     0.907 -43.02   0
       406    752.7474    302.7570 307.6169972  +6.5747808     4928.714     8566.266     9306.334     78.19409     156.0166     311.9711      1.891     4.58     828.4647     54.98451     697.4634        36     1.857     0.974 -37.12   0
       407     84.4815    302.2500 307.8945713  +6.5526222     940.9827     1668.934     2096.978     78.19409     156.0786     311.9711      1.906     6.35     837.8343     54.98451      111.829        12     1.237     0.915 -50.58   0
       408    768.9014    300.8247 307.6103522  +6.5761174     2199.693     4012.295     4769.301     78.31771     155.7683      311.816      2.087     4.71     828.3729     54.98451     273.7186        24     1.618     0.969 -39.45   0
       409     72.2029    295.8359 307.8998871  +6.5548580     1194.684     2217.444     2350.505     77.32317     155.8304     311.7539      2.030     5.55     838.0231     54.98451     143.2524        17     1.513     0.909 -46.67   0
       410    358.4378    295.4425 307.7810186  +6.5646211     1673.056     3542.773     4043.855     77.94625     156.0166      311.816      2.227     7.92     830.2976     54.98451     174.0442        27     1.888     1.010 -20.56   0
       411    485.3369    291.5383 307.7284431  +6.5704804      1702.56       2920.9     3044.279     78.19409     156.0166     311.9711      1.875     5.87      826.748     54.98451     228.5452        25     1.770     0.925 -39.90   0
       412   1007.4206    291.5520 307.5115900  +6.5878912     4645.315     8318.771     8978.905     77.82203     156.0166     311.7539      1.903     5.14     825.5625     54.98451     635.0685        35     1.843     0.979 -34.21   0
       413    247.8880    286.9442 307.8272199  +6.5644250      4853.37     8552.642     9777.418     78.19409     155.8925     312.0951      1.919     4.86     832.9701     54.98451     603.5712        36     1.827     1.036 -36.97   0
       414    938.6052    281.9873 307.5404936  +6.5895501     432.4064     840.2342     878.6271     77.82203     155.7683      311.816      1.733     3.90     826.0182     54.98451     89.18024         5     1.359     0.320 -39.11   0
       415    766.7475    280.5583 307.6119256  +6.5844132     719.5867     1248.867     1437.381     78.19409     156.0786     311.9401      1.943     4.27     827.6216     54.98451     107.3083         7     1.103     0.472 -48.77   0
       416    968.9316    277.0885 307.5280606  +6.5925822     842.6133     1569.255     1822.902     78.31772     156.2644     311.9091      2.075     6.91     825.5251     54.98451     117.5626        12     1.896     0.707 -45.60   0
       417    382.2061    277.7427 307.7717418  +6.5727248     1275.531     2429.496     2825.586     77.69762     155.8925     311.6608      2.086     6.61      829.531     54.98451     168.8157        20     1.656     0.857 -39.55   0
       418    151.9348    273.4492 307.8675271  +6.5667777     1568.419     2769.656     2898.777     78.07027     155.8925     311.9091      1.844     5.02      836.544     54.98451     237.5781        17     1.583     0.748 -42.90   0
       419    304.6050    273.5002 307.8041157  +6.5718769     989.8901     1655.168     1505.595     77.94625     155.6441     311.5988      1.777     4.90     830.7794     54.98451     155.7991        11     1.384     0.617 -30.77   0
       420    561.0498    269.5536 307.6977337  +6.5820889     1678.586     2977.889     3012.097     78.19408     155.8925     312.0021      1.914     5.18     825.5245     54.98451     260.1225        20     1.623     0.815 -40.96   0
       421    904.7935    268.5837 307.5549863  +6.5939583     1453.947     2676.537     3043.658     77.82203     155.7683      311.785      2.099     5.39     825.9329     54.98451     196.7234        21     1.549     1.031 -30.22   0
       422    725.1369    266.9312 307.6296658  +6.5886515     4088.127      7163.22     8050.806     78.19409     156.0166     312.0021      1.906     4.75     827.1827     54.98451     575.5836        35     1.919     1.041 -28.88   0
       423    962.0688    267.1661 307.5312429  +6.5964506     693.7789     1222.073     1189.477     78.07027     156.0166     312.0021      1.778     5.92     825.2229     54.98451     101.8967         8     1.207     0.817 -51.85   0
       424    666.0754    266.7576 307.6542038  +6.5867518     1794.882     3181.061     3664.346     78.07027     156.0786     311.9711      2.000     4.71     826.6104     54.98451     247.6974        21     1.530     0.856 -39.33   0
       425    380.4155    261.4466 307.7730334  +6.5793930     576.7415     1009.767     623.5438     77.69762     155.8304     311.6919      1.855     6.16      829.115     54.98451     85.82324        10     1.957     0.545 -37.67   0
       426    921.3986    259.0645 307.5484073  +6.5984416     866.2233     1454.165     1477.484       77.573     155.7683     311.7229      1.818     5.32     825.2606     54.98451     122.5276        11     1.209     0.661 -39.06   0
       427    224.3952    252.1068 307.8381505  +6.5780204     1930.222     3186.215     3598.655     77.82203     155.7062     311.6919      1.803     4.68     834.0913     54.98451     243.5271        19     1.463     0.847 -37.10   0
       428    867.0822    251.1684 307.5712334  +6.5998925     1443.858     2245.515     2624.677     78.07027     155.8304      311.847      1.676     4.74     825.7907     54.98451     209.8392        16     1.500     0.740 -26.93   0
       429    757.6376    250.6310 307.6167121  +6.5964658     1222.551     2086.283     1974.253     77.82203     155.7683      311.785      1.817     5.37     826.8275     54.98451     202.7643        15     1.403     0.771 -43.75   0
       430    786.2848    245.1975 307.6049947  +6.5996646     3350.869     3547.573     3392.397       77.573     155.6441     311.6608      0.900     2.82     826.6513     54.98451     895.1252         5     0.859     0.345 -50.54   3
       431    784.4127    241.2477 307.6059047  +6.6012330     11071.35     19608.98     21971.36       77.573     155.8925     311.6608      1.941     4.59     826.5474     54.98451      1548.28        57     2.022     1.146 -32.20   2
       432    319.5251    243.1039 307.7989414  +6.5849266     587.6429     718.1057     398.7719     77.94624     156.2025     311.9711      1.464     4.25     830.3024     54.98451     106.5473         7     0.910     0.585   7.69   0
       433    723.1285    237.3111 307.6314927  +6.6008140     726.0381     1125.076     1187.202     78.19409     156.2644     311.9401      1.526     4.41     826.1857     54.98451     113.4302         8     1.075     0.611 -84.24   0
       434    146.5820    235.4715 307.8710303  +6.5822777     1977.101     3590.534      4234.72     77.69762     155.9545     311.8781      1.991     5.12     835.5346     54.98451     288.4146        23     1.614     0.908 -36.88   0
       435    120.7912    234.6133 307.8817713  +6.5817662     849.6317     1720.994     1761.413     77.94624     155.7683      311.847      2.091     7.19     836.5563     54.98451     119.5408        15     1.609     0.899 -43.49   0
       436    920.7645    231.5785 307.5495900  +6.6097690     1209.362     2064.174     2214.289     77.69762     155.7683     311.6919      1.858     6.30     824.1088     54.98451     172.9369        17     1.867     0.696 -35.60   0
       437    458.7310    241.7906 307.7411652  +6.5901298     18396.24     33290.55     37863.74     77.69762     155.8304      311.816      2.023     4.96     825.4938     54.98451     2431.251        75     2.439     1.157 -40.30   0
       438    582.4681    227.7679 307.6902396  +6.6000571     3748.397     6775.266     7109.705     78.07027     156.0166     311.9091      1.907     5.10     824.5891     54.98451     521.2887        33     1.869     0.971 -34.64   0
       439    302.7532    228.6122 307.8063954  +6.5903477     893.2549     1576.469     1259.358       77.573     155.8304     311.6608      1.849     5.96     830.6401     54.98451     128.9155        13     1.714     0.582 -39.36   0
       440    943.4409    225.2395 307.5403825  +6.6131413     2244.916     3799.328     3476.945     77.94624     156.1405      311.816      1.828     5.04     823.6722     54.98451     319.7208        28     1.889     1.082 -46.82   0
       441    618.9894    229.5131 307.6750110  +6.6005567     472.9584     934.9278     1212.243     77.82203     155.7683      311.785      1.928     3.73     824.6248     54.98451     72.09137         6     1.361     0.294 -17.70   0
       442    545.2648    227.6508 307.7056968  +6.5988619     1788.133     3051.955     2937.462     78.19409     155.9545     311.9711      1.852     5.48     824.6614     54.98451     226.1249        22     1.705     0.903 -35.51   0
       443    387.3233    226.6020 307.7713359  +6.5940106     1236.886     2205.534     2204.143       77.573     155.5197      311.785      1.931     6.47     827.9203     54.98451     153.5162        16     1.659     0.709 -36.83   0
       444    889.5593    224.4233 307.5627916  +6.6116840     9345.341     15935.75      17686.6     77.82203     155.8304     311.7229      1.877     4.58     824.2919     54.98451     1397.366        43     1.889     1.022 -32.05   0
       445    317.6445    224.5988 307.8003452  +6.5925037      775.507     1476.639     1711.971       77.573     155.6441     311.5367      2.372     5.58     830.2088     54.98451      108.551         9     1.226     0.715 -72.33   0
       446    976.1391    222.3489 307.5268966  +6.6154232     8043.237     14176.44     15381.19     78.19409     155.9545     311.9401      1.930     4.39     823.5202     54.98451     1180.489        49     1.905     1.144 -37.20   0
       447    565.1075    224.1757 307.6975713  +6.6009600     693.0457     1466.036     1109.447     78.31771     155.7683      311.785      2.097     6.66     824.5223     54.98451     117.8439        11     1.568     0.793 -35.26   0
       448    208.7658    224.6620 307.8455665  +6.5888272     554.7645      957.361     867.3293     78.07027     156.0786     311.9091      1.760     5.17     834.2047     54.98451     81.20056         6     1.127     0.669 -86.47   0
       449     15.7344    220.8986 307.9258684  +6.5838992     20700.88      37469.3     41238.15     78.19409     156.0786     311.9711      1.977     4.74     838.7496     54.98451     2558.781        71     2.034     1.214 -33.58   0
       450    262.1610    221.9645 307.8234794  +6.5917316     971.3231     1723.458     1706.874     77.94624     155.8925     311.7539      1.898     6.25     832.2847     54.98451     154.8768        13     1.573     0.697 -54.16   0
       451    687.5880    222.0911 307.6467656  +6.6059118     2211.851     3871.213     4542.026     77.94624     155.7683     311.7539      1.957     5.21     824.8677     54.98451      321.415        25     1.799     0.833 -35.07   0
       452    496.0927    217.1292 307.7264749  +6.6015618     1705.384     3114.004     3250.356     78.07027     156.1405     311.9711      1.941     4.68     823.7002     54.98451     254.9288        20     1.606     0.797 -39.30   0
       453    880.4090    212.9306 307.5669771  +6.6161242     1660.928     2978.619     3568.042     77.69761     155.7062      311.816      2.071     5.09     823.8572     54.98451     259.0264        25     1.699     1.012 -37.42   0
       454    828.2869    213.6935 307.5886026  +6.6140723     1743.916     2911.594     2828.111     78.19409       156.45     312.0331      1.753     4.55     824.8154     54.98451     217.5641        21     1.536     0.855 -40.41   0
       455    508.2541    212.9118 307.7215650  +6.6037097      2032.91     3569.326         4229     78.19409     155.8925     312.0641      1.873     5.12     823.6981     54.98451     253.7931        25     1.737     0.898 -35.55   0
       456    739.7474    210.3659 307.6254924  +6.6124936        32894     57225.71     62419.43     78.07027     156.0166      311.847      1.891     4.69     825.3394     54.98451     4778.437        74     1.958     1.190 -32.67   0
       457    342.8835    209.6598 307.7903644  +6.5995172     5020.839     11278.95     13195.65     78.31772     156.0786     311.9711      2.417     6.64     829.1279     54.98451     520.8532        55     2.251     1.340 -53.67   0
       458    973.6413    209.0665 307.5283782  +6.6208242     2409.486      4034.41     4020.202     78.19408     155.9545     312.0021      1.770     4.77     822.8647     54.98451     333.0943        24     1.684     0.866 -36.19   0
       459    907.5669    207.4813 307.5558782  +6.6192788     6178.484     10899.19     11940.91     78.07027     155.9545     311.9401      1.926     4.80     823.1334     54.98451     861.1917        42     1.916     1.080 -38.53   0
       460   1012.1432    207.5749 307.5124344  +6.6227212     1269.728     2349.051     2526.335     77.82203     156.0166     311.7539      1.917     5.32     822.7548     54.98451     172.0778        16     1.690     0.662 -30.33   0
       461    451.1019    206.3997 307.7455233  +6.6044865      4112.04     7317.248     8168.065     77.69761     155.6441     311.5677      1.905     4.89     824.3906     54.98451     520.4727        32     1.818     0.992 -33.67   0
       462    108.5285    197.8084 307.8881055  +6.5965498      3799.98     7038.364     7748.181     77.69762     155.5819      311.816      1.998     5.09     836.2007     54.98451     465.8752        35     1.932     0.986 -33.66   0
       463    927.5923    197.2848 307.5479008  +6.6241556     751.1116     1219.273     1837.672     77.82203     155.7062      311.785      2.068     4.32     822.3874     54.98451     145.8348         8     1.134     0.741 -35.78   0
       464    278.8316    194.4640 307.8174809  +6.6036446     27716.22     49700.16     55099.89     77.94624     156.0786     311.9091      1.948     4.84     831.4249     54.98451     3679.135        71     1.992     1.205 -34.37   0
       465    254.0549    195.5888 307.8277344  +6.6023494     5310.804     9667.025     10749.44       77.573     155.9545     311.6298      1.944     4.91     832.4678     54.98451     647.7006        38     1.936     1.008 -36.89   0
       466    605.1165    195.8969 307.6819015  +6.6139726     601.0651     1036.668     1131.093     78.19409     156.3882     312.0021      1.859     4.61     823.8233     54.98451     93.19897         7     1.209     0.500 -51.30   0
       467    708.1041    194.1424 307.6391804  +6.6181360      717.816     1285.967     1466.792     78.07027     156.0166     312.0951      1.945     6.57      824.236     54.98451     89.92712        12     1.579     0.768 -47.95   0
       468    402.9091    189.9743 307.7660936  +6.6096550     40617.28     73011.94     80532.51     78.31772     155.7683      311.785      1.971     4.72     825.6635     54.98451     5280.924        81     2.024     1.246 -35.88   0
       469    158.8157    191.2234 307.8674403  +6.6009567     3303.275      5888.04     6079.662     77.94624     155.8304      311.847      1.887     4.64     834.3638     54.98451      501.924        33     1.784     1.004 -35.25   0
       470    419.8606    190.3721 307.7590389  +6.6100582       1210.6     2265.196     2250.627     77.82203     156.0786      311.847      1.938     5.01     824.8582     54.98451     187.9512        17     1.462     0.895 -23.05   0
       471    307.6841    187.6550 307.8057256  +6.6074228     14049.24     27171.18     32961.44     78.19409     156.0166     312.0951      2.273     5.78     830.1505     54.98451     1913.661        92     2.901     1.407 -11.29   0
       472    742.2185    186.2270 307.6252748  +6.6225425     27598.17     47997.79     52590.12     77.82203     155.8304      311.847      1.879     4.55     824.0496     54.98451     3770.076        67     1.927     1.173 -33.62   0
       473    791.0515    186.5168 307.6049800  +6.6240516     985.8611     1574.849     1958.494     78.19408     155.9545     312.0331      1.662     4.51     823.4297     54.98451     159.4825        13     1.335     0.722 -32.38   0
       474    690.4306    187.5048 307.6467443  +6.6202866     776.0512      1160.89     1043.429     78.31772     155.7683     311.9711      1.704     3.87     823.8678     54.98451     116.3223         7     0.991     0.597  22.48   0
       475     58.9802    183.3584 307.9091730  +6.6008513     7243.092     13408.12     15243.44     77.69761     155.8304     311.7539      2.013     4.78     837.7468     54.98451     973.3806        50     1.994     1.138 -34.91   0
       476     92.8752    181.6459 307.8951522  +6.6026969     1293.199     2184.596     2267.464     78.07027     156.0786     311.9711      1.891     5.85     836.2841     54.98451     176.8824        18     1.575     0.827 -45.86   0
       477   1001.0350    180.4522 307.5179552  +6.6335502     897.9459      1641.14     2005.155     78.07027     156.0166      311.847      2.115     5.41     821.2892     54.98451     131.1392        13     1.377     0.757 -24.97   0
       478    969.3088    179.4239 307.5311689  +6.6329189     503.2251     656.3792     459.5849     78.19409     155.8304      311.785      1.535     3.47     821.3718     54.98451     81.05322         5     1.078     0.322 -21.37   0
       479    575.6309    171.1822 307.6949788  +6.6231914     729.2667     911.0654     1079.009     77.82203     155.8304      311.816      1.509     4.41     822.8016     54.98451     103.7903         8     1.088     0.508 -33.32   0
       480   1001.5247    166.9733 307.5182023  +6.6391317     1816.614     3447.422     4248.082     78.07027     155.9545     311.9091      1.993     5.98     820.5955     54.98451     223.7719        22     1.613     0.920 -45.25   0
       481    584.3837    164.5797 307.6915646  +6.6262099     826.3605     1467.168      1748.95     77.94625     155.8304      311.847      2.014     5.84     822.7515     54.98451      111.912        15     1.527     1.045 -57.35   0
       482    592.7374    162.7017 307.6881575  +6.6272644     1719.028     2927.181     3152.308     77.94624     156.1405     312.0021      1.864     4.46     822.8588     54.98451     275.1254        21     1.537     0.888 -37.24   0
       483    336.8458    162.9283 307.7944445  +6.6186089     892.0216      1506.14     1300.182     78.19409     156.0166     311.9401      1.755     5.90     828.2595     54.98451     123.3514        12     1.335     0.735 -46.98   0
       484    277.6946    160.7784 307.8190871  +6.6175141     25387.24      45139.9     50446.38     78.07027     155.8304      311.785      1.946     4.64     831.3889     54.98451     3197.674        73     2.070     1.201 -31.95   0
       485     22.8648    159.1953 307.9249892  +6.6096136     3601.643     6403.382     6933.189       77.573     155.7062     311.7229      1.882     4.70     839.6238     54.98451      469.408        32     1.767     0.976 -36.44   0
       486    709.4133    157.3593 307.6398695  +6.6333666     6709.615     11780.18     12906.95     77.69762     155.8304     311.6919      1.891     4.69     822.7856     54.98451     985.5979        40     1.855     1.051 -32.80   0
       487    186.7468    158.3949 307.8569449  +6.6154477     697.4755     1221.915     762.1618       77.573     155.7683     311.6298      1.906     4.41     833.5613     54.98451      109.728         7     1.151     0.481 -39.66   0
       488    120.0935    154.4244 307.8847647  +6.6148497     4060.012     7406.124     8300.821     78.31771     155.7683      311.785      1.973     4.98     834.5928     54.98451     503.8947        36     1.810     1.104 -35.37   0
       489    263.7452    155.4078 307.8250622  +6.6192637     597.9342      1118.64     1060.579     77.69762     155.8304     311.6608      1.819     5.05     831.7922     54.98451     99.80933         8     1.101     0.655 -57.52   0
       490    390.8203    150.7083 307.7724353  +6.6254620     3260.806     6397.565     7218.363     78.07027     155.8304      311.785      2.165     5.04     825.0292     54.98451      378.738        39     1.817     1.278 -46.88   0
       491    459.4005    151.7256 307.7439136  +6.6273375     1052.408     1731.199     1690.092     77.44818     155.3952     311.7539      1.825     6.00     822.3831     54.98451     156.0165        15     1.676     0.696 -28.48   0
       492    582.4131    151.9907 307.6928057  +6.6313417     576.7859     937.1552     1299.417     77.94624     155.7683      311.847      2.240     4.08     822.2946     54.98451      106.882         5     0.980     0.538  16.09   0
       493    648.7012    150.8154 307.6653090  +6.6340415     596.7179     951.5335     878.1239     78.19409     155.7683     311.6608      1.493     3.14      822.684     54.98451     115.8885         5     0.908     0.353 -44.60   0
       494    355.3051    149.3415 307.7872339  +6.6248368      2624.13     4536.383      5078.04     78.07027     156.0166     312.0641      1.848     4.90     827.1555     54.98451     338.4214        28     1.749     0.918 -39.16   0
       495    567.0056    149.6673 307.6992840  +6.6317861     612.4954     959.8582     1037.892     77.69761     155.7062     311.7539      1.944     4.24     821.9981     54.98451     89.82727         7     1.195     0.429 -55.42   0
       496    109.6604    149.1938 307.8892747  +6.6166588     1474.797     2660.939     3044.501       77.573     155.8925     311.7229      1.934     7.14      834.572     54.98451     179.3527        18     1.593     0.895 -31.56   0
       497    671.1871    146.6662 307.6561074  +6.6365055     554.1739      946.969     840.8188     77.69762     155.8304      311.847      1.669     5.00     822.5128     54.98451     87.63617         6     1.080     0.654 -18.37   0
       498   1001.9651    143.5327 307.5188028  +6.6488245     1124.708      2065.23     1875.267     78.07027     156.0786     312.0331      1.567     5.04      819.076     54.98451     189.9721        14     1.520     0.656 -46.29   0
       499    207.1998    138.3127 307.8491258  +6.6244252     4411.157     8009.358     8931.498     77.44818     155.5197     311.6298      1.963     4.60     832.6001     54.98451     571.2992        36     1.842     1.056 -33.12   0
       500    668.9082    137.1909 307.6573718  +6.6403415     5185.389     8963.884     9526.467     77.82203     155.7062     311.6919      1.845     4.57     822.0848     54.98451     765.7272        36     1.810     0.984 -31.42   0
       501     89.7533    137.8954 307.8979245  +6.6206549     1961.229     3432.777     3654.672     78.07027     155.9545     312.0951      1.841     4.45      834.815     54.98451     273.2108        23     1.484     0.970 -40.44   0
       502    817.6121    136.6854 307.5956154  +6.6455116     915.4146     1487.927     1887.876     77.82203     155.7683      311.785      1.757     5.02     820.5793     54.98451     131.7811        12     1.369     0.674 -26.53   0
       503    621.1517    134.3675 307.6773050  +6.6399123     7804.322     13939.31     15224.06     77.94624     156.0166     311.8781      1.945     4.60     821.9565     54.98451     1081.605        45     2.001     1.049 -34.79   3
       504    624.6646    125.9207 307.6761291  +6.6435171     44267.24     77278.02     84309.84     78.44115     156.0786     311.9091      1.902     4.51     821.6141     54.98451     5791.609        83     2.022     1.195 -34.16   2
       505    254.8809    135.1897 307.8294251  +6.6273138       643.97     1141.538     1185.284     77.82203     155.7062      311.785      1.911     5.00     831.7358     54.98451     98.95398         7     1.177     0.601 -15.99   0
       506     19.4192    133.5549 307.9272858  +6.6200835      867.691     1270.264     647.3842     77.82203     155.8925     311.7539      1.768     6.18     839.8128     54.98451     119.4156        12     1.277     0.842 -50.59   0
       507    348.3604    130.0591 307.7907673  +6.6325652     3143.921     5994.713     6517.373     78.19408     156.0786     312.0331      2.059     5.37     827.5576     54.98451      423.272        36     2.016     1.013 -40.62   0
       508    530.0024    129.2512 307.7153406  +6.6389782     1369.806     2438.072     2256.508       77.573     155.6441     311.5367      1.754     5.81     821.3092     54.98451     194.8248        18     1.720     0.789 -29.96   0
       509    995.0164    129.1818 307.5221691  +6.6545185     660.9526     1146.881      1055.23     77.94624     155.7062     311.8781      1.824     6.84     818.0717     54.98451      111.239        11     1.404     0.933 -11.75   0
       510    303.7373    119.4029 307.8096621  +6.6354696     2980.731     5560.255     6038.727       77.573     155.8304     311.6919      2.064     5.21     830.1337     54.98451     369.7246        30     1.860     0.982 -34.05   0
       511    499.6048    116.7967 307.7283863  +6.6431037     517.4781     1064.262     854.6213       77.573     155.5819      311.785      1.688     4.14     821.3114     54.98451     86.07904         5     1.503     0.326 -49.59   0
       512    703.3514    114.2491 307.6438329  +6.6509635      733.653     989.9627     664.7999     78.19409     155.8925     311.9091      1.434     3.22     820.9861     54.98451     151.4656         6     1.012     0.442 -56.30   0
       513      2.7899    102.1990 307.9352516  +6.6324699     660612.6      1194327      1279044     77.82203     142.8074     256.7912      1.950    11.29     841.2333     54.98451     62820.66       321     2.222     1.597 -60.56  28
       514    675.0588    113.3171 307.6556174  +6.6504038     1173.685     1710.798     1205.184     78.31772     156.0786     312.0021      1.534     4.35     821.0502     54.98451      202.868        13     1.335     0.639 -40.93   0
       515    689.0121    109.9381 307.6499342  +6.6522647     2577.965     4507.973     4551.037     77.69762     155.8304     311.6919      1.838     4.49     820.8691     54.98451     326.3539        26     1.693     0.907 -37.37   0
       516    430.8385    100.7612 307.7574912  +6.6474233     3297.363     5917.837     6184.463     77.94624     155.8925      311.816      1.952     4.69     822.7213     54.98451     460.8955        34     1.790     1.111 -30.58   0
       517    903.3228     96.3304 307.5613599  +6.6650295     3218.221     5668.263     6117.027     78.44115     156.2025     311.9091      1.923     5.05     817.0646     54.98451     436.5845        32     1.792     1.015 -36.49   0
       518    885.3227     97.1302 307.5688110  +6.6640997     1687.117     3035.116     3286.667     78.44115     156.2644     311.9091      1.971     4.98     817.4995     54.98451       225.13        20     1.636     0.853 -40.59   0
       519    583.7551     96.5776 307.6941082  +6.6542652     658.9409     1037.874     1317.926     77.69762     156.0166      311.785      1.731     4.67     820.4506     54.98451     104.5847         8     1.188     0.521 -22.08   0
       520    595.4056     94.7412 307.6893299  +6.6554127     1481.226      2656.76     2639.197     77.69762     155.8925     311.7229      1.910     5.34     820.3433     54.98451     216.0931        17     1.632     0.728 -33.50   0
       521    240.9406     93.9020 307.8366062  +6.6438925     729.8619     1254.686     1971.901     77.94624     155.9545     312.0641      2.010     5.26     831.1324     54.98451     115.1776        10     1.563     0.500 -39.08   0
       522    394.2207     92.6365 307.7729757  +6.6495518     1600.289     2972.249     2622.809     77.82203     155.7683     311.6919      1.983     5.30     824.5792     54.98451     208.0978        23     1.735     0.896 -31.65   0
       523    142.0355     89.5523 307.8778376  +6.6423695     2547.852     4664.043     4714.038     77.82203     155.9545     311.8781      1.941     5.10     831.3359     54.98451     349.4137        29     1.848     0.921 -34.22   0
       524    290.8562     87.7210 307.8160794  +6.6481181     891.7185     1572.298     2376.031     78.31772     156.0166     311.9401      2.792     7.32      830.916     54.98451     105.8455        15     1.620     0.926 -40.77   0
       525    770.7845     82.4138 307.6168865  +6.6663576     2651.188       4834.7     4934.855     77.94624     155.7062     311.8781      1.924     4.69     819.3729     54.98451     372.5477        27     1.724     0.988 -38.54   0
       526     23.9188     87.4367 307.9269734  +6.6392750     10211.74     18479.68     21007.95     78.19408     156.0786     311.9091      2.005     4.69     838.2224     54.98451      1327.75        53     1.968     1.163 -33.99   0
       527    825.7531     81.9609 307.5940659  +6.6683775     5032.148     8655.247     9788.271     78.07027     156.0166     311.7539      1.846     4.57     818.5076     54.98451     676.1046        38     1.869     1.006 -33.63   0
       528    415.8091     83.3787 307.7643189  +6.6540969     987.1843     1425.104     1266.072     77.82203     155.7683     311.7539      1.505     4.42      823.156     54.98451     134.9186        10     1.228     0.660 -52.50   0
       529    533.4067     80.2133 307.7155733  +6.6593384      888.692     1685.353     1793.897     77.82203     155.8304      311.816      1.910     5.67     820.1103     54.98451     137.4653        12     1.658     0.546 -39.87   0
       530     64.2778     79.1940 307.9104869  +6.6440344     2504.719     4571.876     4513.018     77.82203     155.5197     311.7229      1.874     4.94     834.3738     54.98451     317.5016        30     1.768     1.015 -37.00   0
       531     48.7872     80.3128 307.9168838  +6.6430519     800.0164     1319.971     738.8768     77.82203     155.8304      311.847      1.604     5.12     835.5789     54.98451     120.8094         9     1.216     0.610 -51.26   0
       532    425.4431     78.4198 307.7604835  +6.6564668     757.8871     1412.345     1335.274     77.69762     155.8925      311.785      2.026     4.38     822.8247     54.98451     117.2582         7     1.320     0.413 -34.69   0
       533    587.9686     75.9309 307.6930508  +6.6629304     1027.473     1946.529     2086.812     78.07027     156.0166     311.9401      1.933     5.47     819.6628     54.98451     169.3807        12     1.458     0.688 -31.01   0
       534      6.6596     74.7579 307.9345706  +6.6439292     2108.201     3847.951     5053.981     78.19409     156.0166     301.8845      2.048     5.28     838.1625     54.98451     310.4594        26     1.812     0.887 -32.82  16
       535    765.5759     69.8730 307.6194705  +6.6713616     1560.914     2902.991     2903.681     77.82203     155.8304     311.8781      1.942     5.23     818.9011     54.98451     209.3649        21     1.662     0.858 -39.48   0
       536    405.8792     69.8068 307.7689004  +6.6593678     904.7109     1335.007     1325.555     77.82203     155.5197     311.7229      1.554     5.05     823.7857     54.98451     112.0617        12     1.244     0.691 -32.66   0
       537    103.3327     68.7869 307.8946148  +6.6496430     919.1954      1500.74     1186.551     77.69762     155.8304      311.847      1.735     5.12     831.5833     54.98451     149.7648        11     1.245     0.767 -46.85   0
       538     79.3935     70.3703 307.9045056  +6.6481851     689.2273     992.0215     801.1324     77.69762     155.7683     311.7229      1.687     5.19     832.8497     54.98451     77.08545         7     1.043     0.729  -6.23   0
       539     92.1117     63.4845 307.8994548  +6.6514552     7742.143     14354.94     15676.28     77.94624     156.2025     312.0331      2.027     4.70     831.7952     54.98451      962.697        52     1.975     1.173 -33.62   0
       540    421.0943     63.3270 307.7627976  +6.6625525     2012.328     3631.146     3472.079     78.07027     156.1405     311.9401      1.894     5.10     822.9437     54.98451     287.9333        23     1.807     0.784 -35.47   0
       541    634.8085     55.6138 307.6742739  +6.6728838     15305.11     27208.22     29850.09     77.82203     155.7683      311.847      1.935     4.62     818.8696     54.98451     2220.426        59     1.924     1.174 -33.55   0
       542    258.8721     57.4067 307.8303865  +6.6595614      1272.34     2243.769     3294.547     77.82203     155.5819      311.847      2.245     5.01     831.1385     54.98451     175.0352        18     1.458     0.965 -39.61   0
       543    534.7255     51.6164 307.7159858  +6.6711893     4290.588     7649.271     7992.702     77.69762     155.7683      311.816      1.915     4.53     819.0864     54.98451     607.2454        37     1.817     1.072 -32.91   0
       544    252.5989     51.9434 307.8331764  +6.6616066     1555.553     2840.343     3868.502       77.573     155.7062     311.6608      1.926     5.08     831.1493     54.98451     212.5128        20     1.648     0.834 -37.94   3
       545    260.7833     47.6329 307.8299217  +6.6636607     7601.446     13685.34     16278.54     77.82203     155.7683      311.816      2.061     4.78      831.149     54.98451     1021.504        55     2.102     1.133 -35.10   2
       546      2.1880     49.8772 307.9372681  +6.6540510     985.3247     1625.789     1406.116     76.44231     135.7216     248.0917      1.727     5.60     835.2753     54.98451     138.2423        12     1.254     0.725 -43.02  24
       547    621.1749     46.0707 307.6802581  +6.6763684     2254.229     4913.275      5798.03     77.82203     155.8925     311.8781      2.394     5.09     818.5239     54.98451     374.1774        33     1.799     1.598 -80.37   0
       548    440.1938     47.2203 307.7554047  +6.6698418     18978.36     33651.97     36189.07     77.82203     155.7683     311.7539      1.903     4.44     822.1488     54.98451     2534.062        64     1.960     1.174 -33.53   0
       549    917.8394     47.1924 307.5569732  +6.6858010     1576.048     2811.747     2501.788       77.573     155.7683     311.6608      1.824     4.71     816.0014     54.98451     240.6103        19     1.592     0.769 -38.26   0
       550    320.8144     48.0204 307.8049707  +6.6655132     853.2549     1520.527     1678.327     77.94624     155.7062      311.847      2.070     4.76     829.0817     54.98451     148.4802        10     1.201     0.753 -42.19   0
       551     25.8317     47.2537 307.9275351  +6.6559290     1900.061     3389.682     3606.986     78.07027     156.0786     311.8781      1.880     4.76     833.9357     54.98451     250.7197        23     1.595     0.964 -30.14   0
       552    248.6960     44.2199 307.8350579  +6.6646645       2546.3     4592.811     5889.232     78.07027     155.8304     311.7539      2.089     4.81     831.1595     54.98451     349.7955        27     1.812     0.945 -30.22   0
       553    301.4968     42.2279 307.8131906  +6.6672573     806.3058     1496.826     1760.311     78.31772     155.7683     311.8781      1.904     4.91     830.3706     54.98451     143.0922         9     1.325     0.515 -25.94   0
       554    689.8220     37.0049 307.6520434  +6.6824040       1486.8     2388.607     2105.105     77.82203     155.7683     311.7539      1.693     5.16     818.1022     54.98451     199.1888        20     1.640     0.801 -37.99   0
       555    938.4526     37.5580 307.5487317  +6.6904653     726.8191     1175.593     1122.681     78.19409     156.0786     311.9711      1.943     4.54     815.4048     54.98451     122.8019         8     1.304     0.449 -54.52   0
       556    200.5985     32.8399 307.8554217  +6.6677493     664.5972     1073.599     1038.057     77.32317     155.7683     311.6298      1.870     4.60     831.0259     54.98451     96.80005         7     1.415     0.425 -54.64   0
       557    178.2826     29.6932 307.8647982  +6.6682996     8700.125     15597.49     17457.44     77.94624     156.3263     312.0641      1.958     4.51     830.8806     54.98451     1113.736        48     1.935     1.129 -32.25   0
       558    522.4170     27.9182 307.7218952  +6.6805620      2473.81     4391.048     4769.799     77.82203     155.7062      311.847      1.881     4.50     818.7028     54.98451     339.5723        26     1.715     0.931 -34.78   0
       559    923.7643     27.4766 307.5551713  +6.6941386     3314.445     5663.448     5956.858     78.07027     156.0786     311.9711      1.835     4.83     815.6903     54.98451     432.4786        26     1.658     0.908 -35.95   0
       560    460.4051     26.4415 307.7477068  +6.6790971     1545.901     2428.861     2754.848       77.573     155.7062     311.6608      1.703     4.15     821.1073     54.98451     203.1288        17     1.450     0.772 -35.63   0
       561    724.6425     26.0902 307.6379433  +6.6880727     1599.908     2883.187     2560.148     78.19409     156.0166     311.9711      1.867     4.78      817.711     54.98451     213.7173        18     1.564     0.827 -30.31   0
       562    988.3446     23.8518 307.5284621  +6.6977852     1636.312     2943.698     3166.982     78.19409     156.0166     311.9091      1.972     5.60     812.5503     54.98451      221.879        22     1.693     0.940 -43.37   0
       563    544.8620   1011.8049 307.6795550  +6.2750874     3284.599     6304.727      7345.62       77.573     155.7683     311.6919      2.077     4.76     852.0598     54.98451     431.6964        37     1.875     1.143 -39.39  16
       564    515.1255   1013.0590 307.6918569  +6.2735760     971.0159     1821.857     2523.104     78.31772     156.0166     311.9091      2.253     6.29     852.0295     54.98451      140.937        13     1.412     0.786 -51.73   0
       565    330.1117     19.2418 307.8020770  +6.6777064     788.8106     1179.084     1657.919     78.19408     155.9545     311.9711      1.884     5.44     828.4475     54.98451     113.2423        10     1.377     0.607 -47.50   0
       566    749.4529   1011.2369 307.5946452  +6.2821506     6270.317      11726.9     13100.77     78.07027     156.0166     311.9711      2.033     4.82     849.6478     54.98451     700.5363        48     1.947     1.189 -32.35   0
       567    295.1812   1010.4683 307.7832434  +6.2672871     11790.95     21937.56     25373.42     77.82203     155.8925     311.8781      2.072     4.89     852.7733     54.98451     1501.152        61     2.198     1.155 -35.04  16
       568    418.7989   1010.9852 307.7319122  +6.2712114     765.1497     1484.893      1828.75     77.82203     155.7062     311.7229      2.074     6.69     851.9638     54.98451     122.8092        11     1.334     0.941 -84.25   0
       569    811.4851   1009.7621 307.5689437  +6.2848272     720.8621      1300.26     1142.514     78.19409     156.0166     311.9401      1.946     5.11     849.0674     54.98451     92.83215         8     1.127     0.656   6.53   0
       570    503.9296     12.3405 307.7300989  +6.6863752     568.7007     1072.017     1596.718     78.31772     156.0166     311.9711      1.720     4.00     818.9616     54.98451      86.6756         6     1.051     0.436  11.16   0
       571    910.6855   1004.7941 307.5279291  +6.2901825     6496.604     12857.36     14455.36     77.69762     155.7062     311.6608      2.143     4.85     847.0109     54.98451     749.5339        54     1.989     1.367 -33.02   0
       572    266.5702   1007.7883 307.7952098  +6.2674352     855.3331     1538.256     1517.019     77.69762     155.7683      311.816      1.885     4.11     852.7997     54.98451     125.9028         9     1.218     0.643 -43.87   0
       573    542.1476   1004.0147 307.6809430  +6.2782131     6578.862     12282.36     13867.86       77.573     155.9545     311.6919      2.004     4.85     851.9073     54.98451     798.1675        44     1.924     1.136 -37.38   0
       574    884.4036   1000.9197 307.5389690  +6.2909072     9366.006     18559.16      21020.4       77.573     155.5819     311.6608      2.153     5.06     847.0822     54.98451     1035.576        60     2.045     1.345 -31.59   0
       575    597.0461   1001.3330 307.6582437  +6.2811541     1176.385     2309.075     2701.468     78.19408     155.9545     311.9711      2.165     6.68     850.7725     54.98451     158.1531        17     1.535     0.848 -44.60   0
       576    528.5602   1000.0463 307.6867164  +6.2793976     3181.063     6092.753      7102.68     78.07027     156.0166      311.785      2.229     5.17     851.8497     54.98451     389.7644        41     2.112     1.136 -30.79   0
       577   1006.1149   1000.2892 307.4884640  +6.2952179     3376.965     6841.864     7090.506     77.94624     156.2644     312.0641      2.118     5.28     845.8824     54.98451     361.9086        38     1.918     1.170 -30.83   0
       578    638.5449    999.0861 307.6410922  +6.2834674     1065.575     2013.168     2637.029     78.19408     155.9545     312.1261      2.419     6.97     850.2612     54.98451     131.7231        16     1.623     0.838 -24.60   0
       579    481.7664    996.2947 307.7062670  +6.2793825     1863.529     3434.821     4141.608     78.31772     155.8925     312.0331      1.991     5.42     851.8894     54.98451     269.5682        23     1.685     0.904 -35.31   0
       580     63.4386    997.9697 307.8798584  +6.2646771     682.2341     1238.521     1156.197     77.82203     155.7683      311.816      2.013     5.11     851.2122     54.98451     88.19489         8     1.157     0.639 -17.89   0
       581    916.1685    988.4465 307.5261991  +6.2971148     33018.79     64401.16     73313.26     77.94624     156.0166      311.847      2.133     4.77     846.5417     54.98451     3841.741        96     2.136     1.449 -33.56   0
       582    223.3593    986.7400 307.8138545  +6.2746775     1477.388     2794.953     3276.684     78.19409     156.0166     312.0021      2.255     5.60     852.1815     54.98451     184.5644        17     1.563     0.798 -40.33   0
       583    814.0404    982.3279 307.5688004  +6.2962396     1895.307     3379.066     3595.219     78.07027     156.0166     312.0021      1.856     5.26     848.2923     54.98451     224.3248        26     1.707     1.074 -46.04   0
