#   1 NUMBER                 Running object number                                     
#   2 X_IMAGE                Object position along x                                    [pixel]
#   3 Y_IMAGE                Object position along y                                    [pixel]
#   4 ALPHA_J2000            Right ascension of barycenter (J2000)                      [deg]
#   5 DELTA_J2000            Declination of barycenter (J2000)                          [deg]
#   6 FLUX_APER              Flux vector within fixed circular aperture(s)              [count]
#   9 FLUXERR_APER           RMS error vector for aperture flux(es)                     [count]
#  12 FLUX_RADIUS            Fraction-of-light radii                                    [pixel]
#  13 FWHM_IMAGE             FWHM assuming a gaussian core                              [pixel]
#  14 BACKGROUND             Background at centroid position                            [count]
#  15 THRESHOLD              Detection threshold above background                       [count]
#  16 FLUX_MAX               Peak flux above background                                 [count]
#  17 ISOAREA_IMAGE          Isophotal area above Analysis threshold                    [pixel**2]
#  18 A_IMAGE                Profile RMS along major axis                               [pixel]
#  19 B_IMAGE                Profile RMS along minor axis                               [pixel]
#  20 THETA_IMAGE            Position angle (CCW/x)                                     [deg]
#  21 FLAGS                  Extraction flags                                          
         1    628.2842     25.9349 307.6805426  +6.6765873     3007.078     4938.323     5794.053     78.75868     157.1443     313.7589      1.733     4.74     835.7783     55.29411     409.7387        24     1.717     1.017 -62.54   2
         2    946.0501     17.8836 307.5487989  +6.6904882     1009.254     1388.083     1601.679     78.63436      156.895       313.79      1.543     5.55     833.4557     55.29411     167.1026        13     1.568     0.680 -46.17   0
         3    697.2496     17.4482 307.6521770  +6.6823892     1838.922     2731.254     3074.437     78.63436     156.7702     313.6965      1.700     4.97     835.5391     55.29411     257.4242        19     1.507     0.792 -44.28   0
         4    262.8506     12.2631 307.8328146  +6.6700232     799.1803     1390.481     1615.987     78.63436     156.8326     313.7589      1.838     5.79     840.1721     55.29411      109.285        12     1.306     0.723 -32.07   0
         5    208.7601     12.7622 307.8552679  +6.6680063     684.1687     1067.006     1126.886     78.38512      156.895     313.5717      1.597     5.44     837.6976     55.29411     95.94672         8     1.064     0.783 -42.37   0
         6    185.6416     10.2961 307.8649549  +6.6682500     10399.12     16545.55     17995.51     78.63436     156.8326     313.8524      1.744     4.43     837.5052     55.29411     1328.753        41     1.651     1.011 -41.40  16
         7    529.7660      8.4744 307.7220581  +6.6805083     2925.721     4705.864      5036.55     78.50984      156.895     313.6653      1.694     4.67      835.111     55.29411      414.685        22     1.582     0.850 -47.39  16
         8    931.3240      7.8920 307.5552519  +6.6941233     3806.446     6026.217     6461.765     78.50984      157.082     311.7254      1.676     4.50     834.3571     55.29411     547.0145        25     1.594     0.839 -42.55  16
         9    468.0122      6.8321 307.7477681  +6.6791244     1661.402     2922.863     2555.895     78.13509     156.6454     304.8386      1.762     5.01     835.4931     55.29411      231.212        18     1.531     0.856 -49.65  16
        10    996.1542      4.3489 307.5284366  +6.6977399     1924.515     3379.383     3693.456     78.75868     156.3953     279.5236      1.864     5.11     828.2843     55.29411     233.3463        23     1.639     0.885 -50.83  16
        11    732.1066      6.4194 307.6380665  +6.6881029     1969.845     3002.185     2974.579     78.50984     156.6454     301.5146      1.554     4.50     835.1663     55.29411     283.7261        15     1.379     0.690 -44.70  16
        12     87.6783      6.3790 307.9057824  +6.6665838     546.1921     832.7412     963.1493     78.26021     156.6454       301.06      1.724     4.51     836.6307     55.29411     94.30511         6     1.029     0.563 -33.82  16
        13    790.4680      3.9264 307.6139040  +6.6910753     463.5223     706.5154     891.9984     78.75868     154.4439      274.116      1.818     4.44     834.2656     55.29411     95.86176         6     1.243     0.460 -33.70  16
        14    714.8976      1.6305 307.6453769  +6.6895066     5210.178     6475.153     6809.046     72.28105     128.9669     241.1533      1.220     3.19     835.1284     55.29411     1004.676        18     1.253     0.708 -11.34  24
        15    634.9860      1.4093 307.6785833  +6.6869347     1724.891     2101.405     2113.977     69.23917     125.5846     237.1853      1.048     2.63     835.3477     55.29411     440.0728        11     1.084     0.696  -7.38  24
        16    522.8945    993.6859 307.6917672  +6.2735878     1026.856     1693.606     2205.309     78.63436     157.2687     313.7589      1.844     5.25     867.5579     55.29411     130.9191        16     1.429     0.823 -47.31   0
        17    800.9701   1023.3340 307.5753403  +6.2706111     3644.414     5030.518     5111.258     72.41628     129.7987     241.3966      1.410     4.35     864.8135     55.29411     581.5016        19     1.429     0.754  -7.24  24
        18    591.1569   1020.6833 307.6625239  +6.2647194     63709.13     114560.1     122812.4     78.63436     156.3953     279.1032      1.923     4.60     868.9847     55.29411     7437.572        99     1.908     1.389 -39.31  24
        19    552.5173    992.3148 307.6795166  +6.2751417     3825.522     6580.252     7154.803     78.38512     157.1443     313.7589      1.863     4.89     868.2605     55.29411     420.5679        33     1.736     1.045 -42.84   0
        20    302.7044    990.9669 307.7832600  +6.2673582     13573.86     23308.04     25886.49     78.75868     156.7702       313.79      1.907     4.72     866.7257     55.29411     1581.676        58     2.067     1.105 -39.01   0
        21    818.2420    991.1964 307.5692477  +6.2844521     933.4665     1585.401     1323.654     78.00977     156.5829     313.4156      1.996     5.15     864.7964     55.29411     138.8764         9     0.926     0.809 -81.75   0
        22    427.4890    990.9783 307.7314616  +6.2715219     919.3859     1714.047     1787.463     78.63436     156.7078     313.6029      1.962     5.48     866.1171     55.29411     128.6984        11     1.368     0.620 -53.00   0
        23    274.1277    988.8340 307.7951939  +6.2672833     759.0045     1234.439     1385.787     78.50984     156.8326     313.6653      1.633     5.13     866.4747     55.29411     104.0814         9     1.391     0.535 -53.84   0
        24    918.3197    985.2813 307.5279012  +6.2902205     7101.478     13605.87     14886.28     78.75869     157.1443     313.8212      2.053     4.71     864.0046     55.29411     740.8728        47     1.764     1.315 -41.93   0
        25    549.7095    984.5884 307.6809418  +6.2782375      7476.58      12922.2     14052.62     78.38512     156.5829     313.5093      1.867     4.57     868.0841     55.29411     906.0019        42     1.711     1.128 -38.80   0
        26    891.9746    981.4269 307.5389668  +6.2909362     10000.18     19304.87     21297.81     78.13509     156.7078     313.5405      2.034     4.75     864.2387     55.29411     1079.405        55     1.833     1.355 -35.24   0
        27   1013.7358    980.7189 307.4884439  +6.2952725     3812.674     7453.313     8257.383     78.88281     156.9574     313.6965      2.085     5.02     861.1792     55.29411     412.0175        41     1.823     1.273 -37.09  16
        28    604.8235    981.9198 307.6581529  +6.2811764     1143.054     2079.753     1594.938     78.26021     156.5829     313.6653      1.885     6.55     868.0119     55.29411     134.1055        19     1.628     0.836 -40.92   0
        29    535.9637    980.4009 307.6867886  +6.2795077     3618.702     6356.481     7126.356     77.75854     156.7078     313.5093      1.906     4.59     867.6994     55.29411     448.6979        32     1.646     1.099 -38.85   0
        30    645.5745    979.7797 307.6413084  +6.2834176     1235.083     2265.905     2283.357     78.26021     156.7078     313.6029      1.864     7.17     867.3711     55.29411     162.6868        18     1.735     0.829 -40.27   0
        31     71.1865    979.1138 307.8797607  +6.2645036     824.9017      1297.21     923.4603     78.26021     156.7078     313.6029      1.537     4.71     860.8781     55.29411     116.6113         9     1.047     0.755 -47.60   0
        32    489.2713    976.8146 307.7062917  +6.2794306     2006.596     3246.676      3319.01     78.13509     156.7702     313.6029      1.784     4.58     866.3405     55.29411     247.0088        19     1.427     0.854 -34.31   0
        33    923.7083    968.9732 307.5262103  +6.2971317     35398.42     67107.88     72633.45     78.75868     156.6454     313.5405      2.024     4.54     863.4203     55.29411     3898.643        85     1.878     1.424 -42.69   0
        34    231.0177    967.1736 307.8138189  +6.2747827     1544.003      2764.43     2726.267     78.26021     156.7078     313.6029      1.831     5.54     865.1326     55.29411     189.0085        21     1.643     0.832 -47.59   0
        35    629.9688    965.4602 307.6482674  +6.2888088     631.0359     1090.287     886.9857     78.38512     156.9574     313.6653      1.786     4.43     867.2571     55.29411     94.96973         6     1.149     0.486 -69.17   0
        36    118.7507    966.0123 307.8604596  +6.2715048     695.1824       1333.2     1277.604     78.00977     156.8326     313.3844      2.123     4.78     861.7119     55.29411     85.63269         8     1.022     0.634 -23.31   0
        37    821.5865    962.6468 307.5688162  +6.2963487     1955.691     3625.153     3935.297     78.00977     156.7078     313.4781      1.933     5.06      864.639     55.29411     210.3981        29     1.703     1.145 -31.10   0
        38    769.7898    960.5654 307.5903884  +6.2954850      5944.01      10502.8     11361.72     78.13509     156.6454     313.5093      1.899     4.36     865.4903     55.29411     664.4009        40     1.723     1.135 -39.79   0
        39    556.7499    960.1979 307.6788389  +6.2885406     702.2771     1133.429     1318.333     78.00977     156.5204     313.2907      1.950     5.09     867.4556     55.29411     100.2423         8     1.117     0.655 -38.09   0
        40    239.2385    959.7455 307.8106569  +6.2781240     1273.741     2172.338     1935.362     78.63436     156.9574     313.6965      1.798     6.41     865.0514     55.29411      212.647        14     1.340     0.862 -36.55   0
        41    203.6097    959.3421 307.8254600  +6.2770986     750.2161     1327.756     1416.652     78.00977     156.8326     313.4156      1.862     6.09     864.0117     55.29411     101.2745        12     1.439     0.725 -39.02   0
        42     64.2105    957.6068 307.8833826  +6.2731476     2380.422     4207.949     3990.632     78.13509     156.7078     313.6029      1.816     4.62     860.5234     55.29411     329.1764        25     1.626     0.929 -40.18   0
        43    958.0403    955.7416 307.5124008  +6.3037341      5563.72     10789.12     12205.92     78.63436      156.895     313.7589      2.090     4.65     862.2184     55.29411     615.8635        43     1.705     1.329 -46.46   0
        44    640.6411    949.7315 307.6443653  +6.2956572     607.3968     924.4637     619.1721     78.50984     156.8326       313.79      1.516     4.86      866.715     55.29411     98.29559         7     1.316     0.508 -43.23   0
        45    931.8517    947.3266 307.5235544  +6.3063381     1668.552     3074.123     3317.062     78.63436     156.9574     313.7277      1.928     4.79     862.5441     55.29411     213.5804        25     1.556     1.042 -35.24   0
        46    652.4340    943.3723 307.6396833  +6.2986752     4199.359     7194.977     7093.602     78.13509     156.6454     313.4781      1.847     4.52     866.3716     55.29411     502.8149        33     1.628     1.127 -47.52   0
        47    791.5712    943.5638 307.5819163  +6.3032280      1042.55     1573.242     1752.471     78.26021     156.6454     313.5093      1.605     5.72     864.9524     55.29411     136.1186        13     1.515     0.727 -46.36   0
        48    264.6802    943.4684 307.8006446  +6.2856938     4008.521     6638.042     6846.173     78.75869     157.1443     313.6653      1.798     4.71     865.1061     55.29411     504.4622        28     1.571     0.935 -41.80   0
        49    474.8109    941.8220 307.7134714  +6.2933929     1030.188     1802.605     1915.016     78.26021     156.6454     313.5717      2.034     5.97     866.1113     55.29411     133.0239        13     1.407     0.713 -46.45   0
        50     33.4532    940.9223 307.8967133  +6.2790040      1942.96      3254.39     3291.092     78.75868      156.895     313.6965      1.746     4.40     859.8578     55.29411      251.104        22     1.485     0.933 -36.99   0
        51    883.7894    939.6310 307.5437648  +6.3079178     785.2998     1289.061     1919.901     78.13509     156.6454     313.5717      1.938     5.13     863.4727     55.29411     98.48242         9     1.100     0.675 -44.02   0
        52    300.6430    937.0605 307.7859319  +6.2895413     822.0386     1435.856     1413.954     78.63436      156.895     313.8212      1.968     5.71     865.5766     55.29411     104.6744        11     1.478     0.622 -43.22   0
        53    212.9482    952.3068 307.8218209  +6.2803151     616.4073     995.5226     1011.473     78.50984     156.7702     313.9147      1.595     4.39     864.0769     55.29411     96.07733         6     1.242     0.441   6.65   0
        54    577.1604    935.7300 307.6711883  +6.2993214     1574.019     2605.276     1999.684     78.50984      156.895     313.7589      1.691     5.06     866.8583     55.29411     196.9918        16     1.436     0.773 -41.23   0
        55   1008.3256    935.1623 307.4922139  +6.3138991      795.012     1431.602     1981.501     78.50984     156.9574     313.7589      2.049     6.17     860.7582     55.29411     104.0408        12     1.259     0.849 -32.53   0
        56    616.5374    931.9002 307.6549703  +6.3022148     1204.835     2000.216     1588.628     78.38512      156.895     313.7277      1.779     6.23      866.645     55.29411      164.213        15     1.550     0.703 -37.59   0
        57     65.5943    932.8231 307.8836452  +6.2834243      705.077     1252.242     1299.343     78.13509     156.6454     313.5717      2.028     5.80     860.2757     55.29411     133.7356        10     1.380     0.687 -30.74   0
        58    296.2759    930.1339 307.7879782  +6.2922546      1422.01     2290.465     2585.749     78.75868     156.9574     313.6653      1.736     5.08     865.4084     55.29411     181.9286        16     1.395     0.784 -46.02   0
        59    763.6180    925.7953 307.5941166  +6.3096328     690.8116     1398.909     946.5068     78.26021     156.5204     313.5405      2.080     6.51     865.2237     55.29411     108.1762        11     1.484     0.801 -28.46   0
        60    900.8225    922.4913 307.5372677  +6.3155592     5812.924     10762.55     11601.83     78.63436     156.7078     313.5405      1.961     4.75     862.7155     55.29411     668.5375        40     1.728     1.200 -44.69   0
        61    138.6015    924.1671 307.8536318  +6.2894425     578.5157     889.8753     645.2296     77.88425     156.7078     313.4469      1.642     4.22     861.1677     55.29411     101.5727         5     1.210     0.420 -32.46   0
        62    436.5364    919.7878 307.7301013  +6.3012110     1903.863     3225.783     3624.041     78.13509     156.7078     313.5093      1.786     4.95     865.8171     55.29411     233.8319        21     1.519     0.871 -37.64   0
        63    338.2236    918.1123 307.7709699  +6.2986190     8749.491     14516.44     15195.29     78.63436     156.7078     313.5717      1.770     4.39     865.3126     55.29411      1064.74        42     1.696     1.069 -42.19   0
        64    258.3285    917.0960 307.8041702  +6.2963677     6485.043     10624.86     11059.62     78.50984     157.0197     313.6965      1.732     4.57     864.2569     55.29411     753.5541        35     1.600     1.051 -35.23   0
        65    586.2186    911.4016 307.6682453  +6.3096662      1243.09      1792.58     1201.161     78.26021     156.4579     313.4156      1.543     4.56     866.3082     55.29411     171.6061        12     1.193     0.673 -47.52   0
        66    771.1387    910.8521 307.5914956  +6.3160517     480.7531     735.8943     664.6193     78.63436     156.8326     313.6965      1.723     3.78     864.8228     55.29411     78.33112         5     1.314     0.312 -32.74   0
        67    916.7177    907.3754 307.5311751  +6.3223274     922.4046     1672.506      2113.54     78.38512     156.6454     313.6341      2.119     6.66     862.1487     55.29411     136.1202        14     1.411     0.882 -42.40   0
        68    148.3654    907.6102 307.8501375  +6.2966039     477.4447     849.3013     897.7982     78.13509     156.6454     313.5093      1.840     3.95     861.1111     55.29411     105.4072         5     1.188     0.376 -53.45   0
        69    873.2103    906.4288 307.5492690  +6.3212722     769.1263     1236.292     1078.176     78.13509     156.7078     313.5405      1.660     4.93     863.3488     55.29411     123.9686         7     1.069     0.643 -62.32   0
        70    845.0577    901.6944 307.5611152  +6.3222907     517.3809     986.5414     804.6879     78.50984      156.895     313.8835      1.871     5.55     863.7912     55.29411     84.18451         7     1.046     0.831 -23.62   0
        71    752.9386    900.8120 307.5993881  +6.3195906     1412.584     2723.746     3545.973     78.13509     156.7078     313.4156      2.257     4.84     864.7843     55.29411     205.9523        17     1.419     0.839 -48.21   0
        72    576.2800    901.3945 307.6727075  +6.3134658     596.4606     895.2031     796.7769     78.26021     156.4579     313.4781      1.672     4.07     866.0275     55.29411      94.9743         5     1.152     0.411 -14.21   0
        73      3.2354    897.9359 307.9107092  +6.2957351     828.8556     1446.219     883.2241     78.50984     148.7648     265.0797      1.754     7.04     858.8109     55.29411     99.32098        16     1.779     0.781 -50.16  24
        74    628.8576    896.9880 307.6510283  +6.3170371       542.53     773.2315     168.8842     78.00977     156.8326     313.4156      1.192     3.57     865.8873     55.29411     98.39514         5     1.725     0.213 -49.75   0
        75    983.8607    896.6240 307.5036602  +6.3289958     1098.946     1822.622     2430.156     78.26021     156.8326     313.6029      1.862     3.73     860.5173     55.29411     144.1502        10     1.020     0.749 -28.23   0
        76    617.4353    897.1199 307.6557658  +6.3166021     794.5477     788.3844     799.7883     78.50984     156.9574     313.7277      1.341     4.67     866.0743     55.29411     115.1139         7     1.010     0.612 -21.94   0
        77    537.9041    896.4746 307.6888042  +6.3142170     1074.543      1568.61     1165.073     78.38512      157.082     313.6965      1.591     5.54     865.6174     55.29411     154.1439        10     1.262     0.686 -32.41   0
        78    671.3994    894.1039 307.6334641  +6.3196450     2250.521     3617.062     3969.242     78.13509     156.5204     313.2907      1.802     4.89     865.1857     55.29411     262.3065        23     1.596     0.901 -42.22   0
        79     67.7952    890.1511 307.8841727  +6.3011123      2668.06     4636.382     4693.835     78.00977     156.7078     313.3532      1.856     4.77     859.6459     55.29411     348.6013        24     1.625     0.911 -43.29   0
        80    211.3593    889.4730 307.8245994  +6.3061990     2172.063     3385.363     3297.587     78.50984     156.9574     313.7277      1.678     4.73      862.395     55.29411      263.213        22     1.522     0.904 -47.03   0
        81     85.4941    889.3606 307.8768523  +6.3020316     1697.326     2764.693     2672.035     78.75869     156.8326       313.79      1.739     5.35     859.8817     55.29411      247.467        18     1.636     0.699 -41.71   0
        82    949.7388    889.4897 307.5180651  +6.3308077     696.3074     1358.443     1733.358     78.63436     157.0197     313.7589      2.250     4.51       861.17     55.29411       119.55         6     0.916     0.632 -71.64   0
        83    831.9256    890.6278 307.5669380  +6.3264224     784.7305     1320.498     1184.248     78.50984     156.8326     313.6341      1.474     4.39     863.8219     55.29411     114.8168         8     1.144     0.480  -3.14   0
        84    569.9823    890.0758 307.6757023  +6.3179281     493.7005     500.9215     439.3202     78.13509     156.6454     313.6341      1.219     3.61     865.7119     55.29411     85.28192         5     0.971     0.387 -60.74   0
        85    245.4756    885.9348 307.8105562  +6.3088009      792.519      1119.71     1266.395     78.75868      156.895     313.6653      1.585     5.83     863.1899     55.29411     113.7723        10     1.416     0.677 -51.30   0
        86    350.5433    885.1514 307.7669658  +6.3126367     832.0112     1373.179      1888.68     78.63436      156.895       313.79      1.874     5.23     864.6807     55.29411     108.5045         9     1.258     0.614 -38.19   0
        87    666.0094    883.1395 307.6360699  +6.3239915     6235.832     10665.77     11227.81     78.00977     156.7702     313.4156      1.832     4.60     865.0908     55.29411     750.2527        37     1.675     1.048 -43.97   0
        88     39.0829    879.8638 307.8964391  +6.3043966     929.1941     1790.366     1751.284     78.75868     156.9574     313.7277      1.861     6.13     859.0591     55.29411     139.6508        14     1.892     0.558 -49.77   0
        89     25.9667    881.2518 307.9018369  +6.3033840      1311.76     1988.841     1598.563     78.50984      156.895     313.6029      1.572     5.75     858.8824     55.29411     161.1199        14     1.370     0.715 -35.06   0
        90    903.8432    879.3691 307.5374580  +6.3334608     2400.067     4239.833     4296.657     78.26021     156.8326     313.5405      1.841     4.69     862.2668     55.29411     306.0206        26     1.586     1.057 -43.15   0
        91    348.9139    876.3635 307.7679381  +6.3162098     15263.19     25110.11     26822.47     78.63436     156.8326     313.6965      1.765     4.40     864.4781     55.29411     1946.062        51     1.685     1.125 -37.56   0
        92     83.3741    877.5215 307.8781322  +6.3068475     1124.458     1748.288     1594.633     78.38512     156.8326     313.6653      1.684     4.63      859.679     55.29411     166.1969        15     1.400     0.749 -23.87   0
        93    219.9997    875.8724 307.8214712  +6.3121023     1231.337     2006.275     1653.039     78.00977     156.3953     313.5405      1.655     4.91     862.3393     55.29411     168.8566        14     1.419     0.689 -38.52   0
        94    400.1671    874.5888 307.7467207  +6.3186546     499.7176     734.6572     768.5035     78.13509     156.6454     313.5405      1.765     4.93      864.625     55.29411     70.02704         5     1.107     0.620 -64.14   0
        95    112.2807    867.1556 307.8664824  +6.3120947      1501.47         2525     2511.875     78.63436      156.895     313.6653      1.733     5.31     859.9917     55.29411     191.9423        19     1.617     0.783 -42.65   0
        96    678.8314    865.6264 307.6313347  +6.3316481     578.6052     1183.538     1745.586     78.13509     156.6454     313.5405      2.821     6.27     864.6501     55.29411     91.06818        11     1.674     0.659 -62.85   2
        97    681.6491    862.3549 307.6302748  +6.3330924     560.4996      994.171     1323.574     78.63436     156.7702     313.6965      1.802     3.48     864.5562     55.29411     85.92053         5     0.727     0.480 -14.01   3
        98    427.1208    866.9598 307.7357879  +6.3227038     1004.876     1786.861     1005.935     78.50984      156.895     313.6653      1.642     5.53     864.5006     55.29411     156.7067        12     1.326     0.651 -33.81   0
        99    506.5274    864.1663 307.7029164  +6.3265072     650.7277     1034.209      1256.06     78.50984     156.8326     313.6653      2.056     5.76     864.5854     55.29411     89.69513         7     1.315     0.709 -56.79   0
       100     95.7385    860.6237 307.8735700  +6.3142369     2409.448     4144.757     4679.092     78.26021     156.8326     313.6029      1.852     4.83     859.5803     55.29411     303.6288        25     1.551     1.001 -38.74   0
       101    894.1625    860.7456 307.5421009  +6.3408269     1826.519      3213.62     3274.829     78.50984     156.9574     313.7277      1.889     5.22     862.3436     55.29411       219.39        23     1.633     0.980 -62.57   0
       102    864.7546    860.6165 307.5543145  +6.3399027     1713.441     2999.817     2837.982     78.13509     156.7702     313.4781      1.830     5.08     863.1242     55.29411      211.826        23     1.565     0.950 -40.14   0
       103    828.2728    860.0546 307.5694793  +6.3389217     2787.801     4849.888     5504.757     78.50984     156.7702     313.6341      1.890     4.37     863.3894     55.29411     355.2142        24     1.517     0.894 -43.78   0
       104    343.4563    858.5137 307.7708050  +6.3233957     604.5189     1098.392     1236.295     78.63436      156.895     313.8524      2.071     5.07     864.0038     55.29411     107.1653         7     1.492     0.488 -39.47   1
       105    564.0706    851.5593 307.6794510  +6.3336306     311067.2     510034.3     539681.2     78.50984      156.895     313.7589      1.783     4.64     864.5862     55.29411     39142.88       172     1.859     1.277 -42.89   0
       106    408.2993    854.1711 307.7440320  +6.3273545     7172.552     11960.31     12679.54     78.63436     156.6454     313.6965      1.776     4.53     863.9367     55.29411     889.6455        36     1.634     1.050 -39.90   0
       107    651.8449    854.7112 307.6429049  +6.3352550      1083.09     1886.468     2095.182     78.63436     156.7702     313.7277      1.808     6.00     864.8241     55.29411     149.9181        13     1.472     0.689 -35.39   0
       108    351.5382    852.5392 307.7676511  +6.3261320     11863.86     19119.96     20323.18     78.63436      156.895     313.7277      1.759     4.38     863.8796     55.29411     1554.617        44     1.693     1.042 -40.30   0
       109    670.0919    848.7943 307.6355281  +6.3383053     3318.435     5349.441     5540.091     78.26021     156.5829     313.4469      1.721     4.42     864.4686     55.29411     442.6737        28     1.537     1.017 -32.57   0
       110    902.2440    847.5988 307.5391861  +6.3465226     4405.932     8047.778     9198.421     78.00977     156.5829     313.2907      1.995     4.56     861.8848     55.29411     511.9903        41     1.812     1.281 -19.75   0
       111    741.2973    845.8624 307.6060646  +6.3418865      638.829      1064.28     1381.547     78.38512     157.0197     313.7589      1.925     4.38     863.8862     55.29411      99.3775         7     1.356     0.402 -62.69   0
       112    644.7156    842.7361 307.6462668  +6.3399608     3304.238     5357.412     5712.518     78.75869     157.0197     313.7277      1.729     4.44     864.6628     55.29411     385.3336        28     1.520     1.002 -45.61   0
       113    833.2634    842.1238 307.5680084  +6.3464896     1543.971     2463.958      2374.58     78.88281      156.895     313.6653      1.738     4.76      862.829     55.29411     210.3777        16     1.357     0.822 -47.55   0
       114    634.9871    842.2441 307.6503223  +6.3398397     1019.544     1613.181     1699.119     78.13509     156.7078     313.4469      1.636     4.21     864.7587     55.29411     135.5558         6     0.951     0.531 -43.49   3
       115    637.4319    837.7404 307.6494586  +6.3417803     1934.465     3535.568     4243.325     78.38512     156.9574     313.6653      2.034     6.24     864.6433     55.29411     275.6475        23     1.844     0.837 -53.38   2
       116    959.7857    840.6207 307.5155300  +6.3513149     550.0789     1049.165     1305.757     78.38512     156.5829     313.6029      1.987     4.74     860.2002     55.29411     114.9881         6     1.289     0.494 -51.01   0
       117    921.3615    835.6110 307.5316506  +6.3521065     2694.892     4734.723      4814.32     78.13509     156.7078     313.4156      1.857     4.92     861.2664     55.29411     287.4681        29     1.637     1.064 -40.77   0
       118    331.4359    836.4193 307.7765395  +6.3321145     1010.063     1567.352     1113.954     78.13509     156.7078     313.4781      1.752     4.95     863.1465     55.29411     134.8974        10     1.287     0.539 -44.32   0
       119    379.5869    831.4627 307.7567165  +6.3357694      2502.78     4003.839     4681.145     78.13509     156.7078     313.5093      1.808     4.83     863.0638     55.29411     342.9771        25     1.623     0.916 -38.72   0
       120    515.7230    821.1907 307.7005440  +6.3445543     2948.863     4728.751     4678.065     78.26021     156.3953     313.5093      1.695     4.27     863.1317     55.29411     412.2176        23     1.525     0.849 -40.17   0
       121    860.2973    820.4426 307.5575113  +6.3563385      985.468     1576.289     1614.509     78.63436     156.8326     313.9147      1.629     5.60     862.0131     55.29411     143.9105        11     1.292     0.708 -32.43   0
       122    582.2085    818.0992 307.6730454  +6.3480476     654.1279      1135.65     783.7903     78.38512     156.5204     313.5405      1.957     3.80     863.8665     55.29411      117.757         5     0.818     0.506 -61.52   2
       123    562.4982    817.3673 307.6812531  +6.3476926     5723.636     9108.807     9476.549     78.63436     156.7702     313.8212      1.719     4.37      863.442     55.29411     773.1828        30     1.540     0.960 -41.35   2
       124    569.3393    816.6212 307.6784380  +6.3482287     1222.586     2271.442      2617.05     78.26021     156.8326     313.6341      2.013     6.58     863.5801     55.29411     187.3432        17     1.686     0.720 -28.82   3
       125    897.9960    815.4655 307.5420263  +6.3596463     1193.965     2022.612     1719.633     77.88425     156.6454     313.4781      1.781     5.86     861.3286     55.29411     173.6477        18     1.647     0.937 -35.82   0
       126    480.1375    816.3517 307.7154806  +6.3453644     1661.419     2676.514     2473.048     78.50984     156.8326     313.7589      1.736     5.64     862.8149     55.29411     209.1936        16     1.408     0.747 -43.22   0
       127    273.7685    817.5416 307.8011163  +6.3379792      642.852     971.6287     681.9103     78.50984      156.895     313.6341      1.705     3.44     861.9813     55.29411     95.40741         5     1.025     0.334 -22.43   0
       128    121.8920    815.3235 307.8642423  +6.3338122      1233.26     1937.818     1480.514     78.38512      157.082     313.6965      1.600     5.71     859.1224     55.29411     173.3102        14     1.438     0.676 -35.66   0
       129    698.5137    813.9722 307.6248973  +6.3536265     798.8268     1331.967     1250.671     78.75868     156.5829     313.5405      1.747     4.64     863.8274     55.29411     129.3624         8     1.076     0.568 -46.89   0
       130    533.1541    811.2392 307.6936419  +6.3492437     18362.31     30016.57      31202.5     78.50984      156.895     313.5717      1.749     4.58     862.8588     55.29411     2280.593        52     1.695     1.084 -41.02   0
       131    946.7665    809.5018 307.5219772  +6.3637285     3405.118     5963.443     6204.938     78.63436     156.7702     313.8212      1.849     4.62     860.1435     55.29411     372.1995        30     1.559     1.101 -45.17   0
       132    375.3504    811.4515 307.7591492  +6.3438884     536.0419     722.7286     518.5469     78.75869     156.7702     313.6653      1.498     3.84     862.3515     55.29411     97.42889         5     0.983     0.430  76.53   0
       133    179.9172    810.1791 307.8403270  +6.3378784     489.7059     737.3503     392.8997     78.38512     156.5829     313.6341      1.439     3.92     860.2671     55.29411     90.36713         5     1.329     0.330 -29.96   0
       134     43.5988    801.6027 307.8972085  +6.3368528     1446.051     2527.977      2503.77     78.00977     156.4579     313.4469      1.904     6.06     857.7042     55.29411     190.7651        18     1.567     0.858 -44.42   0
       135    325.7382    799.8209 307.7801380  +6.3470316     3041.379     5065.846     5194.984     78.26021      156.895     313.5717      1.727     5.18     861.8898     55.29411     386.1026        22     1.500     0.848 -42.62   0
       136     25.5090    798.1127 307.9048362  +6.3376871     2022.493     3387.985     3170.161     78.38512     157.3309     313.8212      1.738     5.29     857.4208     55.29411       261.55        23     1.718     0.827 -41.62   0
       137    791.3485    795.7933 307.5869640  +6.3642208     50044.85     82974.21     87680.73     78.13509     156.7078      313.322      1.772     4.47     862.0299     55.29411     6247.694        74     1.727     1.185 -40.32   0
       138    729.9907    797.5099 307.6123812  +6.3614702     637.5424     1041.582     736.4266     78.38512     156.5829     313.4781      1.600     4.63     863.6263     55.29411     108.9606         7     1.328     0.458 -39.18   0
       139    434.5666    794.5928 307.7351323  +6.3528252     664.9209     1077.707     1144.823     78.13509     156.7702     313.5093      1.810     5.14     861.5568     55.29411     113.0746         9     1.475     0.507 -59.14   0
       140    248.0262    772.2408 307.8133308  +6.3558180       754172      1764278      1980666     78.26021     156.7078     313.5093      2.333     9.28     860.1841     55.29411     64038.89       656     2.767     2.257 -65.37   4
       141    916.7087    790.9539 307.5350780  +6.3703867     7407.826     12650.91     13591.09     78.63436     156.8326     313.8212      1.830     4.45      860.513     55.29411     852.9069        38     1.638     1.097 -37.11   0
       142    719.6123    790.3760 307.6169296  +6.3640696     19771.45     32913.67     35649.84     78.26021     156.7078     313.6341      1.817     4.53     863.3091     55.29411     2572.555        55     1.739     1.161 -41.08   3
       143    420.0357    785.5813 307.7414684  +6.3560600     20877.74     33768.02     35273.04     78.13509     156.7078     313.4781      1.729     4.48     861.0652     55.29411     2694.076        52     1.674     1.073 -41.05   0
       144    407.3149    788.0046 307.7466681  +6.3546348      1304.29     1788.259     1822.275     78.13509     156.5204     313.3532      1.504     4.75     861.1735     55.29411     179.7118        14     1.376     0.660 -32.91   0
       145    647.0475    787.3471 307.6471590  +6.3629031     939.8427     1138.065     1149.807     78.75868      156.895     313.7277      1.437     5.47     863.2188     55.29411     128.3586        11     1.114     0.758 -34.43   0
       146    957.3151    784.5522 307.5184329  +6.3743783     1818.214     3293.801      3436.21     78.63436      156.895     313.6965      1.913     4.60      859.298     55.29411     255.3392        24     1.642     1.006 -39.91   0
       147    913.5876    782.4891 307.5366575  +6.3737773     6025.811     10191.57     10960.66     78.38512     156.6454     313.6029      1.844     4.46     860.2902     55.29411     746.5134        39     1.692     1.145 -49.05   0
       148    886.7709    783.1392 307.5477698  +6.3726177     708.0372     1062.357     974.4662     78.38512      156.895     313.6341      1.594     5.19     860.8232     55.29411     110.9839        10     1.607     0.473 -31.11   0
       149    654.0758    781.5101 307.6444370  +6.3655468     5948.903     9553.759     9845.037     78.63436     157.1443     313.7277      1.749     4.52     863.0073     55.29411     772.4487        32     1.620     0.963 -42.02   0
       150    358.1022    787.7245 307.7671091  +6.3531064     19008.91     31186.29     33040.99     78.26021      157.082     313.6653      1.731     4.63     861.5104     55.29411     2537.402        53     1.717     1.060 -40.40   0
       151    442.9876    779.4522 307.7321457  +6.3593564     1578.016     2770.443     2507.534     78.00977     156.8326     313.4156      1.887     5.53     861.0601     55.29411     200.1259        18     1.371     0.942 -42.42   0
       152    168.0696    778.4918 307.8463148  +6.3505620     783.5815     1160.902     439.8383     78.63436     157.0197     313.6965      1.550     4.07      859.285     55.29411     136.9359         8     1.042     0.822 -41.57   0
       153    607.2970    773.2479 307.6641364  +6.3673986     833.4131     1193.252     678.7397     78.63436     156.7702     313.8524      1.623     6.47     862.7479     55.29411     102.6318        13     1.398     0.840 -16.40   0
       154    882.0006    772.9614 307.5500915  +6.3766606     689.2679     1123.551     662.9839     77.75854     156.7078     313.4156      1.551     2.67     860.7337     55.29411     119.4327         7     0.860     0.515 -45.32   0
       155    689.1962    771.4374 307.6301937  +6.3708747     2258.655     3762.335      4256.56     77.75854     156.6454     313.5093      1.781     4.39     862.5683     55.29411     312.3542        23     1.443     0.964 -43.53   0
       156    158.3503    772.3029 307.8505587  +6.3527913      926.739     1358.904     1317.707     78.50984     156.8326     313.8524      1.678     5.90     858.9492     55.29411      108.382        13     1.617     0.605 -46.07   0
       157    133.1328    772.3229 307.8610273  +6.3519387     1097.229     1934.304     1534.639     78.75868     156.9574     313.6653      1.808     6.04     858.2962     55.29411     135.8638        14     1.341     0.764 -42.44   0
       158    422.9390    768.2716 307.7408457  +6.3633023     51011.37     81952.89     86699.84     78.75868      156.895     313.7589      1.721     4.60     860.4464     55.29411     6654.963        74     1.749     1.110 -39.91   0
       159    540.6976    767.3019 307.6919872  +6.3676325     6696.756     10818.52     11517.96     78.63436     157.3309     313.5405      1.753     4.59     861.1475     55.29411     905.6335        34     1.630     0.995 -41.26   0
       160    966.5797    769.8765 307.5150776  +6.3807443     734.0388     1338.288     1524.462     78.26021     156.5829     313.6341      1.926     4.68     858.7645     55.29411     106.3866         8     1.120     0.555 -33.56   0
       161    457.5697    765.8781 307.7265483  +6.3654465     4304.544     7005.516     8113.029     78.50984     156.9574     313.6653      1.810     4.29     860.7424     55.29411     588.2134        31     1.573     0.997 -44.26   0
       162    713.2980    786.8810 307.6196685  +6.3653021     82288.57       133742     141604.4     78.50984     157.2065     313.7589      1.730     4.45     863.1864     55.29411     10341.45        82     1.729     1.177 -41.58   3
       163    785.9176    763.8731 307.5902895  +6.3772170     10703.89     17729.21     18422.85     78.88281     157.2065     313.7277      1.772     4.55     861.4457     55.29411     1311.362        40     1.660     1.072 -40.32   0
       164    454.1460    759.1514 307.7281962  +6.3681090     2149.338     3652.692     4307.654     78.63436      156.895     313.7589      1.773     4.67     860.4427     55.29411     300.0656        21     1.457     0.878 -45.25   0
       165     15.3878    759.5515 307.9103412  +6.3532652     998.2038     1642.139     1359.123     78.00977     156.8326     313.3844      1.824     5.77      856.632     55.29411     136.6947        13     1.599     0.587 -41.93   0
       166    807.6263    758.1308 307.5814687  +6.3803096      1185.77     1971.306     1969.385     78.26021     156.7702     313.6341      1.749     6.13     861.0452     55.29411     163.2839        14     1.352     0.781 -47.96   0
       167    151.8732    756.1537 307.8537928  +6.3592407     2831.975     4491.685      4496.62     78.50984     156.9574     313.6965      1.658     4.46     858.4096     55.29411     385.7693        23     1.547     0.847 -44.37   0
       168    143.6523    755.9236 307.8572136  +6.3590604     10690.59      17681.9     19700.49     78.63436     156.9574     313.7277      1.785     4.70     858.1813     55.29411     1293.886        45     1.700     1.069 -37.12   0
       169    931.4482    752.5123 307.5302458  +6.3867453     5787.093     9771.493     10303.71     78.63436     156.7702     313.7589      1.840     4.69     858.9506     55.29411     631.6239        38     1.663     1.186 -39.08   0
       170    135.9503    753.3135 307.8604993  +6.3598798     2697.279     4680.377     5614.761     78.63436     156.7702       313.79      1.958     4.79      857.874     55.29411     360.6238        24     1.566     0.949 -40.81   1
       171    980.5092    752.3829 307.5098797  +6.3884284     1373.397     2366.367     3379.352     78.38512     156.6454     313.6029      2.521     6.76     858.3008     55.29411     152.4944        18     1.497     0.855 -40.79   0
       172    687.0621    750.1887 307.6317931  +6.3795752     1623.517     2615.729     3058.792     78.13509     156.7078     313.4781      1.587     4.44     861.8055     55.29411     226.5743        15     1.384     0.693 -43.07   0
       173    573.6595    749.2820 307.6789076  +6.3761704     2255.291     3279.939     3560.953     78.75869     156.9574     313.7277      1.606     4.97     861.0457     55.29411     312.5026        20     1.517     0.775 -44.00   0
       174    421.6332    749.0779 307.7420340  +6.3711818     1065.296     1846.074     1356.038     78.50984      156.895     313.6653      1.750     6.10     859.7482     55.29411     143.6713        14     1.414     0.739 -39.54   0
       175    135.7891    746.8176 307.8607855  +6.3625559     1757.395     3202.992     3348.731     78.26021     156.5829     313.6029      1.895     4.84     857.7159     55.29411      238.126        19     1.521     0.855 -46.41   0
       176    925.5641    744.5211 307.5329566  +6.3898487     2785.289     4892.924     5053.776     78.50984     156.9574     313.6965      1.874     5.05       858.79     55.29411     346.0174        28     1.654     1.017 -43.83   0
       177    985.9846    743.7366 307.5078957  +6.3921795     1666.507     2777.723     3222.244     78.13509     156.7702     313.5405      1.812     4.86      858.187     55.29411     210.7446        18     1.414     0.886 -38.52   0
       178    955.1409    744.0059 307.5206933  +6.3910440      2494.29     4588.682     5159.632     78.13509     156.7702     313.4781      2.014     5.02     858.4426     55.29411     294.6684        25     1.596     0.990 -42.30   0
       179    678.1601    743.5951 307.6357106  +6.3820005      1312.98     2323.381     2609.545     77.88425     156.6454     313.4156      1.805     5.64     861.5862     55.29411     181.0276        13     1.582     0.567 -33.70   0
       180    825.1400    741.8013 307.5747445  +6.3876330     885.4744     1410.868     1409.642     78.00977     156.6454     313.4156      1.802     6.25     860.7585     55.29411     125.5809        12     1.449     0.757 -30.68   0
       181    900.6508    739.6888 307.5434627  +6.3910156     708.5507      969.024     1270.807     78.63436     156.7078     313.8212      1.563     4.66     859.4777     55.29411     100.5374         7     1.238     0.497 -49.50   0
       182    250.6552    738.5159 307.8133765  +6.3698272     1823.795      3003.65     3789.599     78.63436      156.895     313.8212      1.954     5.49     858.9567     55.29411      224.713        19     1.662     0.741 -49.00   0
       183    687.8182    735.1627 307.6319837  +6.3858031     653.2288     1228.539     1917.206     78.26021     156.7702     313.4469      2.556     5.97     861.2737     55.29411     111.2712         8     1.447     0.693 -59.68   2
       184    689.8611    730.3457 307.6312972  +6.3878596     811.2161     1334.864     2120.895     78.75868     156.8326     313.6653      1.591     4.57     861.1224     55.29411     129.9221         8     1.377     0.430 -39.47   2
       185    943.6078    733.6420 307.5258290  +6.3949391     805.8792     1563.705     1910.128     78.13509     156.7078     313.4156      2.162     6.42     858.3043     55.29411     118.0314        12     1.259     0.919 -55.23   0
       186    917.5510    732.5241 307.5366855  +6.3945349      1054.98      1829.08     1831.397     78.50984     156.9574     313.6965      1.840     6.55     858.7614     55.29411      146.337        16     1.480     0.911 -43.38   0
       187    166.0296    733.5243 307.8486793  +6.3690558     678.7596     1036.484     472.6043     78.50984     156.9574     313.7277      1.555     4.82     858.1089     55.29411     104.3577         8     1.439     0.458 -39.58   0
       188    970.0439    731.6138 307.5149203  +6.3966545     2187.258     3790.733     4123.386     78.00977     156.7078     313.4469      1.767     4.57     858.0963     55.29411     274.8081        21     1.527     0.847 -45.32   0
       189   1011.5565    725.2561 307.4978965  +6.4006574     1543.723     2477.545     2450.998     78.50984      156.895     313.6965      1.685     4.86     857.4846     55.29411     218.6346        18     1.560     0.744 -48.55   0
       190    410.6023    725.7573 307.7473989  +6.3804400     562.3009      1190.66     1520.012     78.00977     156.5204     313.3844      2.257     5.02     858.8812     55.29411      114.249         7     1.345     0.531 -58.07   0
       191    480.6368    726.5328 307.7182951  +6.3824581     620.2233     1081.631     1277.675     78.50984      156.895     313.7589      1.581     3.36     859.6627     55.29411     102.9037         5     1.107     0.295 -22.13   0
       192    813.1897    723.4649 307.5803212  +6.3948050     1129.158     1715.367     1922.643     78.13509     156.7078     313.5717      1.623     5.41     860.3423     55.29411     160.3513        11     1.238     0.666 -43.75   0
       193    638.6907    723.7864 307.6527636  +6.3888626     670.5929     995.6013     1049.829     78.38512     156.6454     313.5093      1.303     4.07     860.8328     55.29411     102.9708         6     1.066     0.443 -82.28   0
       194    899.2843    721.0383 307.5446549  +6.3986692     1347.239     2549.635     2993.368     78.63436     156.8326     313.6341      1.992     5.89     859.1735     55.29411     161.7289        22     1.564     0.983 -44.07   0
       195    873.9517    716.1132 307.5553385  +6.3998603     903.0504     1420.256     1689.107     78.63436     156.8326     313.7277      2.019     6.17     859.7081     55.29411     133.3068        14     1.409     0.759 -53.89   0
       196    856.2531    712.3193 307.5628144  +6.4008381     1351.915     2150.991     2132.302     78.63436      156.895     313.7589      1.761     5.84     859.8417     55.29411     200.8492        15     1.526     0.738 -31.88   0
       197     55.3032    711.2285 307.8954027  +6.3745501     2273.909     3644.635     3628.057     78.75869     156.6454     313.6965      1.747     4.40     855.7116     55.29411     287.5024        20     1.480     0.824 -37.46   0
       198    468.2123    710.2082 307.7240029  +6.3887821     507.3389     591.6749     641.9031     78.26021     156.7078     313.6341      1.583     3.43      859.088     55.29411     71.67749         5     0.972     0.349 -45.18   0
       199    573.0307    706.1381 307.6806190  +6.3939592     644.0995     1017.182     957.9225     78.38512     156.9574     313.6341      1.551     4.00     859.5046     55.29411     97.40839         6     0.996     0.460 -35.98   0
       200    668.0815    699.8235 307.6413652  +6.3997338     5813.329     9338.978     9889.262     78.38512     156.6454     313.6029      1.691     4.36     860.1245     55.29411     832.2901        31     1.595     0.946 -42.67   0
       201    614.8571    698.9979 307.6634923  +6.3983011     1312.247     2038.204     2862.754     78.00977     156.5829     313.4469      1.929     5.49     859.6823     55.29411     199.8441        14     1.350     0.731 -33.36   0
       202    536.8013    699.5385 307.6958835  +6.3954753      656.694     915.4167     1214.542     78.00977     156.7078     313.4156      1.505     3.85     859.0151     55.29411     121.3943         6     1.364     0.311 -39.66   0
       203    525.4933    699.3327 307.7005856  +6.3951830     629.1671     1194.036     1157.138     78.50984      157.082     313.7277      1.865     4.64     858.9911     55.29411     121.6892         8     1.409     0.434 -44.29   0
       204    131.0248    695.6757 307.8644901  +6.3835071     3581.178     5885.539     6159.281     78.26021     156.7078     313.6653      1.727     4.42     855.6299     55.29411     449.1646        23     1.513     0.867 -51.44   0
       205   1005.0110    695.2087 307.5016200  +6.4128439     2209.433      4106.41     4257.051     78.26021     156.7078     313.6341      1.868     5.34     856.3245     55.29411     260.4948        23     1.592     0.906 -52.34   0
       206    641.9095    695.5154 307.6523768  +6.4006402     2109.522     3417.513     4194.332     78.38512     157.2065     313.8212      1.877     4.84     859.7769     55.29411     279.7701        21     1.555     0.799 -43.81   0
       207    317.3729    696.0621 307.7871074  +6.3895829     609.3752     863.7092     1378.389     78.26021     156.9574     313.6341      1.567     5.31     856.5677     55.29411      131.132        10     1.448     0.551 -45.24   0
       208    252.8656    695.8235 307.8138984  +6.3875242     639.6629     983.6218     952.9036     78.26021      156.895     313.6341      1.539     4.02     856.1703     55.29411     89.52094         6     0.782     0.591  36.73   0
       209    784.8944    691.9243 307.5931277  +6.4068837     18461.31     30217.97     32007.95     78.38512      157.082     313.6965      1.730     4.46      859.821     55.29411     2448.728        48     1.652     1.062 -41.41   0
       210    483.9951    692.3043 307.7180523  +6.3966996     1194.146     2014.722     1535.614     78.38512     156.5829     313.4781      1.672     5.94     858.8232     55.29411     181.8231        16     1.687     0.664 -47.41   0
       211    914.9665    691.6047 307.5391295  +6.4113408     3394.423     5542.261     5936.113     77.88425     156.7702     313.4781      1.781     4.47     858.4178     55.29411      422.175        24     1.522     0.906 -48.12   0
       212    287.4650    693.0938 307.7996251  +6.3898082     1708.855     2005.954      2478.99     78.50984     157.0197     313.7277      0.711     0.87      855.997     55.29411     699.3521         5     0.503     0.355  11.96   3
       213    285.2985    692.0648 307.8005592  +6.3901605     565.7054     918.5738     1626.581     78.63436     156.9574     313.7277      1.854     3.71     855.9281     55.29411     91.72266         5     1.334     0.297 -52.92   2
       214    512.8733    691.5031 307.7060888  +6.3979940     813.5726     1440.786     1377.674     78.26021      157.082     313.6653      1.981     5.61     858.8232     55.29411     110.9815        11     1.484     0.598 -40.35   0
       215    330.3454    691.4888 307.7818754  +6.3919044     685.1374     900.0258     1357.022     78.63436     156.7702     313.8212      1.450     4.62     856.4653     55.29411     106.7671         8     1.421     0.427 -30.38   0
       216    647.5102    686.3666 307.6503587  +6.4046035     1026.925     1808.679     2279.037     78.75869     156.7702     313.6965      1.980     6.79     859.4592     55.29411     131.8049        14     1.625     0.795 -51.62   0
       217    665.4578    684.7549 307.6429607  +6.4058667      6648.71     10692.21     11608.36     78.63436      156.895     313.7589      1.744     4.47     859.6021     55.29411     921.9914        35     1.588     0.991 -38.30   0
       218    258.3673    685.4509 307.8119639  +6.3919900     5968.123     9666.663     10229.38     78.50984     156.9574     313.6341      1.734     4.48     855.4438     55.29411     787.2422        33     1.627     1.005 -37.06   0
       219    360.7274    684.0682 307.7695108  +6.3959829     729.2585     1289.467      1357.49     78.75868     157.0197     313.6965      2.073     4.97     856.6177     55.29411     112.0837         8     1.200     0.584 -30.99   0
       220    925.4624    677.0227 307.5352598  +6.4177091     1099.078     1690.095     1636.216     78.26021      156.895     313.6029      1.594     5.53     858.1962     55.29411     149.5814        11     1.424     0.606 -39.06   0
       221    737.1878    673.2528 307.6135630  +6.4130036     3413.452     5744.961     6083.145     78.00977     156.8326     313.4156      1.798     5.30     859.6384     55.29411     440.5002        25     1.550     0.948 -55.15   0
       222    692.3950    673.6860 307.6321475  +6.4113333     981.5568     1460.483     1449.062     78.13509     156.5829     313.3532      1.701     5.35     859.4351     55.29411     152.1191        12     1.423     0.696 -44.53   0
       223   1003.5378    669.7148 307.5030850  +6.4233191      8146.02     13929.61     14671.74     78.75869     157.0197     313.6965      1.847     4.40     855.4062     55.29411      935.321        41     1.637     1.159 -42.86   0
       224      2.6157    672.2100 307.9185961  +6.3888899     664.3468     1081.926     1067.302     78.38512      141.967      255.992      1.580     4.05     855.0723     55.29411       95.375         6     1.269     0.369 -29.77  24
       225    941.8162    670.1702 307.5286988  +6.4210812     2132.576     3562.961     3364.917     78.26021     156.6454     313.6341      1.778     5.21     857.5908     55.29411     275.0684        23     1.668     0.860 -46.52   0
       226     22.3269    669.4466 307.9105058  +6.3906915     1616.854     3147.889     3673.756     78.50984     156.9574     313.6965      2.142     5.92     854.9735     55.29411      252.585        24     1.849     1.032 -22.43   0
       227    541.9454    665.5792 307.6948896  +6.4096652     2018.685     3078.309     3169.732     78.13509      156.895     313.5093      1.639     4.48     858.2449     55.29411     305.4932        18     1.429     0.800 -45.98   0
       228     80.7955    664.5549 307.8863957  +6.3946706     23905.21     39006.71     41511.58     78.00977     156.5829     313.3844      1.752     4.58      854.774     55.29411     3118.113        60     1.716     1.130 -40.96   0
       229    280.2023    665.2094 307.8035806  +6.4010758     482.1729     817.4506     739.0361     78.00977     156.5829     313.5093      1.660     4.43     854.5336     55.29411     72.19006         5     0.799     0.700 -36.10   0
       230    510.6536    662.8033 307.7079759  +6.4097672     1382.211     2169.161     2227.646     78.00977     156.6454      313.322      1.685     4.67     858.1179     55.29411     195.2909        15     1.398     0.728 -39.38   0
       231    931.9924    661.7347 307.5330605  +6.4242371     827.0005     1243.438     696.2617     78.13509     156.6454     313.5405      1.658     5.12     857.6613     55.29411     103.3895         9     1.412     0.524 -41.68   0
       232    551.1229    659.5585 307.6912814  +6.4124567     1043.684     1763.305     1563.767     78.50984      156.895     313.7589      1.732     5.55     858.1635     55.29411     142.0536        11     1.265     0.687 -42.14   0
       233    726.7983    656.7983 307.6184293  +6.4194502     3320.628     5415.554      5557.82     78.00977     156.4579     313.3844      1.732     4.36     859.2042     55.29411     451.9246        27     1.582     0.937 -42.45   0
       234    748.8404    655.0771 307.6093345  +6.4208945     3950.753      6285.67     6241.481     78.50984      156.895     313.7589      1.679     4.22     859.1536     55.29411     559.6949        27     1.527     0.980 -41.56   0
       235    580.2194    652.9454 307.6794222  +6.4161568     2865.625     4786.832     4871.727     78.13509      156.895     313.5093      1.765     5.16     858.1286     55.29411     413.6409        26     1.584     0.933 -45.43   0
       236    416.2656    653.6468 307.7474755  +6.4103961     1310.257     2128.007      2207.93     78.63436     156.8326     313.6965      1.710     5.50     856.2286     55.29411     193.6176        20     1.484     1.028 -28.71   0
       237    240.9144    652.5264 307.8203208  +6.4049970     1830.641     2746.669     2779.904     78.75868     157.2065     313.6965      1.651     4.02     854.4373     55.29411     259.8079        19     1.399     0.824 -48.86   0
       238   1021.6921    651.2921 307.4961633  +6.4315268     4476.245     7581.443     7859.366     78.63436     149.8134     266.0009      1.785     4.38      854.548     55.29411     523.2018        30     1.547     1.051 -41.43  24
       239    324.3343    651.9755 307.7857028  +6.4080142     1305.074     1852.591     1254.935     78.26021      156.895     313.6029      1.493     4.85     854.8004     55.29411     213.7963        16     1.505     0.719 -33.50   0
       240    987.2214    649.9948 307.5105204  +6.4309179     7049.825     12159.47     12919.51     78.26021     156.6454     313.5093      1.842     4.61     855.5871     55.29411     831.6341        40     1.727     1.076 -41.64   0
       241    706.6243    648.9114 307.6270709  +6.4220342     903.7026     1445.689     1657.004     78.63436     156.7078     313.5717      1.634     6.13     858.9357     55.29411     139.2294        13     1.520     0.694 -31.67   0
       242     98.8392    646.6426 307.8795091  +6.4026691     707.6829     1192.226     1829.306     78.38512      156.895     313.5717      1.657     5.36     854.4804     55.29411     112.2452        11     1.457     0.557 -29.30   0
       243    145.5302    643.4609 307.8602305  +6.4055464     23202.95     36910.53     38336.85     78.75869      156.895     313.6965      1.750     4.52     854.3535     55.29411       3190.1        51     1.684     1.049 -41.02   0
       244    813.9810    643.9005 307.5826609  +6.4276759     1077.083     1686.373     1866.853     78.63436     156.7702     313.4781      1.742     5.25     858.6165     55.29411     141.9248        14     1.343     0.793 -44.24   0
       245    432.3936    644.3135 307.7410930  +6.4147874     2775.353     4478.401     4733.149     78.13509     156.5829     313.4469      1.775     4.74     856.1003     55.29411     373.7489        21     1.462     0.913 -46.53   0
       246    365.5910    637.8832 307.7690473  +6.4152103     579.0725     1280.452     983.2427     78.26021     156.5829     313.5405      2.442     5.77     854.8167     55.29411      90.8288         9     1.602     0.585 -43.20   0
       247    982.0149    633.0865 307.5132485  +6.4377249     5966.151     11115.58      12715.1     78.26021     156.6454     313.6029      2.029     4.51     855.3597     55.29411     686.3524        44     1.623     1.352 -33.94   0
       248     26.7091    632.1171 307.9099481  +6.4062475     1131.159     1977.698     1501.115     78.38512     157.1443     313.7589      1.730     5.71     854.3363     55.29411     142.1568        13     1.471     0.639 -41.77   0
       249    575.5854    628.2947 307.6821751  +6.4261781      46000.1     72514.31     76047.09     78.38512     156.6454     313.5093      1.726     4.53     857.7408     55.29411     6178.201        69     1.708     1.088 -41.68   0
       250    218.4633    629.8185 307.8304086  +6.4136194     555.4081     830.6592     1662.549     78.26021     156.8326     313.5717      1.792     3.41     854.2579     55.29411     90.63928         5     0.750     0.449 -68.86   0
       251    534.7203    628.6268 307.6991324  +6.4246781     685.6682     999.4478     967.3478     78.50984     156.7702     313.7277      1.606     5.50     857.5231     55.29411     95.55219        10     1.477     0.577 -38.81   0
       252    182.9413    624.9852 307.8453208  +6.4144256     2466.315     4175.864     4133.285     78.00977      156.895     313.4469      1.752     4.69     854.2017     55.29411     399.7745        22     1.560     0.838 -41.00   0
       253    505.7483    625.1274 307.7112801  +6.4251560     511.5205     724.8801     162.7401     78.63436      156.895     313.7277      1.552     4.02     857.1118     55.29411     91.22302         6     1.290     0.358 -30.21   0
       254     75.9461    619.1830 307.8899419  +6.4132369     1258.081     2058.562     2053.671     78.13509     156.9574     313.4156      1.631     4.71     854.0972     55.29411      159.992        16     1.380     0.819 -40.99   0
       255    472.8035    612.1102 307.7253978  +6.4294300      59288.6     95778.48     101098.7     78.13509     156.5829     313.3844      1.724     4.51     856.0952     55.29411     7876.344        78     1.729     1.129 -42.76   0
       256     15.9020    613.9865 307.9150481  +6.4133691     1666.806     3060.178     3958.174     78.50984     156.6454     313.4469      2.110     7.00     854.0343     55.29411      253.293        22     1.891     0.810 -31.77   0
       257    658.3437    609.4421 307.6484443  +6.4367190     776.5469     1066.932     990.4835     78.50984     156.8326     313.6965      1.724     5.24     857.8875     55.29411     106.1807         8     1.185     0.655 -50.54   0
       258    147.2041    607.1987 307.8607597  +6.4205710     1463.781     2285.864     2059.808     78.00977     156.4579     313.4469      1.726     5.63     853.9937     55.29411     191.0236        15     1.484     0.651 -41.72   0
       259    942.4849    604.9710 307.5306049  +6.4480182     605.1827     1073.436     888.6119     78.63436     156.5829     313.5405      1.487     4.04     855.5183     55.29411     122.6199         5     1.061     0.439 -28.28   0
       260    618.9442    603.6653 307.6649987  +6.4377907     834.5084     1330.855     1361.412     78.75868     156.8326     313.6965      1.671     4.79     857.4884     55.29411     134.2296        13     1.453     0.655 -38.57   0
       261    426.5753    604.7290 307.7448417  +6.4309334      981.712      1426.56     1501.224     78.26021     156.7702     313.6341      1.556     5.14     854.0996     55.29411     156.7583        10     1.299     0.575 -44.12   0
       262    326.5769    603.6479 307.7864003  +6.4280385     496.8351     756.3956     925.1229     78.26021      156.895     313.5717      1.453     5.55     853.5365     55.29411     75.76166         5     1.224     0.710 -45.16   0
       263    318.1226    601.4150 307.7899861  +6.4286775     1957.403     3371.496     3387.841     78.26021     156.5829     313.5405      1.819     4.41     853.4672     55.29411     299.8226        22     1.578     0.901 -44.18   0
       264     19.3806    602.5818 307.9139893  +6.4181934     557.2359     830.7372     1433.082     78.38512     156.7702     313.6341      1.812     4.33     853.9771     55.29411     93.87219         6     1.054     0.506 -57.20   0
       265    470.3401    600.0665 307.7268260  +6.4343193     752.3828     1322.604     1898.819     78.75868     156.8326     313.6965      1.977     6.06     855.5429     55.29411     102.8063        11     1.421     0.726 -64.83   0
       266    744.8645    595.5969 307.6129817  +6.4453158     4967.872     7822.425     8146.182     78.00977     156.7078     313.4781      1.690     4.83     857.8181     55.29411     685.1262        28     1.587     0.866 -45.25   0
       267    798.4119    590.8292 307.5909060  +6.4490660     13037.28      20756.4     21457.77     78.13509     156.7078     313.5717      1.719     4.62     857.7198     55.29411     1630.705        38     1.628     0.977 -42.88   0
       268   1015.8549    591.3381 307.5005939  +6.4560826     1023.848     1601.499     1726.374     78.75868     156.8326     313.6653      1.698     4.76     853.6786     55.29411     135.9972        13     1.217     0.762 -31.10  16
       269    540.7415    590.8074 307.6979041  +6.4404908     1034.249     1793.911     2021.355     78.00977     156.7702     313.4469      1.899     6.07     856.3278     55.29411     167.8438        13     1.527     0.680 -45.15   0
       270    622.2245    588.9753 307.6641303  +6.4439640     2731.317     4249.728      3771.66     78.13509     156.7078     313.6341      1.600     4.51     856.9363     55.29411     383.7285        20     1.455     0.840 -47.03   0
       271     43.2879    590.4721 307.9044721  +6.4239936     670.8228     914.6444     1067.296     78.75869     157.1443     313.6965      1.726     5.38     853.8809     55.29411     106.8237         8     1.216     0.690 -23.84   0
       272    939.3283    585.1255 307.5325805  +6.4561057     1131.375     1889.056     2929.938     78.88281     157.0197     313.7277      1.818     6.24     855.1724     55.29411     174.0679        14     1.734     0.631 -35.98   0
       273    198.3657    583.8448 307.8403048  +6.4319242     604.4976     1200.775     1338.175     78.26021     156.8326     313.5717      1.981     6.47      853.403     55.29411     86.34479         9     1.642     0.717 -36.91   0
       274    380.9279    582.7888 307.7645349  +6.4384655     873.4556     1511.973     1561.491     78.13509     156.5204     313.5093      1.710     5.85     853.3112     55.29411     134.2054        11     1.478     0.652 -34.78   0
       275    234.8390    582.4860 307.8252060  +6.4337057     1315.381      2209.08     2328.866     78.63436      156.895     313.6965      1.755     5.94     853.2817     55.29411     185.5435        14     1.459     0.681 -45.66   0
       276    874.6229    574.2657 307.5598142  +6.4584382     2537.314     4271.764     5081.251     78.26021      156.895     313.6029      1.841     5.14     856.0475     55.29411     338.7447        22     1.525     0.966 -36.55   0
       277    169.4245    574.0786 307.8526515  +6.4349867     669.9841     1369.491     1709.007     78.26021     156.7078     313.6653      2.298     5.23     853.1351     55.29411     114.3138         8     1.498     0.515 -36.82   0
       278    833.2430    571.5545 307.5770886  +6.4581814     2223.247     3939.076     4127.338     78.63436      156.895     313.6341      1.925     4.90     856.7343     55.29411     297.8952        23     1.587     0.985 -36.87   0
       279    813.7933    562.7472 307.5854607  +6.4611701     147091.3     236706.7     249667.9     78.13509     156.7078     313.4156      1.735     4.71     856.8773     55.29411     19095.55       120     1.765     1.209 -41.76   2
       280    804.0960    567.4457 307.5893301  +6.4589080     2368.867     3876.135     4956.051     78.63436     156.8326     313.8524      1.862     4.73     857.1851     55.29411       306.49        21     1.478     0.890 -39.72   3
       281    261.2181    566.4890 307.8147921  +6.4411917     7523.022     11977.31     12210.54     78.38512     156.6454     313.6029      1.710     4.39     852.6609     55.29411     1018.985        32     1.597     0.932 -41.17   0
       282    747.1454    567.5281 307.6129767  +6.4569786      663.227     1045.796     1888.269     78.50984     156.7702     313.6653      1.641     3.40     857.2678     55.29411     124.1138         5     1.077     0.311 -22.25   0
       283    195.3817    561.0977 307.8423115  +6.4412141     55117.25     89614.05     95995.95     78.50984     156.7702     313.4469      1.749     4.53     852.7869     55.29411     6833.429        81     1.782     1.162 -41.79   0
       284    865.3774    563.9449 307.5639995  +6.4623913     443.2262     886.9497     1195.719     78.13509      156.895     313.5093      2.118     4.45     855.7746     55.29411     82.55164         5     1.390     0.406 -78.51   0
       285    119.3554    557.2819 307.8740087  +6.4402432     5808.222     9187.955     9770.249     78.63436      156.895     313.6653      1.749     4.57     852.7446     55.29411     718.1843        30     1.586     0.925 -42.57   0
       286    984.9017    554.5893 307.5146781  +6.4702250     1193.241     2183.436     1915.698     78.38512     156.5204     313.5093      1.894     6.80     853.4494     55.29411     140.8406        18     1.523     0.945 -38.73   0
       287    151.8619    554.6838 307.8605988  +6.4424045     8694.523     8551.189     8005.322     78.75868      156.895     313.7277      0.740     1.66     852.6412     55.29411     4237.557         8     0.687     0.402  37.39   0
       288   1005.2155    553.6823 307.5062727  +6.4712740     756.6227     1330.289     1179.088     78.26021     156.5829     313.5717      1.874     5.45     852.9381     55.29411     123.7093        11     1.417     0.726 -38.70   0
       289    234.1031    552.4619 307.8265244  +6.4460748     793.7634     1215.139     852.7524     78.38512     156.9574     313.7589      1.608     5.55     852.4773     55.29411     104.2543        10     1.430     0.606 -32.80   0
       290    850.3915    550.0212 307.5706895  +6.4676408     3925.815     6631.665     6645.012     78.26021     156.7078     313.4781      1.766     4.66     855.5758     55.29411     559.4836        28     1.570     0.959 -45.34   0
       291    368.8068    548.1666 307.7707345  +6.4523523      16003.5     25775.72     26971.04     78.00977     156.7078     313.5093      1.699     4.41     852.6896     55.29411     2188.659        44     1.690     0.981 -41.12   0
       292    459.0738    548.2283 307.7332491  +6.4553419     679.1367     1100.223     1085.709     78.50984      156.895     313.6341      1.661     5.09     853.5528     55.29411     106.5579         8     1.395     0.526 -35.78   0
       293    170.7298    547.0233 307.8530229  +6.4461985     1749.326     2749.256     2976.365     78.26021     156.7702     313.6653      1.786     4.32     852.4119     55.29411     230.8212        17     1.503     0.763 -43.39   0
       294    535.1891    543.0991 307.7018144  +6.4599995     6232.767     9900.218     9867.329     78.38512     156.5204     313.4781      1.658     4.40     853.8924     55.29411     799.9255        32     1.571     0.950 -43.48   0
       295    246.1323    544.8876 307.8217849  +6.4496039     702.5073     870.1561     247.9232     78.75868     157.1443     313.7277      1.446     5.50     852.1944     55.29411     98.71594        10     1.289     0.663 -50.18   0
       296    804.2772    543.3781 307.5900622  +6.4688492     5354.196     8767.329     9161.601     78.26021     156.7078     313.6341      1.719     4.71     856.6318     55.29411       681.11        31     1.653     0.917 -45.26   0
       297    107.9187    544.4405 307.8791913  +6.4451608     955.8322      1462.47     1435.354     78.63436      156.895     313.6341      1.777     4.64     852.4741     55.29411     134.5514         9     1.116     0.548 -57.63   0
       298    393.6020    539.7573 307.7607216  +6.4566521     1421.074     2293.286     2300.986     78.00977     156.5829     313.3844      1.606     5.68     852.7278     55.29411     184.4542        14     1.455     0.659 -39.29   0
       299    579.8636    536.1719 307.6834958  +6.4643490     2322.435     3778.558     3630.608     78.26021      156.895     313.6341      1.686     5.06      854.257     55.29411     313.1387        22     1.601     0.826 -40.26   0
       300    182.1257    536.2516 307.8486544  +6.4510265     6422.243     10428.12     10483.58     78.63436     156.9574     313.7277      1.682     4.64     852.0443     55.29411     812.2051        29     1.610     0.908 -38.60   0
       301    277.3905    532.6770 307.8092170  +6.4556899     81895.56     131697.3     139024.9     78.26021     156.4579     313.5093      1.739     4.40     851.4268     55.29411     11165.77        91     1.778     1.146 -43.81   0
       302     53.8067    534.9182 307.9019821  +6.4472780     4628.063     7546.939     7779.239     78.26021     156.4579     313.5093      1.696     4.26      853.459     55.29411     618.5603        30     1.588     0.947 -41.58   0
       303    820.6828    535.6740 307.5835078  +6.4725752     1283.642     1912.958      2494.03     78.88281     157.2065     313.7589      1.655     5.13     855.8694     55.29411     173.9188        14     1.423     0.649 -39.77   0
       304    567.1788    530.1505 307.6889658  +6.4664117     798.9094     1114.416     1034.607     78.13509     156.9574     313.5717      1.448     5.12     853.7754     55.29411     119.0327         9     1.320     0.561 -28.57   0
       305    261.1289    527.8013 307.8161340  +6.4571586     1250.079     1903.893     2630.879     78.13509     156.4579     313.5405      1.977     5.70     851.2994     55.29411      173.543        15     1.464     0.728 -45.10   0
       306    800.5227    525.1298 307.5922335  +6.4762572     15235.88     23922.02     24784.71     78.88281     157.1443     313.6965      1.725     4.86     855.8246     55.29411     1950.078        44     1.641     1.004 -42.11   0
       307    977.1003    526.2378 307.5188673  +6.4816697     1395.578     2142.198     2527.316     78.63436     156.7702     313.9147      1.721     4.70     853.0949     55.29411     220.1304        19     1.545     0.830 -48.66   0
       308    504.1519    523.5550 307.7153604  +6.4670316     37487.54     65942.15     70574.21     78.63436     156.7702     313.6653      1.895     4.67     852.9348     55.29411     4878.285        72     1.857     1.241 -33.21   0
       309    654.8356    521.8693 307.6528431  +6.4727523     882.3774     1389.657     1063.345     78.50984     156.9574       313.79      1.675     5.61     854.6373     55.29411     146.0963        11     1.419     0.625 -33.29   0
       310    265.4861    519.5167 307.8146041  +6.4607242     464.8019     890.4025     1528.939     78.38512      157.082     313.7589      2.352     3.52     850.9143     55.29411     104.6042         5     0.780     0.458 -72.06   2
       311    216.6730    519.8204 307.8348634  +6.4589655     1746.387      2825.47     2679.461     78.26021     156.8326     313.6341      1.756     5.95     851.1755     55.29411      232.757        17     1.559     0.807 -42.84   0
       312    664.1811    518.5341 307.6490742  +6.4744404     2784.457     4664.051     4871.064     78.26021      156.895     313.6029      1.755     5.21     854.5869     55.29411     398.6178        24     1.668     0.793 -43.60   0
       313     52.2030    519.9254 307.9031547  +6.4534130     1171.863     1636.302     1548.512     78.13509     156.3953     313.6029      1.492     5.32     853.4833     55.29411     167.3747        11     1.339     0.596 -33.12   0
       314    726.7991    517.5383 307.6231040  +6.4769372     1191.147     2166.424     1967.072     77.88425     156.7078     313.3844      1.889     5.98     855.3441     55.29411     155.9272        17     1.452     1.183  -7.00   0
       315    674.4631    518.2527 307.6448138  +6.4748992     1357.376     2217.616     2005.103     78.63436     156.8326     313.6653      1.701     5.25     854.6356     55.29411     200.4428        16     1.559     0.704 -46.06   0
       316     83.5871    515.9747 307.8902563  +6.4560957     594.2451     930.5945     1375.407     78.38512     156.7078     313.6341      1.964     3.88     852.6852     55.29411     84.62811         5     0.887     0.488 -84.71   0
       317    401.9614    514.1544 307.7581127  +6.4675001     1635.866     2633.247     2443.111     78.38512      156.895     313.6029      1.656     4.34     851.8311     55.29411     220.5613        17     1.395     0.789 -38.54   0
       318    148.4835    511.0849 307.8634738  +6.4602884     24197.95     39309.55     41390.21     78.38512     157.0197     313.7589      1.740     4.56     851.6108     55.29411     2931.441        57     1.727     1.079 -42.84   0
       319    333.2715    512.4946 307.7866927  +6.4658897     3539.706     5537.301     5798.179     78.50984     156.9574     313.6965      1.683     4.60     851.1775     55.29411     521.1465        22     1.512     0.803 -43.74   0
       320    513.2918    511.8844 307.7119576  +6.4721542     1983.056     3208.265     3610.913     78.38512     157.2687       313.79      1.691     4.79     852.4845     55.29411     262.3889        19     1.527     0.766 -38.41   0
       321    876.6537    511.0311 307.5610906  +6.4846093     1375.486     2327.433     1832.394     78.50984     156.9574     313.6029      1.697     4.99     854.1723     55.29411      196.297        16     1.452     0.789 -49.35   0
       322    113.5487    509.4278 307.8780362  +6.4598022      2488.72      4277.22     3879.898     78.26021     157.0197     313.6029      1.876     4.65     852.0739     55.29411     324.6223        29     1.791     1.001 -49.69   0
       323    350.4522    507.5044 307.7797265  +6.4685239     891.6913     1560.493     1704.988     78.50984     156.8326     313.9459      1.848     4.61     851.3343     55.29411     149.3044        13     1.437     0.766 -45.75   0
       324    974.0435    505.5871 307.5208284  +6.4900929     4584.585     7745.224     8030.198     78.13509     156.7702     313.4469      1.781     4.78     852.8212     55.29411     593.9996        30     1.637     0.964 -39.30   0
       325    547.2128    498.0713 307.6983359  +6.4789880     1464.153     2321.373     1937.929     78.13509     156.6454     313.5405      1.617     5.05     852.0093     55.29411     209.6835        16     1.389     0.773 -34.79   0
       326     12.7175    495.4214 307.9203790  +6.4622038     23505.49     38321.35     40457.73     78.38512     156.5829     313.6029      1.776     4.52     854.4756     55.29411     3105.479        54     1.704     1.090 -42.40   0
       327    445.5221    492.1931 307.7407630  +6.4780205     40147.29     64163.34     67367.39     78.26021     156.3953     313.4781      1.734     4.50     851.3041     55.29411      5284.76        65     1.707     1.090 -42.47   0
       328    653.5479    491.8862 307.6543852  +6.4850864     11623.63     18255.63     19143.01     78.63436     156.7702       313.79      1.715     4.64     853.3176     55.29411      1544.01        41     1.676     0.967 -41.14   0
       329    210.6445    489.8127 307.8383795  +6.4711506     17462.98     30324.56     32337.21     78.13509     156.7078     313.4469      1.844     4.36     849.8733     55.29411     2059.766        57     1.689     1.286 -37.40   0
       330    987.5746    490.2240 307.5157235  +6.4968843     995.7686     1862.078     2203.421     78.13509     156.7078     313.6341      2.346     6.81     852.3386     55.29411     142.5076        14     1.941     0.670 -37.64   0
       331    293.5892    492.1216 307.8038580  +6.4729726     949.6936     1482.922      1144.79     78.26021     156.5204     313.5717      1.651     4.78     849.7161     55.29411     142.6193         9     1.169     0.555 -25.33   0
       332    176.3845    490.9234 307.8525686  +6.4695451     1555.886     2486.038     2257.474     78.13509     156.6454     313.5717      1.679     4.33     850.5892     55.29411     208.1371        14     1.335     0.701 -41.87   0
       333      1.2965    489.3059 307.9253283  +6.4643451      731.668     1401.313     2069.618     67.95554     124.5677     235.4049      2.087     5.43     854.8075     55.29411     133.3196        12     1.867     0.446 -86.87  24
       334    915.3663    490.0114 307.5457183  +6.4945732     659.4424     1126.138     1420.223     78.13509     156.7078     313.5405      1.730     4.37     853.3652     55.29411     104.5506         6     1.083     0.501   7.83   0
       335    827.4938    489.6227 307.5822240  +6.4918120     932.9532     1473.887     1304.172     78.63436     156.7078     313.5405      1.779     5.75     853.9915     55.29411      153.398        11     1.336     0.696 -41.55   0
       336    575.5059    488.5940 307.6869052  +6.4838438     2665.269     4091.413      3667.63     78.38512     156.5829     313.5093      1.664     4.54     852.2199     55.29411     400.5184        22     1.502     0.870 -36.91   0
       337    949.2574    485.8343 307.5317835  +6.4974237     4367.579     7374.474     7800.502     78.50984      156.895     313.6965      1.796     4.54      852.842     55.29411     567.4877        32     1.622     1.044 -41.80   0
       338    622.3971    484.2643 307.6675777  +6.4871945      6200.64     9823.945     10181.31     78.00977     156.7078     313.4781      1.701     4.67     852.7871     55.29411     819.8622        29     1.560     0.886 -41.66   0
       339    109.8994    484.7817 307.8803841  +6.4698534     1086.655     1624.719     1429.826     78.63436     156.7702     313.4781      1.575     5.83     851.9041     55.29411      181.251        11     1.339     0.716 -39.49   0
       340    971.8481    477.9668 307.5226652  +6.5014218     3052.421     5029.939     5466.003     78.38512      156.895     313.6341      1.762     4.65     852.2864     55.29411     406.6732        23     1.570     0.873 -36.91   0
       341    534.5931    475.4677 307.7043369  +6.4878976     7125.293     11200.93      11549.7     78.13509     156.6454     313.5405      1.732     4.46     850.9535     55.29411     987.9804        29     1.574     0.910 -42.75   0
       342    410.4624    477.0303 307.7558330  +6.4831086     747.0838     1368.255     1685.745     78.38512     156.9574     313.6653      1.632     4.65     850.3738     55.29411     92.10999         8     1.224     0.500 -28.45   0
       343    380.6084    475.6288 307.7682778  +6.4826897     2362.377       3699.7     3815.461     78.26021     156.7078     313.5093      1.717     5.03     850.2922     55.29411     330.6345        18     1.538     0.703 -40.30   0
       344    750.6156    475.6320 307.6146202  +6.4950291     550.6185     868.3548     861.6446     78.26021     156.6454     313.6029      1.433     3.40     853.4377     55.29411     93.22003         5     0.991     0.337 -21.72   0
       345    103.8557    474.7212 307.8832337  +6.4738038     633.9745     764.4265     821.9558     78.75868      156.895     313.7277      1.343     3.48     851.6603     55.29411     101.5643         5     1.004     0.348 -42.86   0
       346   1002.3961    473.6528 307.5101231  +6.5042172     579.6938     1024.304     1349.925     78.00977     156.6454     313.2907      1.635     4.32     851.6568     55.29411     99.05994         6     1.353     0.394 -39.78   0
       347    890.9526    471.3488 307.5564827  +6.5014657     2784.148     4491.833     5092.717     78.75868     156.7702     313.6965      1.728     4.37     853.0192     55.29411     400.3126        23     1.486     0.868 -48.27   0
       348    544.4049    472.3204 307.7003681  +6.4895242     661.6831     1106.526     1549.531     78.26021     156.3953     313.4781      2.756     6.42     850.8329     55.29411     106.1769         8     1.389     0.832 -23.51   0
       349    239.2836    470.5213 307.8271377  +6.4800723     649.1442       987.74     996.1824     78.75869     157.2065     313.8212      1.487     4.56     848.8266     55.29411     105.5155         7     1.297     0.563 -41.64   0
       350    898.5465    465.7961 307.5535151  +6.5040103     1960.465     3270.129     3486.611     78.00977     156.6454      313.322      1.813     4.91     852.7477     55.29411     257.7914        22     1.585     0.893 -41.75   0
       351    938.1436    465.0457 307.5370955  +6.5056360     1134.536     1646.389     1379.381     78.63436      156.895     313.7277      1.536     6.09     852.2516     55.29411     176.6131        14     1.565     0.666 -35.03   0
       352    117.6620    464.7874 307.8778361  +6.4783669     715.8948     1194.594     797.6309     78.13509     156.7078     313.4156      1.697     3.61     850.7599     55.29411      137.415         8     0.972     0.583 -24.82   0
       353    722.3221    461.6882 307.6268385  +6.4998431     2747.067     4472.822     5069.791     78.50984     157.1443     313.8212      1.793     4.54     852.6857     55.29411     425.1168        22     1.574     0.807 -45.40   0
       354     84.0967    460.9324 307.8919046  +6.4788334     1721.418     2891.743     3041.567     78.63436     156.9574     313.6965      1.787     4.82     851.3233     55.29411     244.9518        19     1.487     0.935 -44.90   0
       355    393.3797    459.7865 307.7635078  +6.4896561     3638.825     5716.617     5932.747     78.38512     156.5829     313.6029      1.714     4.69     849.3759     55.29411     487.6723        25     1.578     0.855 -44.56   0
       356    433.7829    460.0716 307.7467196  +6.4908881     925.2274     1521.557     1400.075     78.13509     156.8326     313.6029      1.899     5.13     849.6445     55.29411     116.5461        10     1.065     0.699 -34.85   0
       357    620.9996    456.4524 307.6690929  +6.4986287     9382.239     14892.34      15904.4     77.88425     156.4579     313.2595      1.700     4.61     851.4159     55.29411     1232.324        40     1.656     1.002 -42.02   0
       358    783.9775    452.6710 307.6015358  +6.5056179     14841.94     24298.54     27141.89     78.26021     156.7702     313.6965      1.824     5.11     852.5565     55.29411     2025.256        60     2.292     1.013 -46.54   0
       359    303.4393    453.3740 307.8010741  +6.4892967     2506.132     3721.882     3885.594     78.26021     156.7078     313.5405      1.684     4.69     848.1292     55.29411     333.0895        23     1.533     0.857 -42.00   0
       360    426.9658    452.9876 307.7497892  +6.4935846     638.9478     1118.803     959.4061     78.13509     156.7078     313.5405      1.742     5.24     849.1992     55.29411     99.90186         8     1.394     0.556 -17.05   0
       361    812.5020    450.0280 307.5897783  +6.5076581      1202.48     1882.148     1883.275     78.75868     156.6454     313.6653      1.716     6.18     852.4816     55.29411     172.1225        15     1.422     0.755 -49.10   0
       362    386.6091    449.6580 307.7666608  +6.4936108     1493.729     2393.263     2919.158     78.00977     156.8326     313.4156      1.802     4.88      848.762     55.29411     216.9911        17     1.339     0.932 -38.76   0
       363    968.9247    447.9282 307.5248854  +6.5137248     1696.665     2733.226     3238.761     78.88281     157.1443     313.6965      1.848     4.31     850.9633     55.29411     228.2751        17     1.405     0.827 -41.31   0
       364    375.3132    446.1879 307.7714687  +6.4946658      645.358     992.1793     1531.513     78.26021     156.6454     313.5717      1.767     4.08     848.4484     55.29411     123.2427         7     1.347     0.354 -44.76   0
       365    121.1349    444.9196 307.8770651  +6.4866844     3965.121     6408.506     6321.875     78.88281     156.9574     313.6653      1.723     4.52     849.5686     55.29411       514.45        28     1.605     0.901 -44.10   0
       366    759.2961    443.8989 307.6120805  +6.5084176     2085.829     3313.457     3477.695     78.63436     157.3931     313.5405      1.723     5.19     852.1374     55.29411     271.7075        16     1.402     0.740 -45.50   0
       367   1022.4304    442.7030 307.5028390  +6.5176586     3477.148     5587.462     6095.997     78.75869     141.4146     255.2648      1.804     4.48     849.6273     55.29411     404.8767        27     1.397     1.178 -51.82  24
       368    278.8705    441.9633 307.8116618  +6.4931852     1263.167     1987.377     2076.803     78.50984     156.9574     313.7589      1.629     5.83     847.5634     55.29411     196.3933        16     1.574     0.767 -43.24   0
       369    357.1473    439.6311 307.7792336  +6.4967653     3162.238     4953.211       5027.5     78.50984     156.9574     313.6341      1.658     4.75     847.9448     55.29411     457.5037        23     1.531     0.807 -43.09   0
       370    713.0784    437.2652 307.6314975  +6.5096171     1528.509     2604.981     2817.038     78.88281     156.9574     313.6653      1.880     4.23     851.5589     55.29411     195.4431        17     1.388     0.788 -43.49   0
       371    987.3137    436.2586 307.5176391  +6.5191529     566.1214     951.6659     1212.751     78.63436      156.895     313.8212      1.905     4.40      850.016     55.29411     99.20404         6     1.575     0.349 -44.41   0
       372    245.1650    435.2781 307.8258844  +6.4948171     855.0582     1383.992       975.28     78.50984     156.9574     313.7277      1.635     5.32     847.6091     55.29411     143.1597        10     1.448     0.552 -40.29   0
       373    455.7642    431.4099 307.7385562  +6.5034535     519.9016     863.8708      295.044     78.13509     156.6454     313.4781      1.730     3.64     848.3507     55.29411     82.61475         5     1.524     0.251 -41.36   0
       374    554.5811    430.2879 307.6975559  +6.5072146     881.7754     1568.567      2035.23     78.38512     156.6454     313.6029      2.014     6.45     849.1838     55.29411     132.9032        12     1.485     0.787 -38.67   0
       375    476.3647    428.5254 307.7300981  +6.5053320     1275.164     1972.366     2055.156     78.50984     156.9574     313.6965      1.732     4.72       848.47     55.29411     214.0448        14     1.257     0.769 -40.89   0
       376    839.3977    427.6091 307.5793603  +6.5178074     1416.322     1934.226     2106.624     78.00977     156.5829     313.5093      1.632     4.65      851.655     55.29411     220.5302        14     1.372     0.684 -36.44   0
       377    824.9838    426.5102 307.5853835  +6.5177816     1819.637     2834.831     3040.675     78.38512     156.6454     313.5405      1.623     4.36     851.6164     55.29411     298.0526        17     1.437     0.733 -34.99   0
       378    722.1631    424.7556 307.6281447  +6.5150837     14142.42     22725.38     24285.28     78.38512      156.895     313.5717      1.729     4.70     851.1406     55.29411     1914.158        46     1.635     1.063 -43.80   0
       379    624.4702    426.6333 307.6686539  +6.5110537     686.5068     1127.553     1148.154     78.50984      156.895     313.7277      1.772     5.61     850.0203     55.29411     105.7816        10     1.525     0.581 -46.96   0
       380    643.2788    420.7398 307.6610407  +6.5141134     2408.284     3974.917     4391.859     78.75869      156.895     313.6653      1.772     4.40      850.047     55.29411     347.3694        21     1.483     0.822 -41.59   0
       381    716.4410    419.0593 307.6307124  +6.5172445     664.3906      1091.01     1703.807     78.63436      156.895     313.7589      1.691     5.62     850.8393     55.29411     101.5696         7     1.529     0.583 -27.27   0
       382    618.5536    417.6053 307.6714145  +6.5145832     5093.802      8426.81     9066.785     78.00977     156.7078     313.3844      1.745     4.39     849.4901     55.29411     709.0255        28     1.620     0.886 -42.51   3
       383    614.6982    415.1636 307.6730978  +6.5154626     13737.63     21754.03     22920.27     78.63436     156.7702     313.8835      1.704     4.50     849.2731     55.29411     1894.901        38     1.624     0.969 -40.31   3
       384    947.4741    414.5343 307.5349129  +6.5267975     3505.717     5624.358     5961.021     78.75869      156.895     313.6965      1.790     4.42     850.0856     55.29411     448.9576        26     1.520     0.934 -42.38   0
       385    423.8406    411.9521 307.7524691  +6.5104194     637.1552     849.4844     369.5261     78.50984      156.895     313.5717      1.472     5.19     846.9512     55.29411     94.49921         9     1.355     0.562 -47.23   0
       386    386.5700    410.5471 307.7679948  +6.5097542     27301.81     43335.58     44982.67     78.38512     156.9574     313.6341      1.732     4.31     846.5107     55.29411     3813.174        51     1.696     1.025 -41.59   0
       387    903.3324    410.2297 307.5533901  +6.5271075     1347.262     2354.772     2583.553     78.38512      156.895     313.6653      1.871     5.65     850.6901     55.29411     168.6608        13     1.303     0.691 -48.54   2
       388    899.5449    406.6572 307.5550829  +6.5284564     686.8173     1546.858     1996.487     78.75869     156.9574     313.7277      2.552     7.72     850.6523     55.29411     98.83667        11     1.464     1.140 -60.20   2
       389    132.7162    410.0514 307.8734335  +6.5014654     2160.522     3356.686     3866.547     78.63436     156.8326       313.79      1.680     4.57     847.6306     55.29411      254.418        22     1.562     0.889 -40.31   0
       390    916.1901    405.0437 307.5482238  +6.5296757     4618.968     7457.359      7328.76     78.13509     156.7078     313.4156      1.690     4.52     850.4263     55.29411     577.1643        28     1.577     0.936 -38.91   0
       391     65.8479    405.5163 307.9013556  +6.5010965     1380.277     2278.134     2764.713     78.63436      156.895     313.7277      1.875     5.38     848.7078     55.29411     183.0234        16     1.481     0.717 -31.21   0
       392    972.0532    403.3539 307.5250792  +6.5322293     517.7276     986.0768      1096.95     78.63436      156.895     313.7277      1.979     5.79     849.3268     55.29411     86.74969         8     1.651     0.572 -64.42   0
       393    244.1026    401.0907 307.8274791  +6.5088937     12909.88     20940.96     21707.46     78.63436     157.3309     313.6965      1.720     4.54     846.4324     55.29411      1642.62        38     1.649     0.974 -41.98   0
       394     79.7441    395.1689 307.8959345  +6.5058336     760.5411     1394.164     1705.617     78.50984     156.9574     313.6653      2.005     6.08     848.1552     55.29411     120.1508        10     1.467     0.708 -40.46   0
       395    739.2169    394.8671 307.6220657  +6.5279895     648.2457     1116.572     1500.572     78.13509     156.8326     313.6029      1.736     4.82      849.959     55.29411      108.467         7     1.225     0.538 -61.49   0
       396    967.7102    393.2387 307.5272219  +6.5362607     1038.742     1634.566     1626.824     78.63436     156.8326     313.7277      1.677     5.05     849.2909     55.29411     153.8693        12     1.373     0.783 -43.79   0
       397    707.4160    393.8441 307.6353075  +6.5273529     632.6276     1016.186      1115.45     78.13509     156.7702     313.4781      1.572     4.72     849.6917     55.29411     106.8862         8     1.410     0.447 -40.69   0
       398    357.0199    390.8456 307.7809307  +6.5168993     1285.203     2147.174     1848.775     78.26021     156.7702     313.5405      1.695     5.34     845.3629     55.29411      188.546        15     1.440     0.717 -37.53   0
       399    189.9052    390.8953 307.8503307  +6.5112881     758.9174     1271.624     1382.039     78.63436     157.5174     313.6029      1.812     5.81     846.4396     55.29411      150.218        10     1.457     0.653 -46.78   0
       400    144.2937    389.6861 307.8693134  +6.5102597     4735.517      7866.56       8312.9     78.63436     157.3309       313.79      1.793     4.50     846.8684     55.29411     673.2178        33     1.615     1.030 -44.70   0
       401    249.1805    388.7622 307.8257863  +6.5141527      1288.06     1826.795     2027.072     78.26021     156.7078     313.4156      1.520     4.37     845.9342     55.29411      197.424        14     1.442     0.637 -37.12   0
       402    442.1895    388.3426 307.7456440  +6.5207781     582.6163     934.8511     1133.092     78.00977      156.895     313.4156      1.668     4.16     845.6917     55.29411     103.3687         7     1.399     0.353 -44.47   0
       403    830.3004    386.5113 307.5845172  +6.5344701     793.4199     1192.745     1019.386     78.63436     157.3309     313.6653      1.767     6.32     850.6353     55.29411     108.9838        11     1.558     0.720 -47.65   0
       404    166.4854    385.4658 307.8602400  +6.5127451     2324.479     4056.014     4549.994     78.75869      157.082     313.7589      1.956     5.38     846.3454     55.29411     280.5475        28     1.845     0.930 -52.30   0
       405    562.3674    384.7569 307.6958537  +6.5262694     953.6136     1218.391     1135.516     78.26021     156.8326     313.5405      1.335     3.59     847.1286     55.29411     170.4065         9     0.996     0.712 -32.38   0
       406    389.9997    380.1719 307.7675938  +6.5224075     2070.927     3291.889     3643.101     78.13509     156.7078     313.5093      1.724     4.39     844.9559     55.29411     294.1874        20     1.478     0.829 -43.90   0
       407    978.2373    379.8271 307.5232989  +6.5421467     899.4068     1461.769     1566.527     78.26021     156.7078     313.5093      1.925     6.40     849.0081     55.29411     115.7375        12     1.612     0.714 -41.50   0
       408    278.1722    380.9215 307.8140107  +6.5183593     613.0129     1005.911     484.2174     78.50984     156.8326     313.6965      1.703     4.38     845.3265     55.29411      102.749         6     1.228     0.445 -34.00   0
       409      8.4153    380.6592 307.9260464  +6.5094311     648.1373     980.6736     759.0944     78.00977      156.895     313.4469      1.549     4.18     848.5541     55.29411     110.8071         7     1.004     0.497 -28.85   0
       410    443.6947    373.9419 307.7455038  +6.5267729     6852.306     10961.92     11391.21     78.50984      156.895     313.8212      1.686     4.38     844.8557     55.29411     879.6655        36     1.667     0.956 -44.68   0
       411     40.1474    374.7310 307.9130691  +6.5129424     3104.911      5289.58     5824.913     78.50984     156.7702     313.6341      1.864     5.05      847.978     55.29411     419.6859        27     1.751     0.914 -46.81   0
       412    776.3519    372.8271 307.6073826  +6.5383239     1829.491     3063.735     3493.862     78.26021     156.9574     313.6341      1.784     4.97     849.7982     55.29411     247.4819        19     1.439     0.841 -39.20   0
       413    784.3775    371.2627 307.6041018  +6.5392368     12181.46     19107.18     20179.41     78.26021      156.895     313.6029      1.686     4.51     849.9222     55.29411     1613.418        37     1.641     0.946 -45.57   0
       414    348.0035    369.5919 307.7853917  +6.5253712     1064.115      1698.31     1933.225     78.00977     156.5829     313.5717      1.702     5.14     844.5092     55.29411     153.5712        10     1.313     0.569 -36.89   0
       415    959.8305    362.8379 307.5315130  +6.5485485     479.0032     799.5468     869.8333     78.26021     156.6454     313.5717      1.233     4.17     848.9841     55.29411     95.65173         6     1.146     0.433 -63.46   0
       416    192.2881    362.4216 307.8503024  +6.5231214     728.5658     1044.236     1123.059     78.63436     156.7078     313.5717      1.734     3.65     845.4052     55.29411     139.8777         8     1.238     0.654 -38.02   0
       417    909.2924    361.7883 307.5525385  +6.5473024     525.8748     660.8745     610.5897     78.38512     156.5829     313.5093      1.244     4.76     849.4653     55.29411      85.3739         8     0.952     0.674 -67.76   0
       418    491.9598    357.5485 307.7260106  +6.5351515     2777.425     4505.011     4451.395     78.63436      156.895     313.6965      1.675     4.63     844.3617     55.29411     370.0444        22     1.590     0.832 -46.72   0
       419    464.2444    358.0339 307.7375049  +6.5340259     2102.266     3193.768     3247.526     78.26021     156.8326     313.6029      1.636     4.20     844.0016     55.29411     276.8865        16     1.338     0.727 -44.88   0
       420    920.7593    357.5031 307.5479195  +6.5494525     764.5453     1122.322     987.8908     78.63436     156.7702     313.8835      1.623     5.56     849.1824     55.29411     92.54303         9     1.168     0.747 -36.89   0
       421    849.7340    354.2036 307.5775296  +6.5484532     30565.26     51038.78      53651.2     78.00977     156.6454     313.4781      1.768     4.62     849.9709     55.29411     3789.108        62     1.726     1.147 -49.30   0
       422    995.2156    354.7151 307.5170883  +6.5530769     551.8255     758.8697     525.3561     78.26021     156.6454     313.6029      1.522     4.82     848.7354     55.29411     93.87183         7     1.328     0.496 -71.55   0
       423    341.9067    350.0266 307.7885833  +6.5332438     819.9204     1383.605     1685.083     78.75868     156.6454     313.5405      1.718     5.68     843.7516     55.29411     113.2013        12     1.494     0.609 -36.77   0
       424     67.4348    350.2441 307.9025649  +6.5239651     754.7249     1192.201     968.6671     78.38512     156.8326     313.5717      1.771     4.48     846.9917     55.29411     126.3251         8     1.202     0.625 -46.38   0
       425    621.4495    346.7242 307.6725946  +6.5439393     2532.207     3944.123     4439.844     78.50984     156.9574     313.6965      1.687     4.26     846.2114     55.29411     381.0301        18     1.457     0.735 -42.53   0
       426     29.4774    346.7565 307.9184462  +6.5241319     1164.844     1836.837     1944.271     78.50984      156.895     313.7277      1.675     5.30     847.0197     55.29411       164.22        11     1.397     0.567 -33.03   0
       427    706.1607    340.1891 307.6376310  +6.5494598     74386.77     119342.8     125241.7     78.00977     156.7078     313.4469      1.694     4.49     847.4003     55.29411     10080.54        81     1.713     1.125 -41.11   0
       428    864.6279    341.7198 307.5717623  +6.5541019     1133.337     1868.906     2103.352     78.50984     156.7078     313.6965      1.750     5.69     849.3309     55.29411     168.9101        15     1.406     0.785 -52.64   0
       429     85.7144    339.4951 307.8953367  +6.5290148     1176.158     1785.895      1995.62     78.63436     157.2687     313.7589      1.720     5.51     846.5651     55.29411     163.7206        12     1.377     0.621 -37.20   0
       430    568.6164    336.9377 307.6948669  +6.5462174     2547.421     4085.462     4708.779     78.13509     156.8326     313.5093      1.831     4.49     844.8374     55.29411     367.3896        19     1.491     0.777 -37.73   0
       431    947.8365    337.0212 307.5373597  +6.5588073     762.2451     1148.488     624.3851     78.26021     156.6454     313.4469      1.518     4.91     847.9852     55.29411     122.2651         9     1.220     0.559 -43.63   0
       432    105.8149    335.7091 307.8871169  +6.5312513     5600.186     9227.576     9632.857     78.38512     156.7078     313.5405      1.753     4.54     846.2003     55.29411     760.4875        31     1.631     0.929 -38.44   0
       433    551.8878    333.1623 307.7019417  +6.5472179     6703.151     10758.29      11540.3     78.63436     156.8326     313.6965      1.705     4.54     844.3271     55.29411     920.6639        33     1.591     0.964 -41.72   0
       434    280.8477    330.6768 307.8145944  +6.5391892     2593.789     4177.592     4149.976     78.50984     156.9574     313.6653      1.677     4.40     843.4091     55.29411     367.6858        21     1.570     0.791 -39.34   0
       435    414.7586    328.2563 307.7590603  +6.5446651     24851.62     39807.03     41720.41     78.50984      156.895     313.7277      1.725     4.56     842.6678     55.29411     3319.058        55     1.715     1.049 -41.22   0
       436    522.4702    327.0450 307.7143655  +6.5487615     1231.723     1980.868     1682.198     78.63436      156.895     313.6965      1.588     4.72     843.4916     55.29411      174.696        12     1.288     0.695 -42.08   0
       437    394.5199    326.3464 307.7675302  +6.5447773     1222.103     1892.915     2326.745     78.63436      156.895     313.7589      1.727     5.68      842.664     55.29411     141.1854        13     1.254     0.726 -37.83   0
       438    494.3199    323.2695 307.7261843  +6.5493805     1140.207     1665.259     2270.017     78.88281     157.2065     313.6653      1.700     4.89     842.8879     55.29411     176.8716        12     1.214     0.655 -44.08   0
       439    810.1122    320.6303 307.5951125  +6.5609943     740.0109     1254.409     981.2623     78.75868     156.7078     313.6341      1.410     4.24     847.9263     55.29411     110.4292         7     1.196     0.429 -39.80   0
       440    645.8775    320.8225 307.6633196  +6.5554458     657.4926     971.6109     1003.138     78.26021     156.7078     313.6341      1.635     4.52     845.7172     55.29411     96.03802         8     0.876     0.664 -45.89   0
       441    503.8261    318.6505 307.7223915  +6.5516045      8129.21     12803.82     13347.94     78.26021     156.9574     313.6029      1.680     4.36     842.8569     55.29411     1102.362        35     1.613     0.937 -40.23   0
       442    391.7257    320.4793 307.7688884  +6.5471058     757.8535     1015.767     1684.681     78.88281     157.1443     313.7589      1.651     5.13     842.4745     55.29411     97.38202         8     1.173     0.842 -42.75   0
       443    773.0452    317.3554 307.6106180  +6.5611126     3015.752     4723.517     5045.131     78.63436      156.895     313.6653      1.637     4.09     847.2634     55.29411     410.0684        23     1.506     0.853 -47.92   0
       444    720.5292    317.2989 307.6324321  +6.5593875     765.2614     1128.016     1041.599     78.50984      157.082     313.6653      1.618     5.57     846.6251     55.29411     106.3203        11     1.698     0.516 -45.46   0
       445    928.4681    317.1748 307.5460695  +6.5663564     837.4467     1368.267     1228.258     78.26021     156.7702     313.6029      1.927     5.29     846.9496     55.29411     119.8528        10     1.421     0.556 -32.90   0
       446    330.5124    315.3036 307.7944862  +6.5471961     1121.323     1782.016      1811.05     78.63436     157.2687     313.7277      1.703     4.79      842.446     55.29411     185.8457        13     1.525     0.608 -48.01   0
       447    442.0595    308.8429 307.7483754  +6.5535907     531.1745     961.6067     820.6325     78.63436      156.895       313.79      1.748     5.70     842.1265     55.29411     84.05188         7     1.475     0.620 -33.12   0
       448    265.8721    309.2518 307.8215368  +6.5475321     538.0852     803.6099     1181.711     78.50984      156.895     313.7277      1.740     4.32     842.7974     55.29411     99.50299         5     1.045     0.507 -36.14   0
       449    165.9711    309.0380 307.8630346  +6.5442761     944.0295     1455.922      1896.46     78.13509     156.6454     313.5717      1.732     4.67     844.5746     55.29411     162.6621         9     1.262     0.491 -33.69   0
       450    393.6599    302.8148 307.7686803  +6.5544622     7024.119     11436.09     11812.45     78.13509     156.8326     313.4469      1.711     4.51     841.9123     55.29411     945.4869        34     1.635     0.969 -44.80   0
       451    249.4342    303.5137 307.8285574  +6.5493507     1997.578     3186.276     3478.239     78.63436     156.7702     313.6965      1.756     4.76     842.9924     55.29411     298.0683        22     1.612     0.802 -41.59   0
       452    747.3957    302.3905 307.6217739  +6.5664363     1017.809     1398.557     1668.066     78.00977     156.5829     313.5405      1.621     5.55     846.3361     55.29411     132.9811        11     1.318     0.659 -43.92   0
       453    761.6467    298.7365 307.6159774  +6.5684191     51838.06     81138.74     85259.66     78.50984     156.7702     313.7277      1.712     4.46     846.2897     55.29411     7004.018        76     1.704     1.110 -39.81   0
       454    433.1393    298.2005 307.7524387  +6.5576859     2239.423      3427.68     3486.497     77.88425     156.7078     313.3844      1.660     4.34     841.7601     55.29411     287.8721        19     1.374     0.885 -45.13   0
       455    996.5555    295.7364 307.5185073  +6.5774682     1539.012     2517.606     2384.234     78.63436     156.8326     313.7277      1.713     5.04      845.567     55.29411     218.6179        16     1.534     0.721 -42.16   0
       456    937.2911    294.9157 307.5431508  +6.5758382     2169.024     3437.538     3968.686     78.38512     157.2065       313.79      1.756     4.48     845.6917     55.29411     274.1101        21     1.442     0.911 -43.45   0
       457    579.4805    295.4978 307.6917485  +6.5636860     1148.551     1814.731     1982.502     78.50984     157.2065     313.7589      1.750     5.48     843.0008     55.29411     148.7977        13     1.307     0.736 -45.49   0
       458    470.4897    294.0847 307.7370643  +6.5606322     1087.971     1757.285     2060.431     78.38512     157.1443     313.8212      1.613     5.50     841.6487     55.29411     139.9019        12     1.301     0.656 -46.09   0
       459    419.7659    293.7483 307.7581431  +6.5590770      1966.34     2913.581     2432.906     78.50984      156.895     313.6029      1.554     4.39     841.6268     55.29411     274.1602        19     1.511     0.800 -34.51   0
       460    299.6516    293.2498 307.8080472  +6.5552676     821.6544     858.2571     1145.595     78.75869     156.7702     313.6341      1.406     4.80       841.59     55.29411     121.5745        10     1.233     0.668 -46.85   0
       461    469.8369    289.0236 307.7375059  +6.5626996     688.5549     1201.522     1666.957     78.26021     156.6454     313.4781      1.867     5.31     841.4731     55.29411     114.7968         8     1.570     0.507 -41.66   0
       462    841.2382    288.2038 307.5832723  +6.5754155     1013.861     1747.868     1669.445     77.75854     156.6454     313.4469      1.739     6.44     846.1243     55.29411     120.2231        16     1.308     0.891 -42.09   0
       463    450.1929    285.7187 307.7457761  +6.5634078      1072.35     2151.281     2609.746     78.26021     156.4579     313.5405      2.354     6.67     841.4261     55.29411     149.1395        16     1.868     0.669 -54.22   0
       464    973.0038    286.8506 307.5285874  +6.5803540     509.0304     981.8067     409.0894     78.00977     156.6454     313.2907      1.507     3.85     845.1472     55.29411     73.78571         5     1.272     0.335 -64.72   0
       465    760.0970    283.3250 307.6171385  +6.5747294     5668.347     9258.327     10054.81     78.26021     157.0197     313.7277      1.761     4.44     845.6979     55.29411     727.1348        34     1.644     0.972 -46.41   0
       466    196.3457    285.1081 307.8512275  +6.5551712     2015.492     3250.432     3602.931     78.50984     156.7702     313.8524      1.753     4.58     843.5632     55.29411     258.3018        20     1.575     0.785 -36.64   0
       467    231.5315    283.1826 307.8366790  +6.5571440      764.176     1212.744      1203.25     78.13509     156.7702     313.6029      1.742     5.06     842.7823     55.29411     117.6658         9     1.245     0.581 -35.04   0
       468    776.5733    281.1190 307.6103691  +6.5761884     2552.676     4243.509     4182.831     78.50984     156.7078     313.7277      1.775     4.98     845.6689     55.29411     352.2555        23     1.676     0.791 -43.91   0
       469     92.5451    282.2912 307.8944333  +6.5528565     1079.141     1803.383     2100.219     78.50984     156.7702     313.8212      1.751     5.89     844.5192     55.29411      133.275        13     1.454     0.672 -37.14   0
       470    478.6758    280.3325 307.7341273  +6.5665824     553.4279     844.6478     1034.651     78.75869     157.0197     313.6965      1.766     4.01     841.2869     55.29411     101.1896         5     1.178     0.391 -36.93   0
       471     79.6586    276.6710 307.8999752  +6.5547445     1332.859     2045.192     2441.092     78.75869      156.895     313.7277      1.659     4.34      844.692     55.29411     204.9667        14     1.366     0.667 -47.89   0
       472    365.9990    275.8933 307.7810762  +6.5646506     1598.253     3044.423     3442.181     78.13509     156.4579     313.4156      1.988     7.03     841.3085     55.29411     209.9198        24     1.870     0.907 -18.10   0
       473   1014.5988    272.2387 307.5117997  +6.5877672     5347.042     8719.733     9340.124     77.75854     156.6454     313.4156      1.742     4.41     844.2161     55.29411      721.161        33     1.629     0.991 -45.12  16
       474    492.5711    272.0623 307.7286345  +6.5704601     1905.334     3056.175     3422.922     78.38512      156.895     313.6341      1.730     4.76     841.1699     55.29411     290.5944        18     1.517     0.777 -44.26   0
       475    255.2758    267.6236 307.8273424  +6.5643611     5568.737     8752.127     9336.523     78.26021     156.7702     313.6341      1.679     4.39     841.9233     55.29411     757.4237        29     1.616     0.882 -43.28   0
       476    923.0812    266.3768 307.5500097  +6.5871469     540.3785     791.4535     567.3363     78.26021     156.5829     313.6341      1.400     4.41     844.3492     55.29411     111.3276         6     1.092     0.507 -49.50   0
       477    819.7083    266.0434 307.5929585  +6.5838471     629.0676     1068.923     1308.167     78.63436      156.895     313.8212      2.060     5.91     845.4784     55.29411     99.77991         8     1.203     0.817 -47.81   0
       478    947.3110    262.6809 307.5400693  +6.5894778     469.7589     751.2813     514.2596     78.38512      157.082       313.79      1.567     5.28     843.9985     55.29411     83.07819         7     1.529     0.515 -39.26   0
       479    774.6933    261.0610 307.6118233  +6.5844058     774.9694     1054.933     1128.546     78.50984      156.895     313.7589      1.556     4.99     845.2616     55.29411     133.8464         6     1.201     0.588 -24.34   0
       480    232.2135    260.4751 307.8371622  +6.5665401     700.9991     958.1749      1134.65     78.13509     156.6454     313.5093      1.482     4.78     842.1403     55.29411     112.2524         8     1.240     0.523 -34.57   0
       481    389.6763    258.2156 307.7718378  +6.5727392     1506.642     2495.936     2479.573     78.13509     156.6454     313.5717      1.732     4.26     841.1535     55.29411     194.4771        16     1.405     0.754 -46.62   0
       482    976.1526    257.3148 307.5282691  +6.5926511     930.7355      1496.76     1760.816     78.63436     156.8326     313.6965      1.631     5.19     843.5731     55.29411      138.648        10     1.383     0.550 -33.68   0
       483    195.4229    256.4913 307.8525770  +6.5669529     561.9916     968.3197     1014.157     78.63436     156.7078     313.5405      1.927     3.78     842.6919     55.29411     79.23688         6     0.997     0.412 -18.14   0
       484    159.3969    254.2009 307.8676172  +6.5666918     1605.576     2909.974     3275.002     78.00977     156.4579     313.4469      1.913     5.42     843.2857     55.29411     218.7572        19     1.544     0.939 -44.38   0
       485    311.4265    254.3573 307.8044684  +6.5717158      1194.26     1784.604     1523.925     78.26021      156.895     313.5717      1.732     6.00     841.1502     55.29411     145.7468        15     1.572     0.697 -39.53   0
       486    568.8754    249.9274 307.6976862  +6.5821436     2134.619     3466.442     3580.939     78.88281     157.1443     313.7277      1.677     4.62     841.4208     55.29411     311.5221        20     1.626     0.780 -35.04   0
       487    912.7550    249.0178 307.5548809  +6.5939695     1489.792     2637.441     2714.813     78.26021     156.7702     313.4469      1.789     4.74     843.7817     55.29411      212.296        15     1.368     0.757 -33.25   0
       488    851.1472    249.2700 307.5804625  +6.5918170     421.9823      708.287     608.0699     78.50984     156.7702     313.6341      1.459     3.47     845.0651     55.29411      90.0575         5     1.003     0.348 -46.44   0
       489    732.4436    247.5092 307.6298274  +6.5885934     4952.374     7559.877     7463.455     78.63436     156.8326       313.79      1.682     4.53      844.748     55.29411      646.164        27     1.556     0.911 -44.43   0
       490    970.0185    247.5400 307.5311446  +6.5964824     717.4341     984.0831     1570.672     78.26021     156.8326     313.5093      1.670     3.82     843.1299     55.29411     116.9772         7     1.059     0.503 -28.18   0
       491    673.2806    247.3697 307.6544064  +6.5866801     2061.164     3184.968     3527.846     78.50984     156.8326     313.6653      1.710     5.77     843.7653     55.29411     275.0419        16     1.453     0.703 -39.22   0
       492    908.5510    246.8283 307.5567005  +6.5947337     512.5942     750.3098     1403.725     78.26021     156.9574     313.6029      1.332     3.50     843.7973     55.29411      73.8761         5     1.251     0.283 -35.85   0
       493    388.3524    241.2002 307.7729611  +6.5797187     677.7145     1081.702     1180.653     77.88425     156.5204     313.2595      1.718     5.07     840.9908     55.29411     98.03784         9     1.332     0.545 -38.04   0
       494    928.5049    239.6714 307.5486521  +6.5983512     1146.433     1892.184     2062.468     78.50984     156.9574     313.6965      1.865     6.45     842.9048     55.29411     124.7346        16     1.412     0.826 -44.37   0
       495    232.0211    232.7898 307.8381766  +6.5779617     2339.127     3609.373     3692.846     78.26021     156.6454     313.5405      1.642     4.31     841.3865     55.29411     318.6522        20     1.515     0.779 -41.49   0
       496    874.8263    231.7919 307.5712131  +6.5998195      1670.63     2560.165     3098.046     78.26021     156.7078     313.5405      1.724     4.72     844.1834     55.29411     263.3815        17     1.491     0.747 -44.44   0
       497    765.1004    231.1790 307.6168112  +6.5964218     1624.495     2606.594     2462.343     78.63436     156.6454     313.4781      1.632     4.81     844.5905     55.29411     221.5549        18     1.470     0.850 -34.51   0
       498    465.9055    222.5768 307.7413764  +6.5899970     21992.18     35296.38      36817.6     78.63436     156.7078     313.5717      1.736     4.54     840.2324     55.29411     2810.097        54     1.707     1.047 -40.39   2
       499    471.3453    217.2716 307.7392956  +6.5923686     1238.749     2127.251     2968.813     78.50984     156.7702     313.6653      2.176     5.63     839.9866     55.29411     164.6785        13     1.400     0.638 -38.49   3
       500    327.0856    224.0981 307.7989849  +6.5847301     609.4218     995.8693     267.3209     78.63436     157.3309     313.7589      1.728     5.61     840.8925     55.29411      68.3822         9     1.468     0.604 -34.98   0
       501    792.0429    221.7001 307.6059382  +6.6012314     12802.99     20281.87      21966.9     78.63436     156.7702     313.9147      1.722     4.50     844.4778     55.29411      1892.49        48     1.819     1.015 -33.42   0
       502    154.0449    215.8973 307.8711339  +6.5823235     2309.775     3513.367      3679.17     78.63436     156.8326     313.8524      1.616     4.62     842.2455     55.29411     286.5844        20     1.507     0.817 -43.81   0
       503    128.6375    215.2177 307.8817097  +6.5817528     1085.431     1606.039     1570.415     78.26021     156.7702     313.4469      1.557     5.52     842.6653     55.29411     169.4017        11     1.165     0.737 -47.04   0
       504    730.4152    217.7348 307.6316700  +6.6008166     622.4863     1139.935     1112.523     78.13509     156.7702     313.6029      1.587     4.32     843.8012     55.29411     116.1206         6     1.150     0.462 -43.31   0
       505    180.9304    213.8616 307.8600359  +6.5840644     655.6238     1225.541     1113.453     78.75868      156.895     313.7277      1.820     4.29     841.7611     55.29411     101.3858         6     1.213     0.433 -37.65   0
       506    928.3990    211.9086 307.5496267  +6.6098083      1386.48     2151.626     2391.073     77.88425     156.4579     313.4781      1.627     4.57     841.8264     55.29411     197.7414        14     1.284     0.766 -37.65   0
       507    589.9746    208.3945 307.6903195  +6.5999918     4488.799     7157.822     7217.861     78.13509     156.7078     313.5405      1.696     4.38     840.4507     55.29411     580.9742        29     1.569     0.938 -46.75   0
       508    310.1516    209.4877 307.8065113  +6.5901948     986.2039     1453.703     1020.457     78.63436     156.7702     313.7589      1.656     5.55     840.8973     55.29411     126.3141        12     1.379     0.629 -40.32   0
       509    552.6339    208.3147 307.7058324  +6.5987792     2156.945      3064.74     3017.264     78.63436     156.7702     313.6653      1.582     4.24     840.1934     55.29411     311.5751        17     1.418     0.702 -42.03   0
       510    394.5865    207.2746 307.7715151  +6.5939312     1367.166     2209.271     1863.485     78.13509     156.6454     313.5093      1.645     5.15     840.5883     55.29411     187.9433        17     1.518     0.774 -35.26   0
       511    950.8997    205.3849 307.5404989  +6.6132490     2571.558     4113.608     4768.511     78.63436     156.6454     313.3844      1.762     4.82     841.4363     55.29411     362.8309        20     1.475     0.838 -41.63   0
       512    897.0242    204.9232 307.5628936  +6.6116489     10576.24     16741.58     17467.66     78.26021     156.7702     313.6653      1.668     4.39     842.4265     55.29411     1492.541        42     1.654     0.986 -40.67   0
       513    324.5221    205.2778 307.8006844  +6.5924132     1045.556     1613.974     1887.177     78.88281     157.1443       313.79      1.735     5.39     840.8568     55.29411     152.1262        12     1.195     0.773 -29.87   0
       514    983.6462    202.7694 307.5269840  +6.6154165     9025.441     14605.13     15177.43     78.13509     156.9574     313.5717      1.724     4.27     841.1057     55.29411     1091.415        37     1.602     1.015 -41.10   0
       515    572.2285    204.5600 307.6978197  +6.6009828     792.8473     1119.984      1230.44     78.26021     156.6454     313.5717      1.589     4.69     840.2415     55.29411     144.8505         9     1.128     0.586 -60.07   0
       516    216.4439    204.6645 307.8455960  +6.5890500     756.0229     1217.402     1177.395     78.63436     156.8326     313.6965      1.783     4.17      841.122     55.29411     132.0984         7     1.373     0.543 -43.55   0
       517     23.1298    201.5148 307.9259946  +6.5838717     24458.32     39654.45     42252.41     78.75868     157.1443     313.7277      1.760     4.47     844.3257     55.29411     3040.246        62     1.737     1.137 -39.00   0
       518    695.0892    202.8672 307.6468432  +6.6057773     2612.626     4199.433     4688.349     78.75868      157.082     313.6341      1.654     4.42     842.5909     55.29411     422.1985        22     1.532     0.827 -41.68   0
       519    269.4836    202.2953 307.8236457  +6.5918032      1003.34     1595.554     1561.896     78.50984     157.2687       313.79      1.773     6.35     840.9438     55.29411     113.3936        14     1.400     0.808 -41.94   0
       520    503.6107    197.5785 307.7265566  +6.6015750     1948.421      2872.33     2959.908     78.26021     156.6454     313.5405      1.604     4.33     839.4344     55.29411     267.2362        19     1.412     0.848 -34.44   0
       521    835.5459    194.4673 307.5887817  +6.6139206     2085.574      3080.85      3596.56     78.63436     156.8326     313.6029      1.667     4.59     842.7816     55.29411     244.6641        20     1.427     0.848 -45.23   0
       522    515.7255    193.5059 307.7216616  +6.6036605     2526.044     3765.626     4141.058     78.38512      157.082     313.6965      1.669     5.27     839.4122     55.29411      369.107        17     1.326     0.816 -38.31   0
       523    887.8588    193.3495 307.5670890  +6.6161219     1901.475     3134.913     3373.896     78.63436      156.895     313.6965      1.816     4.86     842.1461     55.29411     273.0309        15     1.453     0.669 -31.88   0
       524    747.1843    190.8837 307.6256063  +6.6124591     38052.45     60338.97      63298.1     78.26021     156.5829     313.6029      1.682     4.40     842.5565     55.29411     5365.038        64     1.668     1.088 -42.84   0
       525    350.2345    190.2569 307.7905110  +6.5994734     5767.596     11667.25     12697.59     78.50984      156.895     313.6965      2.153     6.63     840.7726     55.29411     675.0466        44     2.119     1.110 -65.09   0
       526    981.1270    189.6001 307.5284716  +6.6207691     2538.458     3959.596     4139.512     77.88425     156.3328     313.5093      1.677     4.33     840.6885     55.29411     336.5865        22     1.513     0.844 -45.29   0
       527   1019.3394    188.3061 307.5126417  +6.6225723      1641.96     2735.416     2436.179     78.50984      156.895      294.389      1.724     5.06     840.2293     55.29411     194.5256        18     1.549     0.794 -52.01  16
       528    915.1453    187.9843 307.5559343  +6.6192437     7061.271     11346.37     11792.53     78.00977      156.895     313.3844      1.697     4.31     841.4215     55.29411     970.5225        35     1.632     0.949 -41.51   0
       529    458.4840    187.0043 307.7456571  +6.6044332     4747.344     7673.847     8054.544     78.13509     156.5204     313.4156      1.704     4.45      839.294     55.29411     594.2949        28     1.611     0.888 -40.50   0
       530    233.1552    183.2769 307.8393769  +6.5984379     613.4323     1256.008     1660.326     78.50984     156.9574     313.7277      1.947     5.13     840.8209     55.29411     109.2402         8     1.421     0.524 -28.77   0
       531    116.0276    178.3154 307.8881942  +6.5965627     4729.513     7278.824     7991.821     78.75868     156.6454     313.5717      1.663     4.29     842.1783     55.29411      612.351        26     1.534     0.868 -39.49   0
       532    261.5075    176.1346 307.8278415  +6.6023350      6287.59     10247.95     10283.29     78.50984      157.082     313.6965      1.742     4.42     840.8195     55.29411      781.026        38     1.654     1.026 -44.78   0
       533    935.2401    177.2684 307.5479463  +6.6243351     733.2661     1178.299     1660.684     78.50984      156.895       313.79      1.855     6.44     840.7905     55.29411     102.0248        11     1.562     0.745 -47.34   0
       534    612.1792    176.7849 307.6821593  +6.6137806     735.7001     1221.526     1560.101     78.38512     156.6454     313.6029      1.936     5.66     839.9781     55.29411     92.86572        11     1.313     0.687 -47.22   0
       535    286.2585    175.0514 307.8175973  +6.6036103     32435.72     52342.92      55092.5     78.63436      156.895     313.6965      1.714     4.49     840.8627     55.29411     4115.177        60     1.719     1.075 -41.03   0
       536    715.2930    174.4704 307.6394049  +6.6181724      892.376     1145.427     1041.382     78.63436     157.0197     313.6965      1.338     5.12     841.4639     55.29411     128.9081        12     1.308     0.658 -35.08   0
       537    410.3235    170.5349 307.7662166  +6.6096228     48958.42     78034.21     81436.68     78.75869      156.895     313.6653      1.737     4.51     839.8599     55.29411     6585.021        73     1.723     1.116 -40.73   0
       538    166.2515    171.7942 307.8675537  +6.6009374      3834.79     6261.612     6740.906     78.13509     156.7078     313.3532      1.735     4.38     840.9008     55.29411     529.8209        26     1.614     0.917 -44.25   0
       539    427.4712    171.2126 307.7590710  +6.6099160      1295.01     2120.592     2440.646     78.13509     156.6454     313.5093      1.836     5.87     839.5296     55.29411      171.314        15     1.402     0.817 -36.84   0
       540    697.5208    168.8221 307.6469771  +6.6199120     1034.606     1811.488     1794.828     78.26021     156.5829     313.6653      1.888     6.44     841.0926     55.29411     135.3276        14     1.772     0.658 -49.11   0
       541    314.3380    168.2334 307.8061639  +6.6073640     17335.46     27986.26     29080.37     78.38512     156.9574     313.6341      1.728     4.62     840.8018     55.29411     2235.365        46     1.654     1.043 -41.39   2
       542    321.8888    167.8550 307.8030403  +6.6077727     2117.382     3790.858     4654.539     78.63436     156.7702     313.8212      2.062     7.38     840.7852     55.29411     295.3478        26     2.068     1.018 -64.15   2
       543    749.6168    166.7898 307.6254051  +6.6224860     31877.43     49656.57     52223.03     78.38512     156.6454     313.5717      1.683     4.68     841.3013     55.29411     4221.352        58     1.651     1.064 -41.33   0
       544    581.2493    169.2802 307.6952595  +6.6158470     584.3129     1091.959     1357.373     78.63436     156.9574     313.6965      2.167     5.32     839.3577     55.29411      87.6972         8     1.625     0.492 -44.69   0
       545    798.1405    167.2127 307.6052344  +6.6239267     1134.605     1880.568     1876.185     78.00977     156.8326     313.3844      1.780     5.63     841.3326     55.29411     149.2891        15     1.435     0.725 -38.08   0
       546     66.3757    164.0106 307.9093009  +6.6008030     8683.331     14140.08     14294.73     78.26021     156.7078     313.5717      1.721     4.38     843.1256     55.29411     1146.997        37     1.619     1.004 -43.36   0
       547     37.7230    166.9211 307.9211035  +6.5986407     529.7033     793.0658     749.4899     78.88281     157.1443       313.79      1.524     3.39     843.7894     55.29411      91.1972         5     0.982     0.338 -45.62   0
       548    100.0663    162.0701 307.8953729  +6.6027335     1465.956     2285.708     2504.941     78.63436     156.9574     313.6965      1.810     6.09     842.3029     55.29411     192.1777        15     1.397     0.785 -40.75   0
       549   1008.4549    160.9135 307.5180807  +6.6335186     1022.309     1604.491     1659.869     78.63436     156.8326     313.8524      1.603     3.30     839.3237     55.29411     198.3652        11     1.125     0.731 -53.23   0
       550    975.6989    159.9633 307.5317196  +6.6328229     540.3149     893.8263     899.1846     78.63436     156.7702     313.8835      1.653     3.48     839.7217     55.29411     110.2735         5     1.049     0.333 -46.75   0
       551    734.4354    154.1145 307.6321371  +6.6272128     608.7567     803.3611     994.0156     78.63436     156.7702     313.6965      1.448     5.49     840.6028     55.29411       88.698         7     1.406     0.605 -38.96   0
       552    583.6135    151.0637 307.6948903  +6.6234455     754.0807     1156.351     1111.348     78.13509     156.7078     313.5405      1.737     4.18      838.816     55.29411     142.9998         7     1.162     0.430 -40.02   0
       553   1009.0893    147.2392 307.5182752  +6.6391845     2047.965     3345.392     4018.704     78.63436      156.895     313.7277      1.755     4.46     838.6211     55.29411     279.2168        20     1.425     0.848 -43.50   0
       554    592.0873    144.9753 307.6915752  +6.6262413     1047.477     1655.398     1881.293     78.75868     156.7078     313.5717      1.848     5.12     838.6909     55.29411     133.2605        13     1.336     0.699 -38.47   0
       555    285.1029    141.3217 307.8192154  +6.6174947     29073.05        47452     50173.38     78.38512      157.082     313.7589      1.742     4.57     840.8557     55.29411      3591.14        66     1.844     1.108 -35.92   0
       556    600.3134    143.0746 307.6882221  +6.6273003      1913.98     3033.191     3601.875     78.75868     157.2065     313.7589      1.722     6.03     838.7109     55.29411     266.0091        16     1.516     0.674 -45.04   0
       557    344.4201    143.1212 307.7945155  +6.6187360     845.1727     1458.732     1953.068     78.26021     156.5829     313.6653      1.853     5.74     840.7958     55.29411     124.0632        12     1.535     0.604 -37.11   0
       558     30.3687    139.7870 307.9250759  +6.6095943     4219.198     7054.127     7493.171     78.13509     156.6454     313.6341      1.803     4.62     843.8032     55.29411     556.2984        32     1.722     0.989 -48.61   0
       559    716.8434    137.8825 307.6399901  +6.6333274     7701.071     12012.68     12467.27     78.63436      156.895     313.6653      1.638     4.41     839.6503     55.29411     1058.215        34     1.591     0.920 -41.17   0
       560    194.2818    138.9821 307.8570192  +6.6154204     912.8982     1340.136     1286.892     78.26021     156.5829     313.6341      1.484     4.80     840.2184     55.29411     145.4033         9     1.354     0.482 -52.61   0
       561    271.0667    136.3300 307.8252142  +6.6190856     684.2271     1248.275     1134.464     78.63436     156.9574     313.6965      1.941     4.13     840.7624     55.29411     108.7241         7     1.491     0.327 -40.51   0
       562    127.6222    135.0489 307.8848405  +6.6148108     4625.107     7610.217     7795.837     78.26021     156.9574     313.6029      1.789     4.57      840.699     55.29411     594.2044        33     1.733     0.920 -41.67   0
       563    589.4411    133.0903 307.6930742  +6.6310591      779.232     1285.179     1856.045     78.63436      156.895     313.7277      1.688     4.56      838.192     55.29411     124.1538         8     1.214     0.486 -29.61   0
       564    466.6831    132.2304 307.7440962  +6.6273171     1282.444     1981.278     2174.173     78.63436     156.7078     313.6029      1.781     5.54      837.968     55.29411     197.5764        12     1.345     0.643 -47.74   0
       565    398.2951    131.0786 307.7725427  +6.6255079     3646.647     6628.426     6693.573     78.38512     157.1443     313.7277      1.915     4.64     839.4298     55.29411     453.1628        32     1.660     1.133 -53.83   0
       566    655.5557    131.4915 307.6656640  +6.6339235     716.5271     1237.701     1328.608     78.63436     156.8326     313.8212      1.848     4.92     838.7863     55.29411     119.0263         8     1.444     0.474 -42.35   0
       567    362.7230    129.9534 307.7873568  +6.6247834     3080.101     4962.722     4945.727     78.50984     156.9574     313.6965      1.718     4.33     840.5211     55.29411     390.5001        24     1.514     0.901 -40.30   0
       568    117.0087    129.7639 307.8894276  +6.6166366     1568.357     2487.922     2090.997     78.13509     156.6454     313.4781      1.646     4.58     840.8199     55.29411     219.0042        17     1.491     0.744 -48.16   0
       569    575.2524    129.3587 307.6990937  +6.6321262     766.0263     1241.432     1087.722     78.63436     156.9574     313.6965      1.713     4.98     837.8995     55.29411      95.4743         9     1.219     0.575 -40.93   0
       570    753.3723    128.3428 307.6251363  +6.6384818     697.0135     1095.597     724.6353     78.26021     156.9574     313.6029      1.779     5.12      839.278     55.29411     119.1973         7     1.298     0.572 -46.47   0
       571    678.5452    127.6799 307.6562422  +6.6362630     794.5185      1293.47     1463.451     78.75869      156.895     313.7277      1.657     5.96     838.8391     55.29411     113.3357        12     1.293     0.871 -31.35   0
       572   1009.4533    124.3009 307.5188925  +6.6486655      1400.26     2269.042     2999.935     78.50984      156.895     313.9459      1.688     5.56     837.4899     55.29411     158.8158        17     1.453     0.802 -56.30   0
       573    214.5668    118.7851 307.8492753  +6.6244366     5403.105     8492.535     8733.718     78.26021     156.6454     313.5717      1.713     4.51       840.16     55.29411     708.9988        28     1.578     0.875 -42.57   0
       574    676.3891    117.6029 307.6574766  +6.6403509     6037.276     9315.045     9753.403     78.26021     156.5829     313.5717      1.693     4.46     838.2797     55.29411       860.83        30     1.541     0.945 -45.03   0
       575     97.3279    118.7291 307.8979754  +6.6205319     2033.963      3459.78      3694.26     78.75869     157.0197     313.6341      1.844     4.88     840.9568     55.29411     253.3713        19     1.424     0.869 -56.17   0
       576    824.5089    117.3578 307.5959543  +6.6453841     1072.225     1644.407     1640.388     78.63436      156.895       313.79      1.664     5.23     838.7496     55.29411     151.0688        11     1.298     0.594 -45.30   0
       577    628.5442    114.9609 307.6774405  +6.6398468     9263.478      14835.7     16421.84     78.63436     156.9574     313.6653      1.753     4.48     837.7902     55.29411     1184.265        42     1.743     1.013 -39.74   3
       578    632.0760    106.4585 307.6762593  +6.6434743     52086.95     81239.29     84713.74     78.75868      156.895     313.6653      1.672     4.37     837.3964     55.29411     6935.905        69     1.700     1.073 -41.26   2
       579    262.6207    116.3386 307.8293971  +6.6270551      539.137     772.1342     794.5086     78.26021      156.895     313.6341      1.559     3.80       840.67     55.29411      82.6701         5     1.013     0.409 -14.91   0
       580    566.9467    114.1248 307.7030565  +6.6381376      738.798     1223.418     1526.864     78.63436      156.895     313.6653      1.888     5.05     837.2986     55.29411     109.2942         9     1.155     0.804 -21.14   0
       581     27.2925    113.8319 307.9272317  +6.6202047     1194.892     2181.089     2063.925     78.75868     156.7078     313.7277      1.818     5.51     843.7756     55.29411     156.2075        15     1.465     0.810 -50.87   0
       582    355.7473    110.6004 307.7909070  +6.6325388     3639.047      6235.21     7157.127     77.88425     156.4579     313.2595      1.809     4.73     840.7977     55.29411     491.9789        33     1.966     0.869 -47.37   0
       583    537.3260    110.0884 307.7154969  +6.6388154     1726.022     2434.386     2623.136     78.63436     157.2065     313.7589      1.540     5.72     837.0738     55.29411     223.9391        18     1.666     0.688 -40.80   0
       584   1001.4993    109.4911 307.5226929  +6.6545149     906.1417     1391.872     1147.239     78.63436     157.3309     313.6653      1.586     5.00     836.8367     55.29411     124.5043        10     1.289     0.550 -44.16   0
       585    311.2151    100.1952 307.8097563  +6.6353447     3288.751     5481.509     5849.439     78.26021     156.5829     313.5405      1.749     4.88     840.9681     55.29411     425.7517        24     1.522     0.856 -36.82   0
       586    506.9190     97.3475 307.7285570  +6.6430599     552.8397     873.6354     737.9865     78.63436      156.895     313.7277      1.869     4.58     837.0736     55.29411     79.43658         6     1.133     0.527 -51.80   0
       587    711.1895     94.5593 307.6437945  +6.6510226     939.5046     1446.265     1504.786     78.00977     156.7078     313.4156      1.697     5.21     837.4035     55.29411     139.1007        10     1.262     0.608 -34.65   0
       588    682.6602     93.5690 307.6556794  +6.6504809     1353.649     2245.311      2734.83     78.38512      156.895     313.6653      1.728     5.69     837.1509     55.29411     183.8989        14     1.496     0.644 -47.45   0
       589      8.6381     83.2586 307.9360146  +6.6321987     735760.5      1625235      1783288     78.63436     156.9574     313.7277      2.243    12.01     843.2845     55.29411     61882.43       405     2.273     1.766 -43.42  28
       590    696.4388     90.4280 307.6500610  +6.6522366     3111.848     4807.671     4978.291     78.26021     156.6454     313.5717      1.683     4.50     837.1678     55.29411     468.0658        23     1.510     0.825 -40.88   0
       591    438.2112     81.3406 307.7576378  +6.6473729     4008.866     6491.784     6878.798     78.00977     156.7702     313.4156      1.729     4.18     837.6703     55.29411     538.2087        26     1.487     0.958 -42.53   0
       592    910.7413     76.8929 307.5614890  +6.6649558     3629.153     5934.496     6206.553     78.50984     156.8326     313.8212      1.752     4.61     836.5738     55.29411     479.2942        27     1.572     0.907 -45.49   0
       593    892.8431     77.6495 307.5688990  +6.6640484     2125.769     3178.137     3213.302     78.63436     156.8326     313.6965      1.590     4.19     836.7803     55.29411     279.9395        18     1.434     0.763 -42.99   0
       594    590.1411     77.8346 307.6946424  +6.6538916     637.8289     1183.328     1194.301     78.50984      156.895     313.6653      1.691     2.87     836.5128     55.29411     121.5773         6     0.763     0.539 -50.83   0
       595    602.8779     75.3737 307.6894341  +6.6553322     1979.208     2653.772     2856.711     78.50984     156.8326     313.6653      1.570     4.81     836.5264     55.29411     227.8446        15     1.290     0.760 -45.06   0
       596    401.6213     73.2956 307.7731086  +6.6494711     1956.499     3041.776     2578.435     78.50984     156.7078     313.5093      1.692     4.56      838.774     55.29411     260.6999        18     1.474     0.800 -43.68   0
       597    248.5051     74.3458 307.8366781  +6.6439165     788.8127     1228.553     1767.173     78.50984     156.8326     313.9147      1.970     5.31     840.1376     55.29411     92.60303        10     1.169     0.682 -38.25   0
       598    149.4849     70.2930 307.8779474  +6.6422733     3109.767     5224.081     5199.853     78.38512     157.3309       313.79      1.798     4.51     838.4751     55.29411     384.1793        24     1.555     0.911 -42.37   0
       599     31.3468     67.9569 307.9270996  +6.6392767     11782.89     19528.15     22087.53     78.63436      156.895     313.6965      1.808     4.52     841.1885     55.29411     1492.524        45     1.720     1.064 -42.43   0
       600    297.8660     68.5055 307.8163707  +6.6479791     1162.812     1884.592     2301.858     78.63436     157.0197     313.7277      1.729     5.89     841.2552     55.29411     144.7673        14     1.413     0.822 -35.97   0
       601    766.5147     66.7764 307.6217445  +6.6643338     762.9004     1296.502     1953.054     78.63436     156.6454     313.5405      1.797     5.18     836.6906     55.29411     141.2076         8     1.458     0.520 -49.97   0
       602    160.5584     66.8539 307.8734638  +6.6440639     510.5272     940.3197     883.6002     78.50984     156.9574     313.7277      1.821     3.92     838.2677     55.29411     90.12482         5     1.331     0.331 -40.16   0
       603    988.5453     66.4266 307.5295174  +6.6718616     663.9935     869.9933     708.2081     78.26021     156.9574     313.5405      1.410     3.88     833.8802     55.29411     94.09125         5     1.024     0.422 -16.07   0
       604    833.1121     62.6549 307.5942163  +6.6682515     6022.479      9811.93     10610.27     78.63436     156.7702     313.8524      1.759     4.62     836.4023     55.29411     842.2183        31     1.602     0.948 -41.67   0
       605    900.0709     63.5047 307.5663708  +6.6701277     665.8098     970.5369     972.7589     78.50984     156.9574     313.6653      1.603     5.34     836.2449     55.29411     117.2031         8     1.537     0.524 -35.80   0
       606    778.2132     62.8398 307.6170168  +6.6663482     3158.557     4900.453     5245.458     78.13509     156.7078     313.4469      1.660     4.26     836.4966     55.29411     454.3698        23     1.497     0.899 -48.12   0
       607    423.1696     63.5646 307.7644852  +6.6542080     1084.747     1679.674     1407.501     78.26021     156.6454     313.5405      1.680     5.12     837.8798     55.29411     170.0989        13     1.441     0.588 -35.88   0
       608    558.0084     67.4653 307.7083398  +6.6571000     656.9772     1005.141      1209.06     78.13509     156.6454     313.5717      1.524     4.70     836.1879     55.29411     108.1341         7     1.150     0.545 -27.16   0
       609    540.8229     61.0459 307.7156950  +6.6591764     1146.609     1685.651     2168.122     78.26021      156.895     313.5717      2.163     5.07     836.0521     55.29411     182.4114        17     1.436     0.933 -46.92   0
       610    432.5258     59.6275 307.7607312  +6.6561458     918.0851     1520.905     2019.715     78.50984     156.8326     313.6653      1.898     5.61     837.6067     55.29411     123.5568         9     1.395     0.635 -41.71   0
       611     71.6382     59.7073 307.9106421  +6.6440333     3260.496      4929.38     4725.315     78.75869     156.8326     313.7589      1.623     4.48     839.4532     55.29411     442.0906        24     1.545     0.825 -37.14   0
       612     56.1382     60.5521 307.9170521  +6.6431648     868.6011     1424.984     1567.047     78.50984     156.8326     313.7589      1.731     5.35      839.946     55.29411     125.3645        11     1.371     0.589 -46.65   0
       613    659.6894     60.3245 307.6663395  +6.6634385     483.5237     882.9089     1320.189     78.63436     157.2065       313.79      1.989     4.53     836.3965     55.29411     90.16577         6     1.212     0.481 -29.63   0
       614    595.4868     56.6405 307.6931347  +6.6628186     1231.753     1724.378     1310.084     78.63436      156.895     313.7277      1.633     5.76      836.205     55.29411     147.9214        13     1.318     0.710 -48.05   0
       615     14.0651     55.2785 307.9347071  +6.6439302     2500.066     4004.341     4747.091     78.88281     156.9574     313.6653      1.737     4.64     840.5569     55.29411     328.2594        20     1.515     0.863 -36.24   0
       616    772.9167     50.3667 307.6196360  +6.6713207     1834.867     2807.689     2905.314     78.63436     156.7078     313.6653      1.598     4.78     836.0858     55.29411     265.3644        14     1.394     0.629 -45.64   0
       617    413.4354     50.6154 307.7689654  +6.6592280     1099.102      1788.32     2204.937     78.26021     156.6454     313.5093      1.780     5.13     838.2396     55.29411     165.4276        13     1.355     0.748 -36.22   0
       618     86.3593     50.7175 307.9048311  +6.6482377     821.4196      1502.94     1166.909     78.63436      156.895     313.6341      1.801     5.30     838.6679     55.29411     123.6219        10     1.330     0.607 -27.83   0
       619    110.7260     49.3012 307.8947571  +6.6496393     876.1829     1125.378     1119.587     78.13509     157.0197     313.6653      1.454     4.66     838.2758     55.29411     130.7223         9     1.145     0.560 -46.84   0
       620     99.4214     44.1168 307.8996283  +6.6514003     9179.812     14800.43     15099.06     78.38512     156.5829     313.5717      1.720     4.43     838.1551     55.29411     1123.025        39     1.597     1.040 -44.21   0
       621    428.4545     43.9900 307.7629495  +6.6624648     2430.802     3768.067     3895.889     78.00977     156.8326     313.4156      1.708     5.34     837.6601     55.29411     328.9883        19     1.530     0.774 -41.87   0
       622    249.8908     43.6114 307.8371400  +6.6566495     661.4511     971.4238     1790.287     78.38512     156.5829     313.5093      1.620     3.83     839.7689     55.29411     105.4186         6     1.058     0.398 -16.72   0
       623    642.1478     36.1729 307.6744388  +6.6728234     17589.97     28012.19     29616.17     78.26021     157.0197     313.6341      1.673     4.62     835.9488     55.29411     2370.819        45     1.644     1.029 -39.97   0
       624    266.2895     38.0543 307.8305154  +6.6594922     1486.021     2559.261     4127.854     78.63436     156.7078     313.8212      1.859     4.43     840.4585     55.29411     215.2318        19     1.459     0.838 -40.65   0
       625    542.0054     32.2544 307.7161729  +6.6711007     5072.046     8040.142      8562.31     78.13509     156.6454     313.3844      1.672     4.58     835.5663     55.29411     728.5903        28     1.586     0.879 -40.91   0
       626    260.1053     32.5311 307.8332708  +6.6615651      1844.42     3168.432      4248.61     78.50984     156.9574     313.7277      1.910     4.89      840.134     55.29411     270.7784        18     1.580     0.725 -38.51   1
       627    698.4508     30.9888 307.6512229  +6.6768397     532.0287     893.2719     1330.683     78.00977     156.7702     313.4156      2.138     3.93     835.8527     55.29411     76.86768         5     1.313     0.337 -40.59   0
       628    447.5514     27.8291 307.7555608  +6.6697737     22021.24     35227.14     37142.76     78.26021     156.9574     313.6029      1.738     4.45     836.7744     55.29411     2846.756        53     1.679     1.053 -39.92   0
       629    268.1413     28.2527 307.8300770  +6.6636001     9035.938     14787.54     16017.28     78.63436      156.895     313.6965      1.792     4.55     840.5295     55.29411     1112.958        43     1.687     1.065 -39.30   0
       630      9.3594     30.3698 307.9375047  +6.6540539     1240.308     1945.544     1478.673     78.13509     156.6454     313.5405      1.666     4.84     838.3459     55.29411     145.6601        18     1.388     0.917 -21.68   0
       631    630.5298     29.3798 307.6794938  +6.6752402     897.6441     1443.014     1799.094     78.26021     156.7702     313.6341      1.724     3.73      835.828     55.29411     132.5797         6     1.034     0.388 -70.79   3
       632    898.7592   1021.2781 307.5348157  +6.2747109     1057.612     2275.454      2062.64     78.50984     152.8519      271.534      2.053     7.30     865.1536     55.29411      152.847        20     1.750     0.929 -30.45  16
       633    925.4907     27.8794 307.5570051  +6.6856787     1840.149     2952.031     3040.642     78.38512      157.082     313.7589      1.687     4.56     835.0707     55.29411     258.0654        17     1.457     0.741 -41.16   0
       634    328.4833     28.3906 307.8050053  +6.6655620     985.4309     1513.313     1196.779     78.26021     156.5829     313.5405      1.680     5.56      841.663     55.29411     125.2656        12     1.517     0.574 -34.60   0
       635     33.4380     27.7783 307.9275902  +6.6559315     2131.055      3417.46     3767.017     78.26021     156.6454     313.5093      1.644     4.66     837.9913     55.29411     307.1357        19     1.508     0.793 -39.65   0
       636    560.7178     27.5691 307.7085570  +6.6736591     520.9523     898.7509     807.6292     78.50984     156.7078     313.6653      1.625     5.52     835.5812     55.29411     94.19891         6     1.491     0.576 -34.35   0
       637    533.2770     27.8283 307.7199480  +6.6726364     698.7056     986.1349      1336.94     78.50984      156.895     313.6965      1.527     4.42     835.4913     55.29411     104.0546         8     1.089     0.510 -34.67   0
       638    256.0376     24.7541 307.8352231  +6.6646391     2784.991     4594.733     5124.399     78.38512     156.8326     313.6029      1.727     4.54      839.853     55.29411     398.0972        22     1.473     0.897 -44.96   0
       639    309.5547     23.0442 307.8130490  +6.6671358     999.5096     1373.431     1179.274     78.63436      156.895     313.6341      1.554     5.69     841.7127     55.29411      126.344        15     1.369     0.890 -38.17   0
       640    220.9284   1019.8799 307.8162299  +6.2526887     1975.513     3158.688     3001.245     78.88281     157.1443     288.4805      1.740     4.51     866.7599     55.29411     231.3882        20     1.410     0.892 -37.66  16
       641    724.2298   1017.0930 307.6074052  +6.2706340      6390.19     11282.83        12096     78.75868     156.6454     311.7254      1.871     4.53     867.3552     55.29411     707.8401        38     1.668     1.136 -45.12  16
       642    102.2708     17.8365 307.8993332  +6.6623437      695.105     1086.444     1014.671     78.50984      156.895     313.7589      1.304     4.52     837.1823     55.29411     125.5049         7     1.267     0.458 -42.27   0
       643    439.0923   1017.2250 307.7257620  +6.2610747     3611.189     6238.189     7341.611     78.75868     156.6454     311.0027      1.897     4.80     866.1501     55.29411     410.8711        32     1.738     1.029 -43.47  16
       644    580.2446   1016.1056 307.6672075  +6.2662453     3522.383     6502.825     7591.243     78.50984     156.8326     313.8212      2.015     4.97     868.8612     55.29411     394.9354        32     1.646     1.103 -42.57  16
       645    716.6342   1016.2538 307.6105863  +6.2707275     1051.057     1828.263     2286.119     78.50984      156.895     313.6653      1.972     6.27     867.4012     55.29411     153.9525        16     1.576     0.916 -46.91  16
       646    756.4395   1012.2753 307.5941962  +6.2736947     1253.121     2276.329     2823.386     78.50984      156.895     313.7277      1.905     5.60     866.4507     55.29411     145.9543        21     1.578     0.965 -48.97   0
       647    963.8140   1006.6672 307.5082995  +6.2829035     5048.467     10312.93     11226.63     78.13509     156.7702     313.6341      2.131     4.75     863.3115     55.29411     525.5085        46     1.842     1.348 -40.45   0
       648    722.2817   1005.3173 307.6086089  +6.2754302     1946.637     4460.482     5379.104     78.38512     157.1443       313.79      2.632     8.86      867.141     55.29411      304.559        42     2.744     1.101 -29.55   0
       649    248.2175   1006.5546 307.8053518  +6.2591020     1253.654     2044.817      2103.76     78.13509     156.7702     313.4469      1.746     5.73     866.6707     55.29411     182.3517        16     1.634     0.700 -40.14   0
       650    446.9683   1005.3978 307.7228906  +6.2662199     878.6199     1261.615     1396.363     78.00977     156.7078     313.4781      1.588     3.82     866.1323     55.29411     146.4034        10     1.107     0.707 -35.22   0
       651    739.0546   1003.9999 307.6016905  +6.2765323     881.6187     1771.387      1112.72     77.88425     156.5204     313.2907      1.929     6.89      866.931     55.29411     124.7733        15     1.611     0.928 -52.75   0
       652    370.1617   1002.3663 307.7548749  +6.2649066     1656.278     2779.195     2824.363     78.38512     156.7078     313.4781      1.691     4.99       866.72     55.29411     227.8707        18     1.548     0.826 -50.73   0
       653    757.0105    991.7849 307.5946464  +6.2821722     6617.609     12097.66     13230.31     78.38512     156.6454     313.6029      1.967     4.49     866.1658     55.29411     743.9962        44     1.758     1.201 -42.51   0
