#   1 NUMBER                 Running object number                                     
#   2 X_IMAGE                Object position along x                                    [pixel]
#   3 Y_IMAGE                Object position along y                                    [pixel]
#   4 ALPHA_J2000            Right ascension of barycenter (J2000)                      [deg]
#   5 DELTA_J2000            Declination of barycenter (J2000)                          [deg]
#   6 FLUX_APER              Flux vector within fixed circular aperture(s)              [count]
#   9 FLUXERR_APER           RMS error vector for aperture flux(es)                     [count]
#  12 FLUX_RADIUS            Fraction-of-light radii                                    [pixel]
#  13 FWHM_IMAGE             FWHM assuming a gaussian core                              [pixel]
#  14 BACKGROUND             Background at centroid position                            [count]
#  15 THRESHOLD              Detection threshold above background                       [count]
#  16 FLUX_MAX               Peak flux above background                                 [count]
#  17 ISOAREA_IMAGE          Isophotal area above Analysis threshold                    [pixel**2]
#  18 A_IMAGE                Profile RMS along major axis                               [pixel]
#  19 B_IMAGE                Profile RMS along minor axis                               [pixel]
#  20 THETA_IMAGE            Position angle (CCW/x)                                     [deg]
#  21 FLAGS                  Extraction flags                                          
         1    457.9856     28.8686 307.7477407  +6.6789445     1684.624     2398.182      2410.91     77.56311     155.6226     311.3072      1.535     3.33     824.7302     54.88933     265.4353        17     1.180     0.906  69.19   0
         2    705.2435     22.5718 307.6452282  +6.6898529     7452.644     11301.49      11783.5     77.68732     155.8084     311.3072      1.638     3.24     822.7455     54.88933      1059.22        39     1.485     1.139  55.82   0
         3    625.3227     21.9321 307.6784535  +6.6874333     3806.301     5780.239     5900.883     78.18214     155.8702     311.3691      1.594     3.14     822.1676     54.88933       528.71        26     1.377     0.967  56.43   0
         4    425.5597     18.0516 307.7615761  +6.6823173     6267.258     9577.585     9790.127     78.05873     155.8084     311.4001      1.625     3.30     826.3721     54.88933      844.742        35     1.446     1.098  62.85   0
         5     26.5067     17.5399 307.9273732  +6.6690679     8361.076     12879.76     14098.56     77.93512     155.6846      311.462      1.729     3.56     829.1646     54.88933     1173.211        39     1.477     1.162  59.29   0
         6    501.3932     15.3431 307.7301622  +6.6859868     903.9704     1286.998     1281.833     77.56312     155.6226     311.1213      1.554     4.48     822.7981     54.88933     148.7694        10     1.185     0.752  46.14   0
         7    322.1634     12.9730 307.8047026  +6.6809308     12485.93     19827.52     21448.72     77.56311     155.5607     311.2143      1.671     3.39     830.3561     54.88933     1667.781        45     1.491     1.187  58.91   0
         8     95.8364     13.2533 307.8987170  +6.6731794     2449.462     3852.666         3993     77.93512     155.7465     311.4311      1.662     3.71     828.8743     54.88933     337.7931        23     1.413     0.969  50.25   0
         9    417.1413     13.7952 307.7652168  +6.6837905     834.0503     1199.048     1010.374     77.43871     155.6226     311.1833      1.404     3.60     826.9195     54.88933     153.7911         8     1.005     0.661  76.42   0
        10     86.9895     11.8991 307.9024380  +6.6734394       1482.9     2414.765     2591.619     77.81132     155.3746     311.1833      1.672     4.43     828.8297     54.88933     208.6522        18     1.248     1.097  50.21   0
        11    791.0000     12.0184 307.6099535  +6.6970855     738.5641     1089.354     1367.045     77.56311     155.2505     311.0594      1.556     4.94     820.9747     54.88933     95.73804         9     0.955     0.723  19.80   0
        12    388.3600     10.9885 307.7772684  +6.6839797     2204.875     3161.485     2876.566     77.43871     155.5607     311.1523      1.553     3.32     828.5037     54.88933     308.8401        19     1.203     0.939  50.83   0
        13    983.5345      8.4094 307.5300813  +6.7050250     736.5338     977.1124     964.5854     77.56312     155.5607     311.3072      1.447     3.73     816.2886     54.88933     135.7468         8     1.054     0.803  78.15   0
        14    649.1026      6.4410 307.6690944  +6.6946252     11126.18     16673.28     18186.22     78.05873     155.6226     299.6937      1.614     3.20     821.9741     54.88933     1668.622        48     1.520     1.192  59.61  18
        15    640.7615      2.2701 307.6727000  +6.6960664     9067.452     11897.39     12638.79     77.06431     136.9024     249.2145      1.425     3.13     821.7654     54.88933     1374.619        30     1.285     1.001  21.69  27
        16     67.0653      7.4993 307.9108636  +6.6745821     720.5284       926.81     932.9485     78.05873     155.8702     307.2548      1.432     4.02     828.5396     54.88933     102.6859         8     0.980     0.626  42.26  16
        17    813.6476      5.7142 307.6007555  +6.7004466     1607.677     2349.857     2505.185     78.05873     155.6846     292.6626      1.599     4.34     820.5231     54.88933      241.238        17     1.391     0.750  65.60  16
        18    526.9044      6.3873 307.7198647  +6.6905408     1372.479     2094.985     1977.268     77.81132     155.4987     298.7916      1.596     3.26     821.9464     54.88933     239.5763        15     1.156     0.829  42.03  16
        19    249.5035      3.3383 307.8352133  +6.6824575      6148.29     10098.07     10992.69     77.81132     148.6518      264.455      1.831     3.67      829.617     54.88933     770.5682        43     1.640     1.367  -3.37  24
        20    884.1171      3.7765 307.5715422  +6.7036081     1469.437     2061.288     2157.649     77.93512       151.86      270.118      1.485     3.58     820.9568     54.88933     265.4678        13     1.188     0.737  81.12  24
        21    410.7090      2.3172 307.7682756  +6.6883108     7756.434     10322.58     10424.43     77.06431     137.6749     249.7555      1.464     3.37     827.3802     54.88933     1063.816        28     1.277     1.015  23.34  24
        22    671.1741      1.7616 307.6600816  +6.6972976     6810.487     9633.373     10671.27     72.42065     129.8919     241.0335      1.497     5.18     822.1046     54.88933     1102.314        30     1.813     0.834  -3.95  24
        23    726.3846      1.4886 307.6371526  +6.6992635     1328.616     1595.729     1443.595     69.56885     126.0496     236.6335      1.072     2.78     822.0418     54.88933     261.2888        10     1.025     0.582  10.52  24
        24    546.1921    981.9163 307.6790694  +6.2885822     846.6802     1188.377     1187.787     77.68731     155.4367     311.2452      1.561     4.98     854.5034     54.88933      113.665         9     1.114     0.630  46.07   0
        25    712.1911   1023.6284 307.6087585  +6.2769390     421.7539     536.0996     605.7061     67.88548      124.045      234.834      1.086     3.00     853.6512     54.88933     99.48865         5     0.745     0.435 -20.31  24
        26    359.6185   1023.3086 307.7551291  +6.2652260      1306.15     1707.511     1924.055     72.02016     128.9233      239.911      1.294     3.31     854.2224     54.88933     252.6672        12     0.998     0.861   3.80  24
        27    228.7483    981.8398 307.8108508  +6.2779331     1385.985     2012.802      1450.75     77.93512     155.8084     311.4001      1.502     3.46     854.2368     54.88933     187.3418        13     1.022     0.876   6.22   0
        28    193.3573    981.6864 307.8255472  +6.2768037     649.8931     1264.688     1106.434     78.05873     155.6226     311.4001      2.111     4.51     852.9963     54.88933     96.48395         7     0.982     0.657  -7.33   0
        29     53.7112    979.6697 307.8835834  +6.2729255     2582.641     4265.737     4474.169     78.05873     155.9939     311.3691      1.787     4.01     850.2968     54.88933     341.8575        24     1.405     1.019  45.59   0
        30    947.6406    977.5522 307.5125563  +6.3038430     6225.417     10602.14     11939.11     77.93512     155.7465     311.2762      1.878     3.58     849.5553     54.88933     757.8474        43     1.675     1.270  50.74   0
        31    203.8431    973.6364 307.8214656  +6.2804794      632.709     921.3235     1140.802     77.81132     155.6846     311.2453      1.399     3.44     853.1221     54.88933     94.22046         5     0.757     0.452  15.79   0
        32    629.5259    971.8547 307.6448120  +6.2955330     752.0797     1262.701     618.4359     77.93512     155.6846     311.3382      1.644     4.58     854.1333     54.88933     129.2966        10     1.239     0.572  38.39   0
        33    921.5529    969.2664 307.5236639  +6.3063896     1887.711     3337.226     3422.705     78.05873     155.6846      311.462      1.842     4.27     850.0844     54.88933      232.067        22     1.443     0.963  54.71   0
        34    642.0111    965.1680 307.6398532  +6.2987118     4362.159      6754.43     6940.667     77.56311     155.4987     311.2762      1.606     3.36     853.8434     54.88933     588.1458        30     1.448     1.025  52.33   0
        35    254.2531    965.2809 307.8008209  +6.2856264     4176.412     6360.375     6606.005     78.05873     155.7465      311.462      1.676     3.46     853.8294     54.88933     562.0636        29     1.375     1.059  49.08   0
        36    992.3028    965.4123 307.4944204  +6.3103475     681.9517     1168.158     1788.599     77.81132     155.4987     311.1833      1.823     3.90     847.5981     54.88933     98.02002         6     0.956     0.456  86.24   0
        37    780.8857    965.8509 307.5821768  +6.3030878     1224.493     1682.938     1600.682     78.05873     155.6846      311.462      1.494     3.21      851.966     54.88933     177.9436        10     0.903     0.746  27.60   0
        38    464.2260    963.6556 307.7137098  +6.2933638     1088.985     1644.657     1405.618     77.68732     155.7465     311.2453      1.626     3.81     854.0818     54.88933     181.4157        13     1.225     0.692  39.32   0
        39     22.9613    962.5129 307.8969268  +6.2789679     2013.056     3324.912     3001.284     78.05873     155.6846     311.4001      1.742     3.81     849.6871     54.88933     267.5809        22     1.286     1.085  51.58   0
        40    873.6304    962.0164 307.5438019  +6.3077775     811.8986     1222.654     1313.659     77.68731     155.4987     311.3382      1.646     4.81      850.988     54.88933     118.8432         8     1.119     0.586  54.45   0
        41    965.6293    959.5289 307.5056909  +6.3118834     562.9512     820.9308      766.611     77.93512     155.7465     311.4001      1.657     6.82     848.3475     54.88933     83.14203         7     1.381     0.944  65.47   0
        42    290.3069    958.7062 307.7860755  +6.2895542     663.9868     1010.779     1272.968     78.05873     156.2409     311.3691      1.706     4.83      854.291     54.88933     95.70844         8     1.196     0.553  65.33   0
        43    998.2302    957.6027 307.4922207  +6.3137689     673.7435       1119.2     1447.299     77.56311     155.5607     311.2143      1.985     5.36     847.1353     54.88933     85.87634         8     1.293     0.627  89.82   0
        44    945.3719    958.4540 307.5141369  +6.3116493     583.0876      697.974     553.0433     77.81132     155.8084     311.3072      1.386     4.06     849.0334     54.88933     98.78937         5     0.947     0.496   2.68   0
        45    566.4755    957.3671 307.6714732  +6.2993952     1615.892     2526.947     1809.322     77.93512     155.7465     311.3691      1.679     4.63     854.0076     54.88933     226.2113        19     1.400     1.007  37.52   0
        46     55.4713    955.0568 307.8836832  +6.2831425     655.5652     1080.509     1273.175     78.18214     155.7465     311.3691      1.892     5.36     849.8941     54.88933     122.5504         9     1.329     0.615  40.96   0
        47    605.3356    954.1721 307.6554479  +6.3020188      1162.59     2044.657     2232.769     77.68732     155.7465     311.3382      1.870     5.38     853.9481     54.88933     190.4774        15     1.431     0.808  25.59   0
        48    285.7299    951.9421 307.7882033  +6.2921916     1381.207     2487.518     2543.327     78.18214     155.7465     311.3691      1.907     3.70     854.1337     54.88933     206.0231        16     1.148     0.971  50.63   0
        49    553.5856    950.1730 307.6770659  +6.3019313     665.7735     1005.738     559.4183     77.68732     155.6226     311.3072      1.410     3.61     853.8688     54.88933     118.9155         5     1.011     0.370   4.66   0
        50    753.0877    948.3682 307.5943030  +6.3093714     806.7224     1310.294     1205.252     78.18214     155.5607     311.3691      1.688     3.74     852.0402     54.88933     113.3315         9     0.865     0.772  70.79   0
        51    890.1951    944.4673 307.5375122  +6.3155750     6510.075     10700.31     11179.52     77.56311     155.4367     311.2143      1.779     3.53     850.2298     54.88933     841.1462        40     1.611     1.168  53.37   0
        52    128.3377    945.9131 307.8537437  +6.2893748     572.2163     793.4247     451.7328     78.05873     155.9321     311.4311      1.489     3.94     850.6613     54.88933      79.3714         6     1.064     0.418  76.98   0
        53    426.0883    941.6306 307.7302825  +6.3011713      1982.65     2938.549     3043.113     78.18214     155.5607     311.3382      1.613     3.58     853.7564     54.88933     305.2978        22     1.407     0.925  58.13   0
        54    327.6910    939.8792 307.7711899  +6.2985829     9321.146     14427.45     15390.67     77.81132     155.9321      311.462      1.682     3.42     853.9307     54.88933     1359.518        40     1.482     1.158  50.86   0
        55    247.8316    938.7568 307.8043799  +6.2963565     6975.978     10805.93     11597.14     77.56311     155.7465     311.2452      1.678     3.52     852.7902     54.88933     951.5542        36     1.460     1.127  64.04   0
        56    760.3411    933.8315 307.5917788  +6.3156140     779.0578     1207.905     967.7449     77.81132     155.8084     311.3691      1.578     4.29     851.9478     54.88933     127.0266         6     0.880     0.595 -53.93   0
        57    576.0956    933.4789 307.6682814  +6.3095772     1075.113     1393.685     2102.608     77.81132     155.9939     311.4311      1.323     3.28     853.5317     54.88933     168.3069        12     1.001     0.864  56.78   0
        58    905.9886    929.6047 307.5314526  +6.3222378     976.1147     1475.955     1669.891     77.68731     155.4987     311.3072      1.583     3.53     849.4529     54.88933     192.1289        11     0.990     0.880 -69.83   0
        59    861.9630    928.5311 307.5497666  +6.3212067     651.3738     1133.448     1236.958     77.93512     155.7465      311.493      1.514     4.09     850.6976     54.88933     105.8417         6     0.997     0.480   9.03   0
        60    973.0572    925.3502 307.5037500  +6.3262382     669.7344     1166.868     1053.841     78.05873     155.7465     311.4311      1.689     3.61     846.9399     54.88933     94.74768         7     0.727     0.686  23.53   0
        61    835.8685    922.9998 307.5607854  +6.3226155     547.4438     992.0996     790.0936     77.56311     155.2505     311.1833      1.617     4.94     850.9048     54.88933     107.6188         7     1.252     0.552  79.39   0
        62    742.2827    922.4974 307.5996558  +6.3196863     1639.422     2598.966     3129.139     78.05873     156.1175      311.462      1.855     3.98     851.8141     54.88933     270.0501        17     1.320     0.954  82.13   0
        63    566.0718    923.5991 307.6727745  +6.3133180      625.512     996.0261     850.0255     77.43871     155.3126     311.2143      1.612     3.89     853.3387     54.88933     81.52832         5     0.885     0.490   0.04   0
        64    973.7943    918.2125 307.5036827  +6.3292087     1139.372      1833.22      2267.29     77.68731     155.5607     311.2762      1.775     4.56     846.7057     54.88933     144.5012        15     1.175     0.923  48.67   0
        65    617.8526    919.1008 307.6514283  +6.3169134     640.5594     826.7512     716.5816     77.93512     155.7465     311.6167      1.350     4.37     852.9387     54.88933     103.3232         6     0.809     0.671  87.14   0
        66    606.2216    919.2572 307.6562518  +6.3164583     742.9673     976.0106      560.501     77.68732     155.6846     311.2143      1.407     3.88     853.1143     54.88933     111.7839         6     0.780     0.554  38.90   0
        67    527.3683    918.2477 307.6890221  +6.3142264     1028.892     1648.264     1642.146     77.81132     155.7465     311.3072      1.649     3.69     853.2664     54.88933     162.7566         8     1.021     0.553  65.68   0
        68    660.8603    915.9607 307.6336786  +6.3196529     2543.291     3830.346     3797.532     78.05873     155.7465      311.462      1.559     3.14     852.0267     54.88933     409.4017        20     1.227     1.004  44.29   0
        69     57.3798    912.0871 307.8843409  +6.3009402     2809.147     4637.351     5030.199     77.81132     155.4987     311.2762      1.754     3.51     848.9592     54.88933     374.8462        25     1.421     1.000  54.67   0
        70    821.6814    912.4904 307.5670273  +6.3264777     744.5341     1078.208     1248.967     77.81132     155.9939      311.462      1.510     4.93     850.6652     54.88933     106.1313         8     1.067     0.646  37.70   0
        71    201.0837    911.0806 307.8247189  +6.3062031      2174.55     3479.206     3698.219     77.93512     155.9939      311.462      1.641     3.56     851.3844     54.88933     292.4603        19     1.249     0.942  61.59   0
        72    938.9865    910.9462 307.5183771  +6.3310430     637.7417     1032.989     865.3302     77.43871     155.6846     311.1523      1.552     4.97      847.748     54.88933     112.5332         8     1.234     0.568  59.53   0
        73     74.9958    911.2403 307.8770566  +6.3018843     1855.583     3124.604     2981.672     77.31412     155.4987     311.1213      1.694     3.75     849.0909     54.88933     274.6637        20     1.344     0.912  52.21   0
        74    956.9020    909.5121 307.5109869  +6.3322344     490.6496     825.4205     1436.299     78.05873     156.1792     311.4311      1.633     4.25       847.08     54.88933     96.93774         5     1.185     0.434 -64.09   0
        75    339.7733    906.6309 307.7672929  +6.3127114     887.4715     1677.426      2084.67     77.56311     155.4987     311.2453      1.876     5.12     853.2925     54.88933     171.7466        11     1.707     0.495  81.68   1
        76    655.5233    905.0499 307.6362603  +6.3239768     6755.322     10667.64     11187.04     77.93512     155.8084     311.4001      1.687     3.30     851.7108     54.88933     934.7875        40     1.529     1.130  63.62   0
        77    235.1371    907.7640 307.8106938  +6.3087195     844.3444     1170.288     1370.803     77.93512     155.7465     311.4001      1.533     5.14     851.9203     54.88933     130.6791         9     0.995     0.751  32.20   0
        78    792.8776    906.1842 307.5791971  +6.3281151     839.8789     1175.177     1099.348     77.68731     155.4367     311.2762      1.380     3.84     850.7365     54.88933     151.8423        10     0.998     0.928  26.10   0
        79     15.4223    903.0673 307.9020629  +6.3032461     1194.671     2095.959     2792.531     77.68731     155.6846     311.3691      2.132     4.01     848.1519     54.88933     180.1783        16     1.207     0.997  89.17   0
        80    893.4106    901.4797 307.5376159  +6.3334244     2720.831     4113.673     4398.841     77.68732     155.4987     311.2453      1.649     3.52     848.9094     54.88933     369.4745        21     1.322     0.942  73.45   0
        81    444.8126    902.7748 307.7238155  +6.3178370     536.2689     751.0509     428.7761     77.68731     155.5607     311.3382      1.490     5.47     853.0893     54.88933     75.95935         8     1.183     0.712  48.44   0
        82     28.4354    901.7985 307.8967037  +6.3042091     1017.286     1612.877     1352.822     77.18932     155.5607     311.2143      1.623     4.67     848.2761     54.88933     146.5328        11     1.205     0.701  34.07   0
        83    338.4537    898.1060 307.7681276  +6.3161853     16179.02     24895.56     26920.15     77.93512     155.6846     311.6167      1.655     3.35       853.09     54.88933     2301.337        53     1.557     1.219  54.19   0
        84    209.4066    897.7291 307.8217136  +6.3119938     1295.271     1918.288     2049.781     77.56312     155.3746     311.3072      1.611     3.67     851.4211     54.88933       169.48        16     1.136     0.963  48.29   0
        85     73.0751    898.8250 307.8782728  +6.3069432     1425.973     2070.932      2246.47     77.68731     155.5607     311.3691      1.541     3.37     848.8159     54.88933     192.9785        12     0.995     0.792  61.52   0
        86    389.0035    897.7467 307.7471539  +6.3180348      530.827     844.8646     832.7885     77.43871     155.4987     311.0284      1.375     4.93     853.0101     54.88933     98.57983         8     1.081     0.636  33.04   0
        87    416.2255    889.1216 307.7361426  +6.3225103     1140.594     1568.257     1265.949     77.81132     155.6846     311.3691      1.520     4.03     852.8597     54.88933     176.3038        11     1.203     0.654  72.87   0
        88    101.6026    889.0563 307.8667597  +6.3119374     1592.195      2430.67     2596.151     77.43871     155.4987     311.0903      1.655     3.66     849.2111     54.88933     254.3811        19     1.280     0.935  32.65   0
        89    670.0362    885.1578 307.6309023  +6.3326736     905.7188      1356.14     2099.694     77.81132     155.7465     311.2762      2.024     4.61     850.6792     54.88933      156.295        11     1.098     0.740 -79.06   0
        90    496.6714    885.8206 307.7028556  +6.3265777     761.8293      1028.16     1435.947     77.68732     155.6226     311.3691      1.436     3.05     852.7253     54.88933     141.7446         9     0.904     0.677 -29.74   0
        91    883.6874    883.1521 307.5422661  +6.3406630     2074.711     2968.755     2999.557     78.05873     155.6226      311.462      1.500     2.97     848.6333     54.88933     296.8746        17     1.083     0.933  50.77   0
        92     85.2376    882.1625 307.8737859  +6.3142302     2526.986     4186.456     4789.806     77.81132     155.6226     311.2762      1.795     4.03      848.732     54.88933     333.6229        26     1.449     1.090  74.49   0
        93    854.3075    882.5360 307.5544848  +6.3399333     1764.332     2895.194     2531.165     78.05873     155.9321      311.462      1.672     4.23     849.3303     54.88933     249.9595        17     1.433     0.750  40.01   0
        94    817.6248    881.9984 307.5697328  +6.3389263     3010.163     4448.813     4991.908     77.68731     155.4367     311.1833      1.643     3.45     849.4562     54.88933     425.5294        23     1.378     0.915  53.24   0
        95    333.0397    880.9995 307.7709509  +6.3230629     647.9047     1087.177     1787.515     77.18932     155.4987     311.0903      2.293     5.83     852.7452     54.88933     94.32758         8     1.171     0.818  81.75   0
        96    553.5775    873.3155 307.6796501  +6.3336509     330692.5     505038.2     542809.4     77.93512     155.4367     311.3072      1.702     3.70     852.3659     54.88933     49329.91       201     1.795     1.485  61.50   4
        97    397.8490    875.9186 307.7442158  +6.3273410     7581.153     11547.94     12506.58     78.05873     155.7465     311.4311      1.622     3.29     852.5258     54.88933     1075.059        35     1.447     1.069  53.68   0
        98    641.5419    876.2132 307.6430324  +6.3354088     1065.366     1882.494     2397.511     77.43871     155.6846     311.1213      1.830     4.16     850.9244     54.88933     158.6841        12     1.163     0.791  22.92   0
        99    341.0161    874.2902 307.7678653  +6.3261004     12527.16     19219.41     20937.96     77.81132     155.5607     311.2453      1.645     3.26     852.4737     54.88933      1700.11        45     1.463     1.206  57.15   0
       100    891.9866    869.6611 307.5392720  +6.3465088     4975.371     7988.809     9085.988     77.56311     155.5607     311.1523      1.799     3.18     847.9423     54.88933     738.2766        37     1.667     1.195  25.08   0
       101    659.5054    870.7713 307.6357570  +6.3382577     3567.409     5358.958     6088.795     78.18214     155.4987     311.3072      1.663     3.42     850.3594     54.88933     507.3455        22     1.330     0.898  59.38   0
       102    731.1296    867.3574 307.6061346  +6.3420694     732.5888      1016.49     833.4232     77.93512     155.7465      311.462      1.523     4.66     850.2428     54.88933     108.9793         8     0.942     0.656  61.52   0
       103    634.1992    864.8033 307.6464638  +6.3398714     3362.782      5177.86       6052.9     77.43871     155.3126     311.1523      1.641     3.58     850.6959     54.88933     467.1205        24     1.335     0.973  40.36   0
       104   1023.7507    863.4283 307.4847731  +6.3534901      1346.54     1979.305     2422.352     66.73965      122.638     232.8964      1.443     3.78     843.8419     54.88933     325.7394        11     1.410     0.431  88.37  24
       105    822.8633    863.9734 307.5681615  +6.3465411     1575.089     2632.087      2677.47     77.68732     155.7465     311.3382      1.649     4.04     848.7172     54.88933      221.993        19     1.388     0.868  45.52   0
       106    624.6630    863.8409 307.6504553  +6.3399484     979.4109     1511.889      1814.56     78.05873     155.6846      311.493      1.555     4.34     850.8643     54.88933     137.5546        10     1.211     0.689  63.52   0
       107    949.7994    862.5410 307.5155069  +6.3513826     803.6638     1306.781     1571.542     77.31412     155.4987     311.0903      1.623     5.21     845.8607     54.88933     120.1038         8     1.062     0.724  -3.33   0
       108    627.0267    859.5074 307.6496193  +6.3418163     2223.674     3274.874     3931.392     78.18214     155.4987     311.2453      1.683     4.19     850.7186     54.88933     304.9501        20     1.443     0.841  51.13   1
       109    320.9318    858.5855 307.7767320  +6.3319056      897.795     1498.346     1371.853     77.56311     155.6226     311.3072      1.701     5.63     852.4521     54.88933     113.3155        10     1.100     0.854 -52.03   0
       110    910.7859    857.5645 307.5318715  +6.3521307      3025.89     4543.972     4917.365     77.68732     155.5607     311.2143      1.647     3.20     846.9617     54.88933     419.9263        24     1.302     0.972  45.11   0
       111    368.9525    853.4382 307.7569687  +6.3356465     2651.056     3967.889     4520.775     77.93512     155.7465     311.2453      1.615     3.36     851.9208     54.88933     404.9992        23     1.269     1.011  44.73   0
       112    337.3428    844.9657 307.7703771  +6.3380791     522.9639     879.4874     405.7766     77.93512     155.7465     311.4001      1.491     2.69     851.9988     54.88933     114.4282         5     0.753     0.596  -6.15   0
       113    505.2500    843.0567 307.7007308  +6.3445151     2916.861     4335.703     4320.183     78.05873     155.7465     311.4311      1.561     3.22     851.3163     54.88933     421.7142        23     1.298     0.964  53.35   0
       114    849.9028    842.3526 307.5576591  +6.3563702     943.3541     1365.421     1764.363     78.05873     155.6226     311.5549      1.375     3.09     848.0005     54.88933     209.4449         9     0.991     0.677  69.04   0
       115    570.8339    841.2536 307.6735623  +6.3474629     727.7422     1110.508     543.3442     77.93512     155.7465     311.3382      1.617     3.68     850.9059     54.88933     118.7125         8     0.916     0.706 -67.73   0
       116    552.0118    839.2561 307.6814440  +6.3476550     5813.666      8955.01     10103.72     77.43871     155.6846     311.0903      1.645     3.30     850.9832     54.88933     834.5103        36     1.445     1.143  43.52   2
       117    559.0747    838.7640 307.6785281  +6.3480954     1229.464     1917.107     2162.224     77.93512     155.8084     311.4311      1.603     4.62     850.9239     54.88933     181.0921        15     1.346     0.873  11.02   3
       118    263.7699    839.6907 307.8010997  +6.3377782     776.9588     934.2812      699.048     78.18214     155.4987     311.3691      1.393     4.57     851.8961     54.88933     105.3492         7     1.022     0.581  69.36   0
       119    469.8174    838.1207 307.7156075  +6.3453611     1609.354     2311.021      2118.59     77.68731     155.4367     311.3382      1.471     3.69     851.1669     54.88933     245.5141        16     1.218     0.818  63.97   0
       120    887.8135    837.5122 307.5420807  +6.3596375     1330.391     2164.851     2652.542     77.68732     155.5607     311.2762      1.828     4.49     847.1684     54.88933     202.8835        16     1.217     1.001  38.48   0
       121    111.3651    837.0389 307.8644613  +6.3337342     1249.738     1987.165     2044.371     77.81132     155.6226     311.2143      1.653     5.26     848.3264     54.88933     218.7502        15     1.438     0.728  51.96   0
       122    687.4578    836.2086 307.6253109  +6.3534601     683.2155     1042.585     1038.975     77.43871     155.6846     311.1213      1.456     3.40     849.2984     54.88933     120.9225         5     0.814     0.410  66.29   0
       123    522.7251    833.0305 307.6938124  +6.3492403     19317.51     29602.52     31708.12     77.93512     155.8084     311.4001      1.639     3.19     850.7917     54.88933     2754.611        63     1.587     1.266  57.69   0
       124    936.4147    831.4598 307.5221039  +6.3637625     3521.347     5887.615     6143.688     77.56312     155.6846     311.1523      1.828     3.67     845.8246     54.88933     530.3128        32     1.507     1.136  40.32   0
       125    169.4684    832.4902 307.8404927  +6.3375714     610.9203     637.7929     184.3508     78.18214     155.8702     311.3691      1.362     4.62     849.9815     54.88933     93.92023         7     0.912     0.665  68.16   0
       126    409.0735    829.4597 307.7411182  +6.3468926     526.6077      558.957     947.1342     78.18214     155.7465     311.4001      1.734     3.90     851.0944     54.88933     96.22375         5     1.306     0.334  48.84   0
       127     56.4611    829.7756 307.8875000  +6.3348787     474.9864     767.2492     1187.844     77.68732     155.6846     311.3072      1.598     4.28     847.0368     54.88933     96.10339         5     0.921     0.567  40.18   0
       128     33.0910    823.6178 307.8974100  +6.3366310      1498.78     2367.903     2631.747     77.81132     155.4987     311.3072      1.624     3.94      846.683     54.88933     194.5042        13     1.122     0.798  53.83   0
       129    315.3659    821.8617 307.7802790  +6.3468742     3491.761     5055.517       5529.7     77.93512     155.8084     311.3382      1.538     3.15     851.7252     54.88933     474.8566        23     1.275     0.930  59.09   0
       130    780.8444    817.6008 307.5871610  +6.3642716     53840.17     82576.59     88632.54     77.43871     155.4367     310.9973      1.671     3.35     848.0424     54.88933     8438.685        91     1.668     1.336  58.17   0
       131     15.3296    819.9152 307.9049086  +6.3375592     2109.432     3181.776     3659.836     78.18214     155.9939     311.4311      1.650     3.46     846.4973     54.88933     268.4216        19     1.186     1.000  60.72   0
       132    719.7491    819.5065 307.6124639  +6.3614365      712.879     1192.868     1833.763     77.93512     155.6226     311.5858      2.026     4.40      848.834     54.88933     109.5718         7     0.906     0.609  73.98   0
       133    424.1471    816.2828 307.7353031  +6.3528378     912.8965     1392.598     1802.024     78.05873     155.7465     311.5239      1.717     5.56     850.4814     54.88933     116.8628        13     1.326     0.754  29.81   0
       134    238.1826    815.1266 307.8125501  +6.3470537     4928.015     8396.502     10504.97     77.56311     155.6846     311.3382      1.999     3.73     850.9232     54.88933     646.8929        42     1.633     1.293  64.90   0
       135    906.1528    812.9487 307.5352883  +6.3703894     8235.198     12831.27     13620.96     78.18214     155.6226      311.462      1.627     3.20     846.1398     54.88933     1247.687        40     1.513     1.133  53.11   2
       136    903.1823    804.3652 307.5368089  +6.3738325      6596.49     10506.65     11636.44     77.56311     155.5607     311.1833      1.708     3.38      845.988     54.88933     939.6144        41     1.592     1.137  66.34   3
       137    709.2504    812.3674 307.6170623  +6.3640308     20954.65     31709.69     34293.25     77.93512     155.8084     311.3382      1.625     3.26      848.661     54.88933      2842.78        47     1.528     1.178  68.96   3
       138    702.8226    808.7414 307.6198527  +6.3653117     87255.36     133206.6       144666     77.68732     155.7465     311.2452      1.658     3.17      848.616     54.88933     13470.57       106     1.686     1.372  59.87   3
       139    347.7098    809.4545 307.7672681  +6.3530837     20725.26     31636.52      33580.9     77.93512     155.5607     311.5239      1.671     3.33     851.4204     54.88933     3004.552        59     1.546     1.266  57.25   0
       140    397.0483    809.8363 307.7467709  +6.3545867     1473.136     2099.544     2575.977     77.93512     155.6846     311.2762      1.467     4.22     850.6532     54.88933     249.6155        14     1.350     0.831  89.88   0
       141    409.6073    807.3004 307.7416419  +6.3560558     21882.97     33546.96     36109.09     77.81132     155.3746     311.2143      1.678     3.26     850.3196     54.88933     3246.375        62     1.563     1.281  58.97   0
       142    946.7462    806.1860 307.5186598  +6.3745393      1806.22     3306.835     3498.294     77.43871     155.6846     311.1523      1.985     4.68     845.3077     54.88933     269.2067        23     1.504     1.054  75.14   0
       143    237.5455    793.5918 307.8135401  +6.3559197     763958.9      1854562      2117270     77.56312     155.6846     311.1213      2.400     4.89     850.3178     54.88933     63279.58       595     2.553     2.160  74.89   4
       144    876.2978    805.7610 307.5479249  +6.3723563     683.6283     953.9335     1049.758     78.05873     155.6226     311.6167      1.691     4.96     846.4648     54.88933     102.8994         6     0.933     0.747  17.32   0
       145    643.6241    803.3374 307.6446132  +6.3655555     6447.611     9892.462     10456.35     77.68732     155.7465     311.3072      1.641     3.27     849.0393     54.88933     968.0596        36     1.536     1.064  62.87   0
       146    432.3862    801.2278 307.7323886  +6.3593283     1673.914     2517.741     2615.683     77.68732     155.5607     311.3072      1.534     3.65     849.8362     54.88933     266.5909        15     1.221     0.756  63.27   0
       147    157.7945    800.7778 307.8464085  +6.3502653     762.0051      1055.23     973.7279     77.68731     155.4987     311.2452      1.575     5.35     849.0797     54.88933     108.1427         9     1.179     0.685  74.45   0
       148    732.5483    798.1852 307.6078645  +6.3706655     540.5794     810.3452     769.6913     77.43871     155.7465     311.1523      1.749     4.91     848.1053     54.88933     81.88818         7     1.075     0.636  39.48   0
       149    596.8490    795.3834 307.6643011  +6.3672678     955.4324     1535.814     1579.174     77.56311     155.8084     311.1213      1.604     4.80      849.051     54.88933     148.6484        13     1.190     0.860  54.27   0
       150    871.3338    795.0472 307.5503447  +6.3766118     764.0912     1122.199     978.8909     78.05873     155.6846     311.4311      1.561     4.26     846.2859     54.88933     131.5786         7     0.916     0.566  55.56   0
       151    678.8618    793.3286 307.6303183  +6.3708689     2489.461     3859.644     4130.593     78.18214     155.7465      311.462      1.650     3.39     848.3006     54.88933     378.1561        23     1.270     1.089  69.18   0
       152    412.4746    790.0037 307.7410331  +6.3632908      52566.5     80822.69     86750.75     77.56311     155.2505     311.3072      1.663     3.26     849.6564     54.88933     7215.483        88     1.611     1.362  58.12   0
       153    147.9366    794.2907 307.8507199  +6.3526100     971.2799     1449.045     1654.001     78.05873     155.9321      311.493      1.598     4.94     848.3694     54.88933     143.7093        12     1.390     0.681  53.16   0
       154    122.9957    793.8143 307.8610907  +6.3519653     1005.075     1430.284     1253.349     77.68732     155.4367     311.2762      1.514     4.53     847.4681     54.88933      156.305        13     1.115     0.985 -88.55   0
       155    955.4279    792.3029 307.5155195  +6.3805596     666.7656     940.4575     1160.684     78.18214     155.4987     311.3691      1.439     4.29      844.976     54.88933     107.7743         7     0.994     0.527  30.52   0
       156    530.2796    789.0605 307.6921529  +6.3676410     6947.191     10495.78     10547.53     78.18214     155.7465     311.4001      1.587     3.23     848.6578     54.88933     959.6176        33     1.382     1.097  56.44   0
       157     64.8355    791.6028 307.8853115  +6.3509151     537.3139     823.3807     1234.474     77.18932     155.5607     311.2143      1.574     3.41      846.486     54.88933     79.39575         5     0.777     0.432  20.82   0
       158    447.0538    787.6721 307.7267546  +6.3654162     4398.993     6693.756     7842.801     77.93512     155.6226     311.3072      1.714     3.16     849.2971     54.88933       632.79        33     1.388     1.171  52.00   2
       159    443.7997    781.1401 307.7283252  +6.3680025     2277.784     3741.522     3939.265     77.31411     155.4987     311.0903      1.670     4.04     849.0917     54.88933     360.3668        24     1.544     0.926  55.79   3
       160    775.5054    785.7369 307.5904456  +6.3772434     11408.92     17256.95     17904.08     77.93512     155.8702      311.462      1.644     3.21     847.3033     54.88933     1633.158        46     1.537     1.192  47.84   0
       161      4.9711    782.1148 307.9104854  +6.3528093     995.2153     1318.971     1258.192     78.18214     155.4367      284.511      1.318     4.13     846.2844     54.88933     138.3919        10     0.933     0.744  77.89  16
       162    797.1404    780.1193 307.5816507  +6.3802871      1212.44     1657.939     1760.864     78.18214     155.7465     311.4001      1.376     3.27     846.9388     54.88933     186.8519        11     1.051     0.709  50.75   0
       163    125.4183    775.0006 307.8607195  +6.3598114     2881.619     4750.354     5913.681     77.68731     155.3126     311.0903      1.922     3.35     846.9677     54.88933     405.6794        23     1.344     0.944  48.87   3
       164    133.1739    777.5703 307.8574128  +6.3590125     11305.12     17534.38     19925.06     77.56311     155.5607     311.2453      1.694     3.25     847.2696     54.88933     1537.221        52     1.509     1.303  48.43   3
       165    141.3566    777.8726 307.8540054  +6.3591638     2975.996     4794.558     5392.059     77.93512     155.8084     311.4311      1.731     3.60     847.4811     54.88933     388.9833        24     1.356     1.001  53.22   2
       166    921.0863    774.3880 307.5303782  +6.3868041     6133.999     9525.646     10358.94     77.68731     155.4987     311.2453      1.674     3.26     845.0761     54.88933      874.237        37     1.445     1.126  55.70   0
       167    970.4939    774.5139 307.5098588  +6.3884056     1601.101     2437.074     2922.772     78.05873     156.1792      311.493      1.885     3.18     844.5564     54.88933     244.5491        15     1.031     0.901  46.61   0
       168    676.5037    772.0024 307.6320127  +6.3795914     1778.763     2606.144     2614.098     77.68732     155.4367     311.0903      1.562     3.35     847.5483     54.88933     243.4424        14     1.080     0.807  14.68   0
       169    563.4051    771.1965 307.6789992  +6.3761267       2331.8     3712.644     3797.973     77.43871     155.3746     311.2453      1.756     3.73     847.7035     54.88933     351.7552        19     1.297     0.886  59.04   0
       170    411.4694    770.6227 307.7421024  +6.3712556     1261.521     1873.892     2062.872     77.68732     155.6846     311.3691      1.777     4.56     848.9558     54.88933      171.106        15     1.233     0.924  64.32   0
       171    125.6302    768.8823 307.8608378  +6.3623435     1899.925     3183.164     4081.306     77.93512     155.5607     311.3691      2.004     3.68     846.8079     54.88933     260.9857        20     1.336     0.886  41.53   1
       172    915.1686    766.3769 307.5331034  +6.3899123     2965.844     4614.514     4981.688     77.43871     155.5607     311.1833      1.679     3.74     845.0161     54.88933     398.8069        24     1.336     1.052  58.56   0
       173    975.8015    765.7707 307.5079474  +6.3921917     1888.807     2653.744     2759.208     77.56311     155.5607     311.2143      1.504     3.25     844.4017     54.88933     280.5789        17     1.083     0.969  37.59   0
       174    944.6569    765.8882 307.5208755  +6.3911010     2990.725     4791.842     4541.312     78.05873     155.6226     311.5239      1.641     3.33     844.6322     54.88933     456.1254        29     1.496     1.057  40.00   0
       175    667.4611    765.5933 307.6359823  +6.3819330     1422.953     2153.062     2461.029     77.43871     155.5607     311.1523      1.711     3.37     847.3633     54.88933     247.3331        12     1.050     0.731  39.45   0
       176    815.2371    764.0613 307.5746747  +6.3875209     954.5101     1352.101     1011.584     78.05873     155.8084     311.4001      1.573     3.62     846.4036     54.88933     152.0098         8     0.958     0.592  30.70   0
       177    890.0261    761.5847 307.5437036  +6.3910483      741.142     1306.096     1459.209     77.81132     155.6226     311.3382      1.970     5.83     845.4186     54.88933     110.1302        10     1.140     0.840  22.82   0
       178    239.9420    760.4355 307.8136622  +6.3696841     1984.847     3081.707     3862.118     77.93512     155.7465     311.4001      1.908     3.40     848.7218     54.88933     282.8877        16     1.113     0.938  40.10   0
       179    676.7870    757.8077 307.6323713  +6.3854592     578.1251     923.6121     1371.649     77.68731     155.5607     311.3072      1.422     4.94     847.0382     54.88933     97.51727         8     1.163     0.594  70.66   0
       180    906.7446    755.2900 307.5369723  +6.3942061     1145.547     1464.375     1493.721     77.93512     155.5607     311.5239      1.405     3.99     844.9492     54.88933     194.4738        12     1.169     0.807  57.24   0
       181    260.0541    756.1788 307.8054553  +6.3721185     769.3126     1104.483     1087.349     77.56311     155.7465     311.2143      1.587     4.92     848.5983     54.88933     102.7725         8     1.077     0.636  49.86   0
       182    959.5543    753.7570 307.5150955  +6.3966063      2187.13     3612.767     4136.082     78.05873     155.7465     311.3382      1.741     3.98      844.343     54.88933     332.8561        19     1.467     0.754  63.46   0
       183    932.8091    755.7259 307.5261350  +6.3948987     838.1004     1379.868     981.0115     77.68732     155.3126     311.2453      1.589     4.06     844.5042     54.88933     137.6974         8     1.195     0.523  46.49   0
       184    155.2312    755.7111 307.8489923  +6.3687778     784.4852     938.0253     987.5771     78.18214     155.5607     311.3382      1.391     5.54     846.7917     54.88933     118.8028        10     1.039     0.871 -15.60   0
       185    678.8652    752.9540 307.6316712  +6.3875321     929.7114     1474.835     1614.148     78.05873     155.6846     311.4001      1.669     4.43     846.8524     54.88933      146.985         8     0.875     0.638  42.92   0
       186   1001.4302    747.3318 307.4979223  +6.4006591     1678.932      2549.82     2504.067     77.81132     155.7465     311.3691      1.667     3.06     844.1343     54.88933     237.3355        15     1.018     0.920 -87.06   0
       187    802.6766    745.6190 307.5805079  +6.3947115     1226.793     1929.793     1948.347     77.56312     155.4367     311.3691      1.642     4.49     846.1126     54.88933     216.5602        14     1.343     0.772  63.30   0
       188    627.9279    746.5053 307.6530376  +6.3884839     680.5664     1119.588     1166.103     77.93512     155.8084     311.4311      1.846     4.80     846.5761     54.88933     87.02844         8     0.962     0.678  54.29   0
       189    888.8497    742.7885 307.5448213  +6.3987665     1412.742     2323.754     2667.396     77.43871     155.6226     311.0903      1.728     4.57     845.1063     54.88933     213.1195        16     1.422     0.770  44.99   0
       190    863.6238    738.6647 307.5554339  +6.3996236     865.3267     1264.466     1296.938     77.68732     155.7465     311.3072      1.562     2.65     845.5822     54.88933     162.0439         8     0.881     0.632 -83.30   0
       191    648.9002    738.1911 307.6446086  +6.3926193     577.8074     761.7838     900.6002     77.81132     155.3746     311.2452      1.405     3.62     846.2195     54.88933     96.83698         5     0.792     0.507  48.77   0
       192    845.9405    734.4012 307.5629193  +6.4007909     1546.319     2105.668     2028.177     77.43871     155.4987     311.0903      1.466     3.09      845.576     54.88933     213.4437        13     0.983     0.846  48.43   0
       193    108.7374    732.0330 307.8690945  +6.3769811     893.4086      1920.64     2065.156     77.81132     155.8084     311.3691      2.362     8.02     845.7599     54.88933     123.2657        18     2.024     0.889  70.70   0
       194     44.7729    733.0764 307.8956164  +6.3743913     2366.022      3630.02     3703.519     77.93512     155.6846     311.3691      1.612     3.50     845.6241     54.88933     335.3692        20     1.196     1.031  51.76   0
       195    562.7214    727.7939 307.6807408  +6.3940164     524.2983     681.3513      515.416     77.68732     155.2505     311.1833      1.299     3.67     845.9419     54.88933     110.9271         5     1.018     0.380  75.44   0
       196    657.5531    721.6613 307.6415703  +6.3997318     6346.375      9465.12     10059.93     77.93512     155.6226      311.462      1.658     3.21     845.9294     54.88933     950.7759        30     1.349     1.060  55.73   0
       197    604.3040    720.9811 307.6637035  +6.3982249     1276.391     1985.135     2288.814     77.93512     155.5607     311.1833      1.553     3.89     845.7758     54.88933     196.0087        15     1.328     0.723  56.19   0
       198    515.4601    721.7032 307.7005692  +6.3949420     726.1117     936.9277      971.587     77.81132     155.7465      311.493      1.345     4.06     846.5343     54.88933     103.2723         7     0.964     0.489  83.23   0
       199    120.4783    717.3381 307.8647155  +6.3834418     3842.823     5865.687     6202.223     78.30536     155.8084     311.4311      1.679     3.13     845.6717     54.88933     534.5135        30     1.412     1.120  74.00   0
       200    994.7210    716.8479 307.5017276  +6.4130160     2473.188     3685.304     3683.633     78.05873     155.8084     311.3382      1.568     3.46     843.2896     54.88933     365.1239        20     1.287     0.948  59.78   0
       201    631.3792    717.1441 307.6525900  +6.4007175      2116.63     3280.086     3910.063     77.56311     155.7465     311.2143      1.782     3.83     845.7602     54.88933     359.1208        18     1.266     0.870  69.71   0
       202    306.9628    717.1970 307.7872916  +6.3897867      700.034     1238.037     1145.465     77.18932     155.4987     311.2143      1.884     4.41     846.9913     54.88933     93.57178         8     1.003     0.748   8.07   0
       203    243.1229    716.8666 307.8138095  +6.3877722     759.8025     1034.406     1197.479     78.18214     155.8084     311.3691      1.520     3.30     846.9119     54.88933     134.4086         6     0.920     0.562  27.49   0
       204    904.3904    713.5141 307.5393482  +6.4113689     3444.111     5351.792     5620.748     77.68732     155.4367     311.2453      1.718     3.48     843.9362     54.88933     530.5754        27     1.477     0.998  60.59   0
       205    774.4408    713.7178 307.5933014  +6.4069311     20173.42     29952.86     31950.06     78.05873     155.7465     311.3382      1.613     3.25     845.5297     54.88933     2932.798        54     1.516     1.200  54.87   0
       206    473.5644    713.9339 307.7182262  +6.3967400     1340.539     2052.717     1615.786     77.93512     155.7465      311.462      1.519     3.35     846.9623     54.88933     210.0677        13     1.082     0.821  69.01   0
       207    502.1266    713.5098 307.7063809  +6.3978753     990.7535     1468.698     1470.475     78.05873     155.9939     311.4311      1.578     3.09     846.6127     54.88933     152.8221        10     0.953     0.687  84.60   0
       208    319.7122    713.4984 307.7821225  +6.3917425      741.876     1130.683     1198.507     78.05873     156.1792     311.4311      1.758     4.95     846.8638     54.88933     99.29608         9     1.406     0.493  55.08   0
       209     82.9989    709.6229 307.8805370  +6.3853610     519.0123     722.2303     911.6339     77.68731     155.4367     311.1833      1.415     3.93     845.5875     54.88933     128.0684         5     1.041     0.425  63.57   0
       210    247.9612    707.2910 307.8121232  +6.3918871     6172.425      9126.85     9625.472     78.18214     155.6846     311.4311      1.558     3.19     846.5665     54.88933     856.9501        34     1.380     1.105  49.36   0
       211    655.0492    706.5212 307.6431181  +6.4058963     7134.127     10583.54     11129.36     78.05873     155.8084     311.3691      1.581     3.21     845.6396     54.88933     1065.142        35     1.367     1.122  56.91   0
       212    637.6412    707.9709 307.6502978  +6.4047136     845.7816     1423.753     2234.938     77.68731     155.6226     311.2453      1.964     4.20     845.6209     54.88933      138.501         7     1.065     0.473  45.48   0
       213    350.7278    707.0085 307.7694630  +6.3954653      532.855      1103.38     1451.373     77.56311     155.3126     311.2453      1.666     2.49     846.6726     54.88933     118.3552         4     0.765     0.334 -56.11   2
       214    914.7946    699.2676 307.5355048  +6.4175971      1255.07     1809.743     1910.417     77.56311     155.3746     311.2143      1.539     3.37     843.1783     54.88933     205.2628        13     1.164     0.730  54.66   0
       215    726.6480    695.0778 307.6137716  +6.4130215     3638.326     5796.588     6139.076     78.05873     155.8084     311.3382      1.713     3.59     845.4402     54.88933     502.8246        29     1.410     1.097  65.35   0
       216    681.7361    695.4632 307.6324078  +6.4113557     1190.656     1890.746     2653.197     78.05873     155.7465     311.4311      1.738     5.05     845.4402     54.88933     154.0942        15     1.191     0.919  50.87   0
       217    993.0746    691.5556 307.5032571  +6.4233996     8435.894     13210.55     13826.97     77.93512     155.8084     311.4311      1.691     3.30     842.2963     54.88933     1237.582        43     1.516     1.196  55.98   0
       218     12.1773    691.3629 307.9105582  +6.3905053     1715.991     2882.214     3850.423     77.68732     155.4987     311.1833      1.908     4.56     845.5238     54.88933     245.8589        19     1.512     0.927  13.75   0
       219    931.5620    692.1668 307.5287798  +6.4210890     2442.501     3677.171     3941.395     77.81132     155.5607     311.1833      1.638     3.33     842.5661     54.88933     370.6231        21     1.282     0.914  47.69   0
       220    545.3785    690.3096 307.6892011  +6.4089039     499.5385     608.2556     286.3229     78.05873     155.5607     311.2762      1.412     4.17     845.7721     54.88933     87.53821         5     1.028     0.481  86.26   0
       221    429.1331    689.5773 307.7374940  +6.4052978     574.7594     675.0946     1092.455     77.68732     155.7465     311.3382      1.195     3.10     846.2141     54.88933     121.3143         6     0.927     0.636  80.47   0
       222     70.3170    686.1664 307.8865941  +6.3946132     25303.21      38507.8     41595.48     78.05873     155.7465     311.3691      1.653     3.28      845.468     54.88933     3422.681        68     1.553     1.348  63.03   0
       223    531.5536    687.2160 307.6950455  +6.4097161     2156.257     3290.629     3448.026     77.56311     155.6226     311.1833      1.686     3.87     845.8317     54.88933     284.3876        18     1.321     0.854  54.50   0
       224    500.4883    684.6671 307.7080305  +6.4097239     1304.655      1657.71     2001.061     78.18214     155.9321     311.3691      1.424     3.19     845.9698     54.88933      183.582        11     0.904     0.813  51.32   0
       225    921.7084    683.8049 307.5331513  +6.4242103     915.3088     1226.804     1126.437     77.68732     155.4367     311.1523      1.497     2.89     842.5013     54.88933     177.4953        10     1.039     0.659  22.75   0
       226    541.2388    681.3715 307.6912203  +6.4124537     958.2909     1117.128     1210.217     77.56311     155.4987     311.2762      1.319     3.95      845.739     54.88933     173.6604        10     1.174     0.643  73.77   0
       227    738.4838    676.9031 307.6094663  +6.4209194     4016.171     5938.348     6320.075     78.05873     156.1175      311.462      1.556     3.06     845.0718     54.88933     555.2389        27     1.405     1.000  56.22   0
       228    569.9547    674.7533 307.6795187  +6.4161499      3267.57     4870.436     5109.569     78.05873     155.6846     311.4311      1.564     3.39     845.4371     54.88933     498.4254        24     1.344     0.958  55.96   0
       229    405.8957    675.5339 307.7476152  +6.4103118     1497.969      2055.46     2053.418     78.05873     155.8702     311.4311      1.526     3.89     845.7615     54.88933     221.1858        15     1.138     0.963  59.52   0
       230   1011.3908    673.1504 307.4962668  +6.4316085     4886.963     7079.052     7296.781     77.56311     155.6226     311.0903      1.542     3.32      841.425     54.88933     656.4601        25     1.313     0.949  50.91   0
       231    314.3151    673.9020 307.7856967  +6.4079023     1459.289     2059.066     1985.765     78.05873     156.1175      311.462      1.512     3.44      845.621     54.88933     227.8032        15     1.117     0.889  30.64   0
       232    230.4379    674.2186 307.8205135  +6.4049455     1753.727     2571.474     2359.547     77.68732     155.6226     311.1523      1.602     3.73     845.3002     54.88933     243.3915        17     1.270     0.844  46.55   0
       233    976.7574    671.9641 307.5106882  +6.4309395      7930.98     12203.21      12768.3     77.81132     155.7465     311.2762      1.606     3.24      841.597     54.88933     1167.712        39     1.461     1.115  51.94   0
       234    716.3609    678.6595 307.6185938  +6.4194525     3482.409     5178.917     4973.258     78.05873     155.8084      311.493      1.601     3.36     845.1229     54.88933     469.3757        25     1.369     0.967  65.71   0
       235    696.6578    670.8964 307.6270358  +6.4219955     1029.269     1322.607     1405.841     77.93512     155.7465     311.5549      1.389     4.15     844.9216     54.88933     160.4785         9     1.008     0.617  37.24   0
       236     87.9543    668.2419 307.8798760  +6.4026059     947.5546     1460.816     1420.844     77.93512     155.7465     311.2452      1.584     4.84      845.217     54.88933     120.9105        13     1.182     0.904  63.76   0
       237    422.0651    666.0589 307.7412199  +6.4147662     2806.181     4694.197     5541.117     78.18214     155.6846     311.4311      1.885     3.57     845.6101     54.88933     412.5364        31     1.584     1.205 -85.67   0
       238    135.1001    665.1327 307.8604055  +6.4054801     23840.45     35887.25     37728.88     78.05873     155.8702     311.3691      1.588     3.15     845.0972     54.88933     3326.109        56     1.492     1.235  52.33   0
       239    803.6847    665.9819 307.5827578  +6.4276128     1377.748     2109.091     2380.248     77.68731     155.4987     311.3382      1.565     3.45     844.0045     54.88933     190.1229        14     1.128     0.825  77.45   0
       240    971.6525    654.9454 307.5133774  +6.4377926     6669.022     11089.37     12655.55     78.30536     155.6846     311.3691      1.863     3.65     840.9691     54.88933     881.2144        41     1.702     1.119  47.56   0
       241     16.4605    654.0463 307.9100400  +6.4060503     1159.905     1780.207     1666.631     77.93512     155.7465      311.462      1.559     3.82     844.9141     54.88933     158.8701        12     1.079     0.779  55.11   0
       242    565.1152    650.0446 307.6823582  +6.4261848     47922.38     71954.66     76827.91     78.05873     155.6846     311.4001      1.593     3.18     844.8651     54.88933     6969.798        81     1.551     1.333  56.37   0
       243   1023.5499    649.1689 307.4920195  +6.4419127     4698.533     7142.798     8182.465     69.43012     125.7433     236.1849      1.627     4.26     839.6704     54.88933     1000.866        27     1.972     0.660  88.88  24
       244    929.8281    652.7738 307.5308182  +6.4372892     651.6432     1142.141      1360.55     77.56311     155.5607     311.2452      1.670     3.48     841.6519     54.88933     106.6304         6     0.758     0.562  56.56   0
       245    208.4175    651.7377 307.8304145  +6.4134810     602.7223     1023.036     1211.214     77.68732     155.6846     311.2453      1.939     5.14     844.5683     54.88933     73.42535         7     1.053     0.710   2.28   0
       246    524.5925    650.2347 307.6991787  +6.4247447     697.5145     1067.752       1171.4     77.56311     155.5607     311.1833      1.424     4.55     845.2682     54.88933     117.4491         7     1.240     0.474  64.03   0
       247    172.5381    646.7427 307.8454808  +6.4143326     2860.521     4234.405     4079.201     78.18214     155.6846     311.4311      1.599     3.37     844.4675     54.88933     400.6003        23     1.305     1.001  61.51   0
       248    976.0543    646.9238 307.5118179  +6.4412506     549.5449     948.5119     1560.343     78.18214     155.7465     311.4001      1.862     5.14     840.5707     54.88933     91.75922         6     1.112     0.672  29.17   0
       249    495.5631    646.7830 307.7113490  +6.4251934     589.0491     866.0112     900.8183     77.56311     155.6226     311.1523      1.279     3.87     845.3445     54.88933     125.7632         5     0.970     0.442  74.90   0
       250     65.2823    641.1962 307.8902025  +6.4130022      1254.06     1857.254     1752.149     77.56311     155.3746     311.1213      1.561     3.46     844.4071     54.88933     190.1102        14     1.062     0.932  51.77   0
       251    462.3724    633.8301 307.7255666  +6.4294231     62001.89     93573.33     99975.58     77.56311     155.4987     311.1833      1.624     3.13     845.2711     54.88933     8801.396        89     1.585     1.352  58.55   0
       252      6.0963    635.4023 307.9149730  +6.4133944     1774.378     2691.042      3325.92     77.56311     155.4367     296.0362      1.686     3.54     844.3426     54.88933      243.934        18     1.240     0.894  60.03  16
       253    648.4050    630.8557 307.6484164  +6.4369014     833.9079     1421.199     1122.058     77.43871     155.5607     311.1213      1.642     4.86     843.3461     54.88933     135.9958         8     1.253     0.560  59.74   0
       254    137.0866    628.9097 307.8608025  +6.4204963     1670.047     2422.864     2072.586     77.81132     156.1792     311.5239      1.499     3.89     843.9147     54.88933     213.7594        14     1.104     0.947  48.39   0
       255    416.3327    626.8959 307.7449176  +6.4307362      998.803     1313.357     1059.598     78.05873     155.8702     311.4001      1.422     4.76     845.1725     54.88933     116.3146         9     0.912     0.705  31.40   0
       256    608.3644    625.7455 307.6652150  +6.4376661     838.3141     1177.651     1483.577     77.93512     155.7465     311.4311      1.817     5.40     843.2899     54.88933     140.2859         9     1.257     0.655  36.94   0
       257    307.8397    623.2924 307.7900897  +6.4285709     2204.518     3436.615     3645.462     78.18214     155.6846      311.462      1.664     3.08     843.6511     54.88933     334.3359        24     1.324     1.046  76.53   0
       258    956.1630    623.8687 307.5208494  +6.4501003     447.0224      748.465      138.441     77.93512     155.7465      311.493      1.393     3.59     840.3253     54.88933      77.7735         5     1.402     0.265  79.25   0
       259    490.9471    624.2572 307.7140229  +6.4343348     446.3472     769.5267     985.8578     78.05873     155.7465     311.4001      1.800     4.72     845.0803     54.88933     77.87085         5     0.973     0.651 -31.11   0
       260    460.0095    621.6874 307.7269561  +6.4343550     951.4871      1504.98     2553.512     77.68731     155.4367     311.2453      2.128     4.59      845.142     54.88933     130.3987         9     1.062     0.775  43.47   0
       261    734.4659    617.5413 307.6131253  +6.4452842     5447.201     7955.188     8276.842     78.18214     155.6846     311.4001      1.596     3.29     842.7355     54.88933     818.4131        30     1.382     1.039  56.90   0
       262    788.0363    612.6780 307.5910424  +6.4490877     13912.61     20343.54     21868.12     77.93512     155.8084     311.4001      1.560     3.11     842.4225     54.88933     2217.464        43     1.416     1.134  51.79   0
       263   1005.3829    613.0881 307.5007703  +6.4561964      1067.76     1569.497      1354.37     77.81132     155.4987     311.2762      1.563     4.18     837.9545     54.88933     152.1367        12     1.226     0.759  79.64   0
       264    530.4565    612.7530 307.6980032  +6.4404108     1206.006     1854.285     2197.938     78.05873     155.7465      311.493      1.869     4.33     844.5439     54.88933     153.6649        15     1.235     0.861 -87.24   0
       265     33.3919    612.3793 307.9044169  +6.4238178     772.3469     1018.331     1159.894     77.68732     155.4987     311.1833      1.424     5.46     843.5648     54.88933     91.91327        11     1.133     0.742  57.00   0
       266    611.9963    610.9015 307.6642053  +6.4439143     2884.496     4184.252     4687.252     77.81132     155.4367     311.0903      1.507     3.04     842.7018     54.88933      428.646        20     1.248     0.868  51.56   0
       267    929.0864    607.0528 307.5326565  +6.4561343     1126.059     1477.588     1840.643     78.05873     155.6226     311.5239      1.332     3.19     840.9919     54.88933     203.1919        11     1.033     0.711  71.86   0
       268    370.5072    604.5363 307.7646989  +6.4384219     985.5563     1388.157     1033.595     78.05873     155.9321      311.462      1.482     4.63     843.4902     54.88933     140.0518        11     1.258     0.655  42.36   0
       269    224.5090    604.4869 307.8253254  +6.4335239      1358.96     2033.143     2394.581     77.81132     156.1792     311.5239      1.655     4.07     842.9433     54.88933     176.3803        14     1.156     0.828  56.38   0
       270    188.0462    605.0740 307.8404464  +6.4320522     630.6082     1113.595     1613.292     77.93512     155.8084     311.4001      1.808     3.80     843.0698     54.88933     92.09656         5     1.016     0.408  61.34   0
       271    864.0017    596.0646 307.5600526  +6.4584899     2815.083     4321.898     4661.498     77.43871     155.4987     311.1833      1.570     3.16     841.2596     54.88933     420.4949        21     1.217     0.940  50.80   0
       272    159.3470    595.7733 307.8526770  +6.4349226     697.3212     1227.081     1069.319     77.81132     155.8702     311.3382      1.758     6.15     842.9628     54.88933     102.0023         9     1.368     0.777   5.07   0
       273    822.9091    593.4439 307.5772052  +6.4581947     2513.644     3792.537     4268.783     78.05873     155.6846      311.493      1.639     3.18     841.7261     54.88933     371.5086        19     1.193     0.925  43.08   0
       274    803.3797    584.5439 307.5856136  +6.4612133     158415.2     235402.1     252315.9     77.56312     155.7465     311.2143      1.639     3.20     841.8194     54.88933      23927.7       146     1.703     1.421  59.00   2
       275    793.6885    589.2965 307.5894788  +6.4589270     2450.998     3691.865     4291.135     78.05873     156.1175     311.4311      1.652     3.41     841.9362     54.88933     383.0917        21     1.344     0.956  53.85   2
       276    250.7886    588.1309 307.8149642  +6.4411599     7577.584     11779.22      12793.2     77.56311     155.5607     311.2762      1.651     3.20     842.4306     54.88933     1122.339        43     1.545     1.174  59.16   0
       277    184.9627    582.7490 307.8424795  +6.4411617     57226.64     88533.09     96195.66     77.81132     155.6846     311.3382      1.675     3.22     842.5345     54.88933     8331.998        99     1.686     1.397  56.30   0
       278    733.4062    585.5114 307.6146395  +6.4584678      680.293     1151.402     2338.572     77.56312     155.4367     311.1833      3.668     4.29     842.1068     54.88933      118.188         8     1.055     0.703  37.28   0
       279    108.9378    578.9151 307.8741775  +6.4401790     6094.326     9540.135     10121.66     78.18214     155.8084     311.4001      1.640     3.18     842.8669     54.88933     898.0729        35     1.505     1.092  47.18   0
       280    974.1885    576.1684 307.5149598  +6.4703903     1366.397     1968.546     2393.636     77.56311     155.4987     311.2762      1.453     4.05     838.4816     54.88933     196.1149        15     1.247     0.790  51.21   0
       281    995.2708    575.4481 307.5062287  +6.4713929      759.015     989.1541     645.4828     78.05873     155.6846     311.4311      1.365     4.20     837.8958     54.88933     154.6691         7     1.259     0.400  45.40   0
       282    223.4319    574.9739 307.8267674  +6.4456676     746.0633     1134.364     1735.948     77.56311     155.4987     311.2453      1.614     3.77      842.028     54.88933     106.0489         6     0.825     0.495 -88.17   0
       283    839.9909    571.8879 307.5708337  +6.4676636     4459.718     6205.146     6492.137     77.68732     155.4367     311.1833      1.471     3.17     841.3257     54.88933     699.5698        25     1.328     0.950  38.66   0
       284    358.3838    569.8607 307.7709003  +6.4523244     16632.23     25600.15     27288.19     77.56311     155.6846     311.1523      1.637     3.13     841.9407     54.88933     2344.333        54     1.511     1.256  58.09   0
       285    448.9733    569.7568 307.7332854  +6.4554159     767.9056     1102.822     1161.368     77.68731     155.8084     311.3072      1.604     4.63     842.9931     54.88933     114.0172         8     0.999     0.610  60.58   0
       286    160.3292    569.1293 307.8531678  +6.4459516     1857.048     2813.585     3128.409     78.05873     155.8702     311.3691      1.599     3.73     842.4171     54.88933     249.0211        16     1.221     0.836  41.73   0
       287    793.8466    565.2056 307.5902207  +6.4688750     5730.399     8494.079     9484.311     77.43871     155.5607     311.0594      1.608     3.17     841.5212     54.88933     873.1277        31     1.515     1.006  62.91   0
       288    524.6594    564.7852 307.7020225  +6.4600127     6300.424     9463.025     9439.452     77.43871     155.7465     311.1523      1.594     3.44     842.6188     54.88933     902.8043        35     1.475     1.061  55.93   0
       289    235.4333    566.7169 307.8220622  +6.4494799     828.8287     1472.404     1992.379     78.05873     155.5607     311.3691      1.962     5.23      841.755     54.88933     118.0312        10     1.108     0.697  35.10   0
       290    166.1582    566.1982 307.8508462  +6.4473579     601.0966     1153.253     1844.381     77.43871     155.4367     311.1213      1.879     3.96     842.3015     54.88933     99.89838         6     0.760     0.591  48.14   0
       291     97.3513    566.2256 307.8794169  +6.4450247     867.8917     1324.338     1513.994     77.68732     155.8084     311.3072      1.598     3.35     842.7536     54.88933     146.9853         8     1.012     0.506  37.83   0
       292    383.1048    561.6262 307.7609118  +6.4565551     1364.813     1999.481     1663.282     78.18214     155.4987     311.2762      1.498     3.71     842.0483     54.88933     209.7341        15     1.256     0.803  48.34   0
       293    171.7850    558.0124 307.8487857  +6.4509260     6901.936     10411.59     11381.16     77.93512     155.4367     311.3382      1.596     3.13     842.0646     54.88933     1022.517        35     1.379     1.098  47.72   0
       294     43.3177    556.7357 307.9021744  +6.4471168     4987.333     7825.738     8642.836     78.18214     155.8702     311.4311      1.705     3.24     843.2383     54.88933     672.8002        36     1.562     1.105  52.75   0
       295    569.5052    558.0350 307.6836260  +6.4643056     2469.788     3853.901     4023.527     78.18214     155.6226      311.493      1.698     3.71     842.2772     54.88933     349.7488        20     1.149     1.109  15.03   0
       296    266.9698    554.3674 307.8093826  +6.4556394     84654.33     130953.3     140138.5     77.56311     155.4987     311.1213      1.653     3.18     841.3376     54.88933     11803.36       107     1.639     1.414  61.53   0
       297    810.7640    557.6699 307.5834477  +6.4725521     1377.819     1859.587     2252.948     77.93512     155.8084      311.462      1.433     2.88     841.3113     54.88933     230.6638        12     1.009     0.717  61.15   0
       298    556.9835    552.3809 307.6890159  +6.4662184     806.5397     1255.576     1331.098     77.81132     155.4987     311.3072      1.636     5.25     842.0768     54.88933      121.231         9     1.084     0.717  48.27   0
       299    251.1651    549.7203 307.8161022  +6.4570246      1496.29     2303.489     1795.152     77.93512     155.8084     311.4311      1.576     3.96     841.2089     54.88933     214.5419        16     1.337     0.792  38.42   0
       300    966.6785    548.5716 307.5190020  +6.4815287     1605.395     2053.747     2054.759     77.93512     155.6846     311.4001      1.393     2.97     838.0828     54.88933     254.5269        15     1.135     0.754  43.97   0
       301    790.1407    546.9094 307.5923730  +6.4763019     15998.54     23758.68     25479.25     77.93512     155.7465     311.5239      1.555     3.13     841.2418     54.88933     2471.467        52     1.504     1.185  54.56   0
       302    493.7493    545.2469 307.7155154  +6.4670371     39585.37     64625.75     70429.56     78.18214     155.6226      311.462      1.795     3.66      841.738     54.88933     5081.016        89     1.709     1.473  38.37   0
       303    643.9774    544.1661 307.6531649  +6.4725306     932.1941      1511.15     2179.266     77.56311     155.5607     311.1523      1.670     4.77     841.9222     54.88933     129.1453        10     1.050     0.748  -4.21   0
       304    206.0220    541.5020 307.8351253  +6.4588944     1911.503     3256.469     3692.926     77.93512     155.4987     311.2143      1.787     4.34     841.2229     54.88933     281.9742        25     1.462     1.170  68.51   0
       305    663.9410    540.5565 307.6449954  +6.4746905     1247.696     2046.898     2121.094     77.93512     155.6846      311.493      1.675     3.62     841.7365     54.88933     181.1892        14     1.206     0.789  46.22   0
       306     41.8751    541.7462 307.9032796  +6.4532541         1160      1659.01     1944.352     77.93512     155.7465     311.4311      1.490     3.17     843.1123     54.88933     185.4491        11     1.003     0.696  70.23   0
       307    715.9721    539.8478 307.6234113  +6.4767290     1180.234     1925.141     1997.036     77.68732     155.8084     311.3382      1.853     4.15     841.6199     54.88933     172.8414        14     1.311     0.795  65.94   0
       308    653.7307    540.3677 307.6492420  +6.4744257     2882.133     4301.308     5132.937     77.93512     155.7465     311.4311      1.708     3.14     841.7585     54.88933     419.3489        23     1.317     1.024  33.79   0
       309     72.3469    537.9281 307.8907551  +6.4558588     666.3307      1300.27     1180.946     77.93512     155.6846     311.3691      2.067     4.93     842.6378     54.88933     92.78436         9     1.436     0.479  26.50   0
       310    391.6333    536.1804 307.7582265  +6.4673437     1439.279     2220.576     2179.543     77.56311     155.5607     311.2143      1.697     3.33      840.842     54.88933     208.9016        14     1.071     0.894  52.63   0
       311    138.1171    532.7216 307.8636195  +6.4602276     25187.29     38400.04     41407.68     78.18214     155.9939     311.5239      1.637     3.22     841.7826     54.88933     3602.569        67     1.567     1.342  62.45   0
       312    502.8573    533.9001 307.7121145  +6.4720263     1956.663     3000.266     2997.207     77.81132     155.7465     311.6167      1.546     3.51     841.0764     54.88933     309.5651        18     1.284     0.844  57.52   0
       313    322.8685    534.1994 307.7868493  +6.4658460       3794.5     5822.228     6080.346     77.56311     155.3126     311.2143      1.652     3.21      840.436     54.88933     579.8905        28     1.348     1.071  32.85   0
       314    866.2281    533.2073 307.5612333  +6.4845067     1582.954      2231.38     1796.485     77.56311     155.5607     311.2143      1.479     3.18     840.5142     54.88933     243.2086        14     1.059     0.831  23.90   0
       315    103.3039    531.0538 307.8781322  +6.4597409     2540.056     4024.301     4046.165     77.93512     155.7465     311.6477      1.689     3.46     842.1398     54.88933     347.8811        24     1.399     1.030  65.49   0
       316    340.6077    529.6501 307.7796359  +6.4683210     961.3494     1385.583     1449.483     77.56312     155.4987     311.0903      1.562     4.13     840.2134     54.88933     129.3633        12     1.062     0.870 -80.48   0
       317    963.5969    527.6411 307.5209823  +6.4900640     5172.108     7714.865     8284.271     77.43871     155.4367     311.1523      1.597     3.24     837.8186     54.88933     802.0292        30     1.302     1.101  52.75   0
       318    537.0755    520.0773 307.6983688  +6.4788813     1365.449     2113.897     2313.858     78.30536     155.9939      311.462      1.619     4.49     840.2388     54.88933     197.0304        16     1.297     0.889  61.09   0
       319      2.5739    517.0958 307.9204319  +6.4620994     24543.85     35079.36     36617.16     78.18214     140.3794     253.3962      1.556     3.24     842.6447     54.88933     3182.673        47     1.488     1.139  76.35  24
       320    435.0875    513.9148 307.7409301  +6.4779951      41513.8        63750     68506.71     77.81132     155.9321      311.462      1.648     3.23     839.5635     54.88933     5880.836        82     1.600     1.358  52.62   0
       321    643.1537    513.6398 307.6545317  +6.4851015     12058.12     17804.68     18702.41     77.93512     155.7465     311.2453      1.582     3.08     841.0137     54.88933     1765.781        47     1.469     1.175  51.13   0
       322    282.9190    513.9510 307.8041212  +6.4728567     852.7797     1535.066     2122.415     78.05873     155.7465     311.4311      1.955     6.16      839.408     54.88933     132.7064        12     1.474     0.725  45.43   0
       323    200.2882    511.4520 307.8385196  +6.4711027      18561.8     29723.41     32136.04     78.05873     155.6226      311.493      1.765     3.55     840.3948     54.88933     2470.667        61     1.630     1.313  50.26   0
       324    166.0105    512.6206 307.8527146  +6.4694642     1625.317     2475.646     2212.668     77.68731     155.4367     311.2453      1.616     3.39     840.7958     54.88933     229.5045        18     1.116     1.010  38.34   0
       325    976.6979    512.0392 307.5160634  +6.4969416     1000.596     1751.467      2150.53     78.05873     155.6226     311.6167      1.948     5.11     837.4234     54.88933     169.3714        10     1.233     0.598  30.59   0
       326    905.7095    511.6964 307.5455570  +6.4947069     674.4573     891.3811     830.6412     78.05873     156.2409     311.4001      1.406     3.65      838.704     54.88933     106.3129         5     0.854     0.448  45.29   0
       327    817.1936    511.7179 307.5823174  +6.4917327     968.8043     1503.638     1590.946     77.68732     155.3126     311.2143      1.630     5.08     840.2698     54.88933     134.8641        10     1.102     0.663  44.05   0
       328    564.9305    510.4741 307.6871236  +6.4837807     2761.959     4223.795     4010.638     78.18214     155.8702     311.4001      1.611     3.30     839.9341     54.88933     401.0338        22     1.266     0.956  53.16   0
       329    938.8740    507.7103 307.5319169  +6.4974624     4750.957     6879.446     7367.964     78.05873     155.9939     311.4311      1.549     3.08      837.954     54.88933     765.0055        27     1.316     0.963  52.75   0
       330    611.9025    506.1213 307.6677626  +6.4871551     6441.928      9612.08      9933.66     77.81132     155.9321     311.4311      1.551     3.01     840.4482     54.88933     996.2474        33     1.304     1.145  55.77   0
       331     99.6669    506.5803 307.8804685  +6.4697182     1053.111     1698.435     1551.135     77.68732     155.7465     311.3072      1.885     4.45      841.704     54.88933     172.8926        12     1.207     0.791  64.35   0
       332    212.0215    505.3333 307.8338534  +6.4740235     531.7509     772.5217     1025.877     77.68731     155.7465     311.3382      1.404     3.06     840.1091     54.88933     108.0956         5     0.813     0.498  58.20   0
       333    961.4697    499.9460 307.5227925  +6.5014231     3300.338     4685.274     4679.681     77.93512     155.6846     311.3072      1.519     3.04     837.5174     54.88933     464.5674        22     1.299     0.896  51.39   0
       334    524.1042    497.3127 307.7045207  +6.4878405     7309.505     11095.52     11938.43     78.05873     156.1175     311.4311      1.595     3.08     838.8381     54.88933      1048.97        37     1.434     1.105  50.68   0
       335    370.2543    497.5031 307.7684066  +6.4825863     2663.793     4000.368      4689.79     77.93512     155.7465     311.6167      1.690     3.22     838.3965     54.88933      372.383        23     1.259     1.000  64.88   0
       336    739.5341    497.5692 307.6150442  +6.4949683      644.999      852.984     600.6943     77.81132     155.7465     311.3382      1.443     5.31      841.147     54.88933     82.65216         6     1.097     0.726  50.01   0
       337     93.7307    496.4879 307.8832742  +6.4736829     516.1663     778.4357     720.1857     78.05873     155.9939     311.4001      1.514     4.01     841.5571     54.88933     100.9705         5     0.992     0.690 -85.25   0
       338    400.0104    499.1620 307.7559935  +6.4829033      622.919      1029.57     1484.468     77.43871     155.5607     311.1213      2.051     4.86     838.4001     54.88933        99.12         7     1.248     0.537  33.64   0
       339    880.6024    493.1690 307.5566047  +6.5015126     3261.055     5026.931      5486.31     77.43871     155.5607     311.1833      1.635     3.53     838.6924     54.88933     455.3326        24     1.324     1.018  35.10   0
       340    228.9153    492.7703 307.8272613  +6.4797778     613.2508     966.4225     1141.213     78.05873     155.5607     311.2762      1.765     5.19     839.5777     54.88933     94.71844         7     0.993     0.767  28.51   0
       341    888.0077    487.4473 307.5537208  +6.5041221     2092.271     3026.369     3542.109     77.56311     155.6226     311.0284      1.599     3.50      838.412     54.88933     323.1946        21     1.227     1.017  61.81   0
       342    927.5092    487.2166 307.5373229  +6.5055400     1213.234     1702.385     1463.125     77.81132     155.4987     311.3072      1.480     3.58     837.9269     54.88933     195.9734        13     1.064     1.009  59.67   0
       343    107.1828    487.1754 307.8780023  +6.4779802     677.6104     1232.571     1009.064     77.81132     155.6226     311.3382      1.828     3.98     841.1572     54.88933     110.4048         7     1.109     0.486  50.30   0
       344    711.9359    483.4849 307.6269784  +6.4998553     2998.595     4412.501     4485.963     78.18214     155.8702     311.4311      1.554     3.23     840.9064     54.88933     435.6102        20     1.179     0.935  44.10   0
       345     73.8628    482.5297 307.8919959  +6.4787725     1853.748     2926.619      3498.58     78.05873     155.7465     311.4311      1.691     3.38      841.311     54.88933     278.1831        16     1.121     0.898  54.96   0
       346    382.8789    481.6924 307.7636959  +6.4895364     3449.459     5315.556      5696.53     77.81132     155.9939      311.462      1.643     3.35     837.3561     54.88933     486.5137        25     1.249     1.051  61.47   0
       347    423.3688    481.7546 307.7468787  +6.4908735     1037.041     1566.629     1940.252     77.68732     155.8084     311.2762      1.671     5.14      837.218     54.88933     143.2663        14     1.277     0.853  46.05   0
       348    610.6550    478.2350 307.6692172  +6.4986221     9895.994     14811.85     16053.55     77.93512     155.7465     311.4311      1.618     3.10     839.1826     54.88933     1449.386        42     1.423     1.167  61.50   0
       349    773.3465    474.8490 307.6017635  +6.5054792     16386.46     23968.02     25614.94     78.18214     155.7465      311.462      1.562     3.02     840.0102     54.88933     2352.513        49     1.476     1.178  57.28   2
       350    777.4604    470.2177 307.6002102  +6.5075285     1465.841      2110.51     2534.484     77.68732     155.6846     311.1833      1.697     3.02     839.6539     54.88933     225.9971        13     1.048     0.785  49.74   3
       351    293.0573    475.2791 307.8012138  +6.4891582     2746.804     4219.401     4414.209     78.05873     155.7465     311.3691      1.649     3.45     837.3101     54.88933     366.6375        20     1.309     0.881  48.89   0
       352    802.3754    472.0217 307.5898021  +6.5076193     1360.166     1918.621     2019.166     77.68731     155.5607     311.4001      1.454     3.07     839.3584     54.88933     195.1917        12     1.049     0.736  67.84   0
       353    376.1528    471.6512 307.7668273  +6.4934541     1749.279     2596.227     3132.931     78.18214     155.6226      311.462      1.523     3.74      837.078     54.88933     224.5341        16     1.121     0.988  60.28   0
       354    958.5540    469.9774 307.5250064  +6.5136940     2010.761     3166.258     3545.742     77.68731     155.7465     311.2452      1.704     3.80     836.7509     54.88933      310.446        21     1.492     0.855  36.36   0
       355    364.7931    468.0920 307.7716647  +6.4945405     720.6235      1074.63     1158.696     77.68731     155.4367     311.2143      1.638     4.51     837.0192     54.88933     98.16003         8     0.877     0.660  49.78   0
       356    110.6659    466.5804 307.8772510  +6.4865972      4389.46     6685.212     6619.072     77.68732     155.7465     311.3072      1.664     3.61     840.4506     54.88933     600.9755        31     1.426     1.077  47.58   0
       357   1012.5986    464.5846 307.5027407  +6.5177280     4169.395     6837.764     7406.707     77.68732     155.3746     311.1833      1.807     3.89     835.6896     54.88933     522.5283        30     1.539     1.004  41.22   0
       358    748.7314    465.7185 307.6122927  +6.5084220     2283.639     3325.199     2979.611     78.30536     155.9939     311.4311      1.536     3.18     839.8322     54.88933     333.7557        21     1.253     0.951  51.99   0
       359    268.5610    463.7502 307.8117753  +6.4930907      1468.55      2281.69      2759.48     77.93512     155.7465     311.3691      1.858     3.73     837.5516     54.88933     191.7235        15     1.156     0.879  40.64   0
       360    346.8305    461.5349 307.7793452  +6.4966418     3019.309     4731.857     4666.559     77.81132     155.8084     311.3382      1.656     3.10     836.8971     54.88933     421.4037        24     1.281     1.027  66.06   0
       361    702.5934    459.3326 307.6316688  +6.5095097     1580.468     2313.924     2597.069     77.56312     155.4987     311.2143      1.673     3.42     839.3926     54.88933      233.815        14     1.110     0.805  46.80   0
       362    975.8492    458.1319 307.5182197  +6.5191617     571.3713     885.5093     1219.249     77.93512     155.6846     311.4001      1.708     4.43     835.8991     54.88933     87.24463         5     0.790     0.705  57.41   0
       363    234.9195    457.5237 307.8259561  +6.4945265     819.8729     1094.102     1341.698     78.30536     155.9939     311.5239      1.663     3.64     838.3145     54.88933     141.5087         9     1.072     0.572  63.37   0
       364    544.2487    452.0899 307.6976746  +6.5071814     1035.794      1560.54     1579.373     78.05873     155.6226     311.5549      1.497     3.96     836.7753     54.88933      149.997        10     0.990     0.753  50.83   0
       365    466.2998    450.4460 307.7301027  +6.5052390     1413.434     2144.593     2200.878     78.05873     155.6226     311.6167      1.635     3.59     836.6075     54.88933     186.3563        17     1.183     0.924  49.32   0
       366    828.7399    449.3950 307.5796107  +6.5178413     1531.191     1911.111     1552.932     77.56311     155.6226     311.1833      1.361     3.31     837.6036     54.88933     251.7211        12     1.136     0.662  47.50   0
       367    814.4012    448.4952 307.5855961  +6.5177321     1888.864     2742.153     2693.941     77.56312     155.4367     311.0284      1.518     3.25     837.8738     54.88933     276.4894        16     1.150     0.872  53.15   0
       368    711.7640    446.4786 307.6282913  +6.5151224      14879.7     21826.43     23027.49     77.93512     155.8084     311.4001      1.599     3.13     838.5701     54.88933     2327.365        46     1.458     1.150  54.04   0
       369    632.4534    442.5140 307.6613636  +6.5140966     2524.122     3738.647     4220.444     78.05873     155.6846     311.5239      1.753     5.08     837.7426     54.88933      384.973        24     1.739     1.006  11.73   0
       370    608.3112    439.6738 307.6714857  +6.5144580     4413.157      5841.47     6208.916     78.05873     155.9939      311.462      1.343     2.97      837.283     54.88933     739.1099        13     1.066     0.764  65.71   3
       371    604.4657    437.0749 307.6731701  +6.5154014     14533.25      23430.4     26473.56     78.18214     155.7465     311.3691      1.795     4.03      837.079     54.88933     1906.902        56     1.813     1.249  46.35   2
       372    376.1880    432.2521 307.7681389  +6.5097154     27462.09     43061.39     46163.68     77.43871     155.6846     311.1213      1.679     3.33     835.9222     54.88933     3549.255        71     1.616     1.328  55.43   0
       373    892.6248    432.0942 307.5536571  +6.5271218     1357.299     2236.539     2974.731     78.18214     155.4987     311.2453      1.912     4.18     835.5634     54.88933     192.1447        14     1.301     0.724  47.26   3
       374    889.0235    428.7855 307.5552636  +6.5283668     763.5895     1383.337     2053.995     77.81132     155.5607     311.3072      2.328     5.18     835.4625     54.88933     101.5128         9     1.232     0.615  53.38   3
       375    122.2138    431.7567 307.8736306  +6.5013585     2437.298     3875.581     4058.125     77.43871     155.5607     311.1523      1.706     3.40     839.0077     54.88933     307.3101        21     1.167     1.066  40.40   0
       376     55.5830    427.5394 307.9014439  +6.5008493      1421.05      2297.96     2835.262     77.56312     155.6846     311.2143      1.867     3.84     839.8269     54.88933     187.6874        16     1.155     0.922  76.92   0
       377    905.8757    426.8227 307.5483300  +6.5297412     4963.641     7313.067     7708.778     77.68731     155.6226     311.3072      1.544     3.08     835.0971     54.88933     859.0546        26     1.315     0.981  48.06   0
       378    937.1866    436.4288 307.5350039  +6.5268249     3833.259      5854.94     6576.259     77.68732     155.4987     311.3072      1.682     3.55     835.1914     54.88933     564.2678        30     1.384     1.127  33.01   0
       379    233.7247    422.8705 307.8276205  +6.5087874     13374.47     20537.31     21792.62     78.30536     155.8702     311.4001      1.653     3.21     837.2007     54.88933     1954.771        49     1.504     1.217  58.32   0
       380     69.1824    416.9697 307.8961531  +6.5056706     920.5605     1118.939     1114.049     77.68732     155.5607     311.3382      1.415     4.41     839.3602     54.88933      146.541        12     1.045     0.846 -89.12   0
       381    728.4697    416.6834 307.6223527  +6.5279797     852.1969     1286.875     1903.715     78.30536     155.9939     311.4311      1.677     3.12     836.6552     54.88933     176.4652         8     0.921     0.664  85.59   0
       382    697.0847    416.3727 307.6353982  +6.5270549     748.7255     1208.937     1334.166     78.18214     155.4987     311.2762      1.810     4.12      836.631     54.88933     151.0861         9     1.145     0.802  44.57   0
       383    957.0900    415.2430 307.5274464  +6.5362349      1081.03     1769.522     2021.079     78.05873     155.6846     311.4311      1.565     4.17     833.9741     54.88933     165.4023        10     1.167     0.594  75.31   0
       384    179.9566    413.1355 307.8502786  +6.5109918     837.1478     1246.825     1688.411     78.05873     155.6846     311.4001      1.698     4.20     837.4396     54.88933     147.1719        12     1.112     0.850  52.03   0
       385    346.7809    412.6056 307.7810134  +6.5168333     1175.102     1761.884     1506.576     77.68732     155.3746     311.2143      1.604     4.16     835.2986     54.88933     165.7297        13     1.163     0.774  29.72   0
       386    134.0451    411.5388 307.8693994  +6.5101016     4948.588      7508.66      8060.81     77.93512     155.6226      311.493      1.633     3.26     838.1215     54.88933     654.7527        28     1.358     1.028  53.97   0
       387    238.8751    410.6482 307.8258935  +6.5140052     1440.055     2160.108     2210.109     77.93512     155.8084     311.4311      1.600     3.46     836.6254     54.88933     230.0907        15     1.143     0.831  39.45   0
       388    431.8453    410.6149 307.7457520  +6.5205184     609.2226     832.0814     1027.317     77.43871     155.5607     311.1833      1.484     3.33     835.1335     54.88933     103.9677         5     0.777     0.414  22.90   0
       389    820.5703    408.5372 307.5843732  +6.5344301     724.3186     1036.228     895.0235     77.81132     155.7465     311.3382      1.282     3.32     835.8481     54.88933     148.2185         5     1.040     0.308  67.01   0
       390    156.1281    407.1279 307.8603772  +6.5126672      2475.19     4185.559     4708.681     78.30536     155.8702     311.3691      1.813     3.98     837.5276     54.88933     296.0607        24     1.350     1.083  76.04   0
       391    551.3942    406.7468 307.6962308  +6.5261349     905.0538     1334.992     1535.869     77.56311     155.4987     311.1213      1.770     3.63     835.1138     54.88933     147.3257        10     0.981     0.796  66.10   0
       392    267.8884    403.1729 307.8140960  +6.5180682     760.6235      1200.96     838.0389     78.18214     155.4987     311.3072      1.876     5.17     835.5544     54.88933     99.36884         9     1.359     0.556  85.17   0
       393    379.4346    402.2996 307.7677989  +6.5221861     2014.436     2954.815     3011.521     78.05873     155.6226     311.5549      1.605     4.17     834.6352     54.88933     283.5283        19     1.376     0.888  34.39   0
       394    968.0253    401.6056 307.5233610  +6.5422292     926.4027     1397.933     1831.912     77.56311     155.5607     311.2453      1.753     4.81     833.6143     54.88933     138.2883        12     1.167     0.929  49.49   0
       395     29.7377    396.3549 307.9132304  +6.5128458     2967.884     5044.597     5614.642     77.93512     155.6846      311.462      1.864     3.87     839.0832     54.88933     423.2951        32     1.607     1.252 -73.92   0
       396    433.3049    395.7396 307.7456463  +6.5267066      7028.79     10964.94     11493.24     77.93512     155.7465      311.493      1.677     3.16     834.2728     54.88933     957.9314        37     1.407     1.190  57.03   0
       397    773.9763    393.1031 307.6042430  +6.5392379      12707.1     18762.46     19892.55     78.18214     155.4987     311.2143      1.542     3.16     835.7819     54.88933     1876.305        49     1.513     1.153  49.37   0
       398    765.9342    394.4551 307.6075379  +6.5384102     1911.145     3018.835     3687.511     78.18214     155.6846     311.4001      1.892     3.19      835.877     54.88933     314.9814        18     1.219     0.934  51.18   0
       399    288.8053    392.0789 307.8057829  +6.5233516     483.7362     951.1712     985.4783     77.68731     155.2505     311.1833      2.222     4.94     834.5626     54.88933      75.2702         6     1.063     0.649  74.48   0
       400    337.3524    391.4590 307.7856414  +6.5252430     1011.118       1692.1     1937.845     78.05873     155.7465      311.493      1.814     4.68     834.2478     54.88933     151.5184        11     1.313     0.751  75.26   0
       401   1017.9456    388.3574 307.5030699  +6.5493672      3643.94     5368.078     5273.588     78.05873     155.7465      304.386      1.520     3.08     832.6658     54.88933     553.7332        25     1.378     0.933  60.97  16
       402    949.0148    385.0128 307.5318124  +6.5484411     686.4702     982.2098     917.6439     77.93512     155.4367     311.3382      1.410     3.77     833.4856     54.88933      116.351         5     0.663     0.615 -89.83   0
       403    899.7961    383.5033 307.5523060  +6.5474162     527.0306     645.6612     972.9878     77.81132     155.4367     311.0903      1.457     4.50     834.0035     54.88933     80.19751         6     0.956     0.603 -67.41   0
       404    182.5460    384.0134 307.8501855  +6.5230977     816.3273     1274.295     1071.454     77.43871     155.6846     311.1523      1.690     4.28     836.4405     54.88933     119.0062         9     1.052     0.698  45.57   0
       405    481.6348    379.3687 307.7261243  +6.5350887     3058.238      4504.47     4506.021     77.68732     155.4987     311.1523      1.555     3.46     834.1422     54.88933     421.8956        22     1.301     0.978  66.91   0
       406    453.8334    380.0824 307.7376470  +6.5338590     2271.547     3495.097     3197.202     78.05873     155.6846     311.3382      1.603     3.14     833.7145     54.88933     347.0256        20     1.128     1.087 -45.76   0
       407    839.3541    375.9901 307.5776623  +6.5484922     32164.27     50401.36     54560.79     77.56311     155.6226     311.0903      1.685     3.49     834.4124     54.88933     4269.804        74     1.656     1.280  68.93   0
       408    910.0962    379.0709 307.5481763  +6.5495904     709.8732     1022.964     984.2539     77.93512     155.8702     311.4311      1.429     4.06     833.8267     54.88933     98.65149         7     0.901     0.522  44.65   0
       409    391.1726    379.2653 307.7636993  +6.5320876     455.5416     774.9692     927.9216     77.68732     155.7465     311.3072      2.122     3.71     833.2267     54.88933     89.54468         5     0.757     0.671 -60.37   0
       410    331.3191    371.9634 307.7888038  +6.5330856     797.1545     1083.945     644.9267     77.93512     155.8084     311.4001      1.569     5.73       833.37     54.88933     108.5332        11     1.120     0.826  42.14   0
       411    611.0775    368.4675 307.6727285  +6.5439383     2583.894     4005.078     4235.247     78.18214     155.8084     311.3691      1.633     3.70     833.9836     54.88933     346.0984        21     1.350     0.932  55.23   0
       412     19.5769    368.8754 307.9183785  +6.5238429     1041.221     1587.433     1351.361     77.68732     155.6226     311.3382      1.585     4.20     838.1097     54.88933     147.7205        13     1.296     0.734  72.14   0
       413    695.7618    361.9470 307.6377742  +6.5494726     77657.77     117040.2     124734.4     77.93512     155.8084     311.4001      1.612     3.26     835.3218     54.88933     11565.37        96     1.636     1.317  54.17   0
       414    853.6752    363.4907 307.5721328  +6.5541308     1201.186     1814.008     2384.026     78.05873     155.9939     311.4311      1.830     4.35     833.8494     54.88933     164.7337        11     1.229     0.655  42.66   0
       415     75.0332    361.4909 307.8955967  +6.5287638     1318.373     1922.301     2033.731     78.18214     155.6226     311.4001      1.756     4.17     837.7065     54.88933       179.09        12     1.082     0.791  43.24   0
       416    937.3206    359.1048 307.5375370  +6.5587423     854.1173     1073.527     1294.856     77.81132     155.9939      311.462      1.442     5.38      833.257     54.88933     138.5733        10     1.300     0.629  48.26   0
       417    558.3282    358.6861 307.6949661  +6.5462029     2673.455     3962.315     4721.576     78.18214     155.9939     311.4311      1.646     3.46     833.1815     54.88933     385.6283        20     1.220     0.941  45.40   0
       418     95.4990    357.4266 307.8872343  +6.5311322     6266.894     9364.967     10036.08     78.18214     155.4987     311.3382      1.656     3.35     837.5777     54.88933     790.8106        35     1.465     1.102  56.47   0
       419    541.5717    354.9013 307.7020530  +6.5472018     7099.368     10660.23     11568.85     78.18214     155.4987     311.3691      1.638     3.23     832.9495     54.88933     994.3656        35     1.381     1.112  59.84   0
       420    270.5692    352.4901 307.8146908  +6.5390753     2740.406     4281.346     3133.625     78.18214     155.5607     311.3691      1.701     3.48     833.3549     54.88933     393.7277        25     1.387     0.980  53.07   0
       421    404.4236    350.0002 307.7591808  +6.5446113     24986.84     38612.52     40997.41     77.68731     155.4367     311.2143      1.679     3.26     831.4138     54.88933     3361.472        67     1.561     1.315  58.38   0
       422    582.8996    349.8224 307.6850584  +6.5506867     754.5638     969.5401     863.1527     78.05873     155.4987     311.1833      1.487     4.72     832.9459     54.88933     109.3995         9     0.993     0.673  75.62   0
       423    512.1707    348.9316 307.7144652  +6.5486771     1206.389     1791.836     1615.568     77.81132     155.7465     311.3382      1.513     3.58     832.8076     54.88933     167.3331        13     1.099     0.788  76.04   0
       424    384.3598    347.9305 307.7675837  +6.5447901      1170.47     1875.853      2254.26     77.93512     155.7465      311.462      1.888     3.92      831.638     54.88933     165.3167        12     1.089     0.798  50.32   0
       425    483.6353    345.7166 307.7264253  +6.5490444     1130.546     1656.588     911.0602     78.05873     155.7465     311.3691      1.592     4.56     832.7431     54.88933     159.1013        15     1.276     0.977  74.54   0
       426    799.2416    342.6326 307.5954414  +6.5609148     805.0681     1378.104     1580.171     77.81132     155.7465     311.2762      1.763     4.33     833.5582     54.88933      147.295        10     1.208     0.703  78.71   0
       427    381.6441    342.8449 307.7688828  +6.5467975     808.0119     1139.544      1770.02     78.05873     155.7465     311.3691      1.947     6.04     831.5273     54.88933     102.0895        12     1.142     0.898  68.85   0
       428    493.4997    340.3963 307.7225071  +6.5515718     8413.316     12885.22     13595.66     77.81132     155.4987     311.0594      1.670     3.25     832.3021     54.88933     1217.988        39     1.414     1.183  56.96   0
       429    762.7169    339.2440 307.6107259  +6.5610886      3177.38     4709.865     5105.026     78.05873     155.7465     311.3691      1.592     3.16     833.9288     54.88933     468.2295        25     1.286     1.094  45.58   0
       430    918.5056    339.5150 307.5460080  +6.5661973      876.703     1172.856     883.2441     78.05873     156.1175      311.493      1.352     3.16      832.866     54.88933      152.213         7     0.891     0.630  47.25   0
       431    710.2994    339.1023 307.6325026  +6.5593887     704.0981     1119.467     1008.218     78.05873     156.1175     311.2453      1.500     4.50     834.2529     54.88933     95.30713         8     1.187     0.492  68.72   0
       432    320.0272    337.2491 307.7946630  +6.5470318     999.4833     1444.912     1204.135     77.68731     155.7465     311.3382      1.413     3.69     832.1599     54.88933     149.0825        10     1.094     0.693  83.48   0
       433     78.8303    334.7384 307.8949230  +6.5399325     381.9815     425.4874     509.0437     77.81132     155.7465     311.3382      1.128     4.47     836.9824     54.88933      89.5332         5     0.808     0.704  20.12   0
       434    255.7368    331.1123 307.8215717  +6.5473979     659.0316      1125.73     543.9797     77.93512     155.9321     311.4001      1.579     5.09     833.1142     54.88933     98.45215         8     1.089     0.674  40.83   0
       435    155.7282    330.6208 307.8631247  +6.5442277     1099.749     1811.597     1733.727     77.68732     155.6226     311.3691      1.653     6.00     835.6047     54.88933     184.1843        14     1.587     0.639  83.70   0
       436    383.4127    324.5398 307.7687646  +6.5544116      7229.94     11298.23     11937.44     77.43871     155.6226     311.0903      1.700     3.31     831.0138     54.88933     1009.701        36     1.520     1.099  59.32   0
       437    239.2316    325.0655 307.8286307  +6.5493369     2136.777     3526.358     3807.948     77.81132     155.8084     311.3382      1.771     4.19     833.3064     54.88933     264.0729        22     1.409     1.003  38.29   0
       438    737.3442    324.6170 307.6217554  +6.5662743     999.8459      1159.18     1435.179     77.56312     155.6846     311.1523      1.331     3.47      833.513     54.88933     142.9591        10     0.877     0.822 -32.62   0
       439    751.2902    320.4970 307.6161010  +6.5684424     54153.93      79732.5     84929.73     78.05873     156.1792     311.4001      1.625     3.20     833.1022     54.88933     7789.641        88     1.613     1.299  51.86   0
       440    423.0183    320.1116 307.7524636  +6.5575723     2247.308     3501.885     3790.906     77.81132     155.4987     311.3072      1.621     3.41     830.4446     54.88933     276.9564        19     1.245     0.883  48.08   0
       441    986.3203    317.7070 307.5185699  +6.5774677     1653.431     2375.009     2225.463     77.81132     155.9321      311.462      1.483     3.56     830.8801     54.88933     244.7599        15     1.198     0.843  55.53   0
       442    927.0859    316.9510 307.5431996  +6.5757971     2147.151     3362.718     3518.127     78.05873     155.6846     311.4311      1.601     3.41     831.9513     54.88933     359.4625        19     1.326     0.784  47.17   0
       443    569.2522    317.4993 307.6918130  +6.5635681     1221.858     1761.737     1468.077     78.05873     155.7465     311.6167      1.518     3.57     831.2332     54.88933     188.0244        11     1.098     0.744  77.41   0
       444    460.0166    316.5879 307.7372150  +6.5602714     946.1724     1233.894     1509.271     77.81132     155.4367     311.3072      1.447     4.68     830.5848     54.88933     160.5864         9     1.054     0.728  44.61   0
       445    409.5116    315.5607 307.7582268  +6.5589958     2073.805     2959.396      2886.85     78.05873     155.6846     311.4311      1.579     3.69     830.3819     54.88933     269.0908        20     1.345     0.933  49.08   0
       446    289.7850    315.3267 307.8079623  +6.5550601      674.632      828.847     748.2676     77.56311     155.4987     311.3072      1.304     4.12     831.9594     54.88933     102.5743         7     0.870     0.597  27.65   0
       447    830.5369    310.0304 307.5835354  +6.5754191     1115.477     1679.745     1482.451     77.81132     155.8084     311.3382      1.528     3.65      832.165     54.88933     206.0746        12     1.161     0.754  46.67   0
       448    459.7923    311.0149 307.7374957  +6.5625639     744.6838     1143.269     1090.055     77.68732     155.4987     311.2452      1.700     3.94     830.2466     54.88933     106.7295         7     0.753     0.675  75.25   0
       449    439.9697    307.2402 307.7458560  +6.5634547     1068.416     1797.342     2202.212     77.56311     155.4987     311.2143      1.848     4.15      830.026     54.88933     180.0065        14     1.262     0.804  48.73   0
       450    185.9603    306.8885 307.8513691  +6.5550419     2181.889     3120.656     3301.361     78.05873     155.6846     311.4311      1.531     3.38     834.2929     54.88933     292.3442        20     1.329     0.890  52.53   0
       451    749.7803    305.0711 307.6172456  +6.5747582     5979.699     8889.064      9543.24     77.68731     155.6226     311.3382      1.572     3.11      832.316     54.88933     899.6813        34     1.474     1.021  47.48   0
       452    221.3977    304.6362 307.8367266  +6.5571666     669.5425     1045.935     1352.689     77.18932     155.5607     311.2143      1.644     3.51     833.0818     54.88933     109.9474         5     0.998     0.357  68.93   0
       453     82.2796    304.4164 307.8945144  +6.5525626     1068.171     1488.938     1675.532     77.68732     155.4987     311.2453      1.566     3.10     836.1191     54.88933     157.8284        10     1.023     0.634  43.32   0
       454    766.1278    302.9712 307.6105258  +6.5761732     2574.701     3843.677     4437.899     77.93512     155.7465     311.3691      1.557     3.39     832.1447     54.88933     375.9513        21     1.340     0.880  58.54   0
       455    468.8470    302.3949 307.7340248  +6.5664260     644.5295     927.9139     479.5034     77.43871     155.5607     311.0903      1.543     4.48     829.7073     54.88933      94.9184         6     0.937     0.608  67.14   0
       456    355.7856    297.6611 307.7811445  +6.5645742     1584.569     3123.679     3950.222     77.56311     155.6846     311.1833      2.299     5.42     830.6493     54.88933     202.8865        28     1.668     1.159   7.29   0
       457     69.4930    298.1224 307.9000376  +6.5547282     1211.829     1896.218     1842.556     77.81132     155.9321     311.4311      1.678     3.66     835.9722     54.88933     193.8152        17     1.210     0.962  56.12   0
       458   1004.3896    293.9479 307.5118593  +6.5878780     5849.247     8640.816     9398.292     77.43871     155.6226     311.1523      1.543     3.25     829.7007     54.88933     865.9385        33     1.520     0.966  50.64   0
       459    482.3444    293.7042 307.7287109  +6.5704667     2030.564      3126.06     3395.236     77.93512     155.6846     311.5858      1.733     3.81     829.1124     54.88933     276.6988        19     1.314     0.929  71.01   0
       460    244.9196    289.2923 307.8274744  +6.5642922     5734.149     9124.258     10071.09     77.81132     155.9939      311.462      1.723     3.30     832.0749     54.88933     746.8071        37     1.507     1.141  63.75   0
       461    912.2323    287.9109 307.5503421  +6.5872850     627.0182     792.0565     595.0253     78.18214     155.5607     311.4001      1.319     4.45     830.9627     54.88933     90.96393         7     1.076     0.524  22.88   0
       462    936.0707    284.8068 307.5405440  +6.5893643     537.3394      791.165       509.23     77.56311     155.3746     311.3072      1.288     3.93     830.6285     54.88933     96.17474         6     0.963     0.459  40.17   0
       463    764.8797    283.0076 307.6117138  +6.5843705     771.1513       1290.9      1216.01     77.68732     155.3126     311.2452      1.735     4.61     831.3674     54.88933     140.3456        10     1.224     0.678  52.55   0
       464    222.0475    282.7578 307.8371945  +6.5662177     649.3782     1092.575     864.6938     78.05873     155.6846     311.3072      1.787     4.16     832.4691     54.88933     91.79126         6     1.105     0.448  27.93   0
       465    379.2910    280.3441 307.7719645  +6.5725124     1525.094     2467.437     2693.198     77.93512     155.6226     311.5239      1.752     3.66     829.8922     54.88933     222.8751        16     1.201     0.877  74.40   0
       466    966.1245    279.2086 307.5282474  +6.5926807     1150.167     1472.291     1545.049     77.68731     155.2505     311.2143      1.431     3.32     829.9556     54.88933     217.5848        12     1.133     0.679  78.12   0
       467    186.2125    277.7844 307.8522462  +6.5670614     520.6956      884.617      1035.18     77.93512     155.4367     311.3382      1.726     3.37     833.6646     54.88933     83.21497         5     0.942     0.350  45.38   0
       468    301.4101    276.3393 307.8044477  +6.5715419     1278.501     1962.734     1560.096     77.43871     155.6226     311.1213      1.617     3.43     830.9763     54.88933     168.9373        13     1.090     0.817  56.35   0
       469    148.8228    276.0071 307.8678357  +6.5665333     1833.002     2763.242     2946.633     77.56311     155.5607     311.2143      1.558     3.77     834.6914     54.88933     273.0065        17     1.261     0.868  61.98   0
       470    558.5652    271.7267 307.6977904  +6.5820995     2183.006     3099.668      3285.75     77.93512     155.6846     311.3382      1.530     3.39     829.2281     54.88933      308.318        17     1.114     0.990  38.01   0
       471    902.0936    270.9440 307.5551219  +6.5939479     1740.683     2812.799     2919.214     77.93512     155.7465     311.5858      1.804     5.71     830.6727     54.88933     238.2031        21     1.631     0.886  30.75   0
       472    722.1485    269.2688 307.6299244  +6.5886072     4997.821     7406.383     7922.316     77.93512     155.6226     311.3382      1.593     3.16      830.951     54.88933     713.3346        32     1.477     1.052  49.29   0
       473    663.0652    269.2009 307.6544687  +6.5866522     2078.515     3103.996     3125.317     77.31411     155.4367     311.1523      1.567     3.36     830.3563     54.88933     298.4172        20     1.196     0.986  34.14   0
       474    960.6438    268.8657 307.5308703  +6.5967659     761.9618     875.6046     1065.971     78.05873     155.6846     311.4311      1.338     4.48     829.7958     54.88933     119.7639         7     0.868     0.657 -62.44   0
       475    918.0221    261.7369 307.5488137  +6.5982812     1172.366     1656.002     1717.356     77.68732     155.7465     311.2762      1.481     3.17     830.2873     54.88933     176.2003        11     0.971     0.739  69.92   0
       476    221.7369    254.4794 307.8382772  +6.5778775     2264.228     3663.763     3617.659     78.30536     155.8084     311.4001      1.733     3.92     832.1624     54.88933     311.0024        26     1.417     1.142  40.64   0
       477    864.7161    253.5929 307.5712294  +6.5998569     1670.022     2371.619     2721.656     77.68732     155.4367     311.2453      1.424     3.52       830.79     54.88933     238.5287        16     1.248     0.785  54.05   0
       478    754.8120    252.8683 307.6169068  +6.5964716     1517.749     1982.629     2028.652     77.56311     155.5607     311.3072      1.373     3.15     830.8513     54.88933     251.6096        13     1.066     0.757  69.22   0
       479    455.5843    244.3258 307.7414873  +6.5899450     22384.38     34656.11     37264.88     77.56312     155.4987     311.2762      1.706     3.29     827.9793     54.88933     3051.058        65     1.569     1.315  51.60   2
       480    461.4379    238.7998 307.7392418  +6.5924225     1495.161      2249.59     2995.079     77.06431     155.5607     311.2143      1.719     3.70     827.8272     54.88933     215.8474        14     1.117     0.859  60.86   2
       481    316.6663    246.0560 307.7991313  +6.5845537     576.1534     893.5972     549.4514     78.18214     155.6846     311.4001      1.610     4.63     830.3425     54.88933     82.36255         6     0.884     0.689  55.95   0
       482    781.6058    243.5050 307.6060910  +6.6012345     13385.73     19865.91     21782.28     77.81132     155.4367     311.2143      1.650     3.13      830.744     54.88933     2079.207        50     1.495     1.285  32.06   0
       483    720.6307    239.9655 307.6315383  +6.6006500      716.064     1022.564     227.9781     77.68731     155.4987     311.1833      1.428     3.97     830.3932     54.88933     119.5257         6     1.047     0.431  76.82   0
       484    143.8901    237.6624 307.8711786  +6.5821913     2362.012      3663.66     4464.014     78.05873     155.8702      311.462      1.762     3.37     833.9932     54.88933     319.4128        21     1.221     1.020  52.26   0
       485    118.5519    236.4314 307.8817445  +6.5818440     1061.671     1664.328      1687.74     77.81132     155.7465     311.3072      1.682     3.82     834.7343     54.88933     141.7048        13     1.226     0.812  76.24   0
       486    170.3909    235.7652 307.8602354  +6.5838686     629.3907     831.0761     354.3342     77.56311     155.5607     311.2143      1.379     4.63     833.2061     54.88933     100.7233         6     1.079     0.570  21.24   0
       487    918.3715    233.9751 307.5495985  +6.6097505     1378.916     2025.904     2191.627     77.56311     155.5607     311.2762      1.473     3.45     829.6108     54.88933     217.5382        16     1.231     0.838  60.94   0
       488    542.3857    230.2475 307.7059054  +6.5986743     2139.585     3282.774      3356.79     77.43871     155.5607     311.1523      1.633     3.33     827.8372     54.88933     301.9985        21     1.341     0.942  65.22   0
       489    579.7039    230.2015 307.6904055  +6.5999475     4715.564     7319.324     7707.893     77.56311     155.4987     311.0594      1.642     3.05     828.4204     54.88933     687.6709        33     1.431     1.124  51.88   0
       490    300.2060    230.9168 307.8064785  +6.5902470     1220.435     1742.388      957.161     77.68731     155.4367     311.1833      1.525     4.28     830.3823     54.88933     159.8502        12     1.063     0.904  71.01   0
       491    384.1795    229.0481 307.7716613  +6.5938468      1559.79     2456.853     2766.508     77.68732     155.7465     311.2143      1.721     3.81     828.7358     54.88933     208.5315        17     1.242     0.886  57.91   0
       492    940.5040    227.2761 307.5406289  +6.6132563     2635.417     3718.667     3658.276     77.68732     155.8702      311.462      1.510     3.13     829.0675     54.88933     405.8128        20     1.277     0.863  62.74   0
       493    886.6892    226.7935 307.5629999  +6.6116534     11271.53     16638.28     17562.78     77.56311     155.4367     311.1833      1.582     3.07     829.9783     54.88933     1857.789        42     1.420     1.136  49.12   0
       494    973.3358    224.6178 307.5270794  +6.6154524     9834.516     14435.52     14854.89     77.68732     155.6846     311.2143      1.576     3.17     828.5293     54.88933      1410.69        39     1.395     1.113  49.17   0
       495    561.4503    226.8872 307.6980992  +6.6007019     830.4542     1216.624     973.0158     78.05873     155.6226      311.493      1.578     5.19     828.0306     54.88933     140.7475        11     1.147     0.838 -23.36   0
       496    314.5891    226.4217 307.8006557  +6.5925868     910.4791     1724.217     1344.639     77.68732     155.4987     311.2453      2.074     5.98     830.0964     54.88933     144.8698        12     1.515     0.665  70.53   0
       497    205.9532    226.6978 307.8457701  +6.5888104       594.02     1071.933     1196.899     78.05873     155.6226     311.5858      1.871     3.42      832.219     54.88933     94.72314         5     0.807     0.484  55.79   0
       498     12.8210    223.2139 307.9261064  +6.5837272     24652.62     38674.11     41573.81     77.81132     155.4987     311.3072      1.685     3.26     835.5088     54.88933     3319.241        67     1.582     1.311  55.66   0
       499    684.7383    224.5749 307.6469643  +6.6057972     2845.756     4272.098     5298.071     77.68732     155.6846     311.3382      1.736     3.31     829.6218     54.88933     440.4877        22     1.253     1.014  20.71   0
       500    259.1979    224.1047 307.8237416  +6.5916761     1070.626     1550.449     1389.918     77.56311     155.4367     311.0284      1.467     2.96     831.0813     54.88933     172.3573        10     0.926     0.706  29.99   0
       501    493.4029    219.5886 307.7266105  +6.6014262     1945.759     2897.044     2838.718     77.68732     155.4367     311.2762      1.595     3.32     827.3447     54.88933     276.4504        17     1.199     0.842  58.13   0
       502    825.2139    216.3746 307.5888861  +6.6138935     2063.487     2940.223     3169.023     77.81132     155.5607     311.3382      1.592     3.34     829.8842     54.88933     272.4049        18     1.205     0.886  53.79   0
       503    505.3445    215.3716 307.7217920  +6.6035682     2501.019      3843.45     3802.028     77.81132     155.8084     311.2762      1.633     3.41     827.2942     54.88933     363.8076        22     1.273     1.067  62.94   0
       504    877.5376    215.3253 307.5671858  +6.6160798       2016.5     2831.414     3064.285     78.30536     155.7465     311.4001      1.499     3.18     829.5085     54.88933     285.5562        17     1.126     0.924  55.55   0
       505    736.8731    212.6363 307.6257084  +6.6124739     40087.11     59446.13     63170.94     77.93512     155.7465     311.4001      1.610     3.14     829.6454     54.88933      6252.21        71     1.569     1.256  59.14   0
       506    339.9389    212.0735 307.7906095  +6.5993622     5613.317     11915.08     13109.89     78.18214     155.7465     311.4311      2.230     5.76     829.5857     54.88933     620.1837        51     1.961     1.320 -86.92   0
       507    970.6947    211.4512 307.5286173  +6.6207980     2776.729     4237.606     4619.472     77.93512     155.6846     311.6167      1.653     3.40      827.649     54.88933     448.6516        22     1.392     0.933  59.85   0
       508    904.7493    209.8440 307.5560655  +6.6192535     7542.708      10943.6     11159.12     78.18214     155.6846     311.4311      1.562     3.14     828.8237     54.88933     1169.095        33     1.370     1.041  50.26   0
       509   1009.1740    210.2032 307.5126743  +6.6226007     1754.721         2560     2658.262     77.56311     155.4367     311.2143      1.494     3.05     826.7758     54.88933     279.0078        15     1.143     0.819  68.12   0
       510    448.2479    208.9307 307.7457258  +6.6043057     4940.179     7562.043     8349.667     78.05873     155.6846     311.4311      1.640     3.20      827.327     54.88933      722.697        31     1.416     1.035  51.30   0
       511    222.9706    205.9545 307.8394013  +6.5979450     826.7466     1316.358     1712.168     77.68732     155.8084     311.2762      1.727     4.69     831.6321     54.88933     121.4695         9     1.158     0.571  65.97   0
       512    105.6815    200.1887 307.8883140  +6.5963664     4750.823     7465.354     7785.901     77.68732     155.4987     311.2452      1.663     3.31      834.194     54.88933     631.0924        31     1.400     1.092  57.25   0
       513    925.1968    199.5174 307.5479173  +6.6242001     885.2451     1277.942     1691.495     77.43871     155.3746     311.0903      1.616     3.28     828.0449     54.88933     154.8557         9     0.881     0.773 -24.92   0
       514    275.9558    196.7510 307.8177030  +6.6035297      33128.2     51635.34     55384.38     78.05873     155.6846     311.4001      1.676     3.38     830.6888     54.88933     4546.603        70     1.599     1.292  53.02   0
       515    251.2945    197.8414 307.8279099  +6.6022483     6306.527      9876.02     10208.22     78.05873     155.6846     311.5239      1.666     3.37     831.0984     54.88933     842.1528        33     1.429     1.110  57.73   0
       516    705.1472    196.2251 307.6394382  +6.6181824     963.8528     1286.611     1831.057     77.56311     155.7465     311.3072      1.404     2.97     828.7783     54.88933       171.39         9     0.859     0.719  59.18   0
       517    400.0510    192.2614 307.7663072  +6.6095629     48871.56     75992.88     81133.34     78.05873     155.6846     311.4001      1.672     3.27     827.9313     54.88933      6472.15        82     1.608     1.345  55.38   0
       518    156.0266    193.6211 307.8676240  +6.6007764     4134.783     6410.692     7040.733     77.68731     155.5607     311.3382      1.671     3.23     832.3363     54.88933     537.4684        28     1.313     1.083  52.94   0
       519    417.5455    192.8990 307.7590187  +6.6098887     1384.448     2056.463     2346.715     77.93512     155.7465     311.6477      1.663     3.90     827.5009     54.88933      182.467        13     1.115     0.798  66.87   0
       520    304.0593    190.0193 307.8062562  +6.6072550     17939.38     28033.24     30283.09     77.68732     155.6226     311.2452      1.670     3.26     830.1531     54.88933     2516.741        60     1.586     1.254  52.17   2
       521    311.5051    190.1263 307.8031598  +6.6074618     2264.949     3495.104     4850.388     77.93512     155.9321     311.4001      2.078     6.29     829.9771     54.88933      329.657        26     1.849     1.067 -80.95   2
       522    739.2953    188.5379 307.6255109  +6.6225007     33240.54     49141.89     52645.79     77.81132     155.8084     311.4311      1.619     3.19     828.2837     54.88933     4734.249        72     1.552     1.281  54.10   0
       523    687.5031    190.5405 307.6469585  +6.6199362     1079.012     1394.632     1434.735     77.81132     155.7465      311.493      1.360     3.04     828.6876     54.88933     159.4691        10     0.915     0.749  44.24   0
       524    788.0061    189.6071 307.6052401  +6.6236932     1224.623      1843.52     2042.899     77.43871     155.5607     311.2453      1.513     3.16     828.3954     54.88933      182.375        11     1.079     0.659  30.54   0
       525     27.1781    189.4768 307.9212832  +6.5981353     698.0038     1171.848     1215.326     77.68732     155.5607     311.3382      1.833     5.22     835.5857     54.88933     104.0621         9     1.217     0.633  51.32   0
       526     56.1208    185.7249 307.9093883  +6.6006615     9028.751     13685.55     14646.73     78.30536     155.9939      311.493      1.624     3.28     834.9363     54.88933      1191.65        39     1.441     1.185  63.09   0
       527    563.0246    186.9818 307.6987866  +6.6172239     538.9949     866.6024     1153.833     77.68732     155.6226     311.3382      1.967     3.88     827.2253     54.88933     114.9661         5     0.828     0.520  27.92   0
       528    997.9903    183.3535 307.5182189  +6.6333077     1108.414     1663.596     1838.547     77.56311     155.6226     311.0594      1.624     3.21     824.9601     54.88933     191.2678         9     0.915     0.626  56.50   0
       529     90.0107    183.7273 307.8953790  +6.6026307     1526.638     2360.639     2271.949     77.56311     155.3746     311.2762      1.615     3.72      834.101     54.88933     203.0077        12     1.041     0.843  36.23   0
       530    723.7836    176.7998 307.6323485  +6.6268247     617.3086     784.1567     440.8261     77.68731     155.3126     311.0903      1.193     2.65     827.7818     54.88933     104.7515         6     0.727     0.562  44.92   0
       531    572.9346    173.0295 307.6951390  +6.6233151     781.9847     1394.188     1454.965     77.81132     155.7465     311.3382      1.873     4.81      827.093     54.88933      117.942         9     1.190     0.551  45.33   0
       532    998.6862    169.1948 307.5184037  +6.6391745     2245.225     3432.202     4299.012     77.56311     155.4367     311.0903      1.719     3.21     823.8597     54.88933     334.0123        19     1.244     0.897  47.15   0
       533    581.9705    167.1379 307.6915835  +6.6260502     1088.177     1507.311     1664.608     77.81132     155.7465     311.3382      1.431     3.34     827.1086     54.88933     157.3318        10     0.915     0.722  79.24   0
       534    590.0165    165.0363 307.6883117  +6.6271879     1872.545     2672.059     2764.848     77.68732     155.5607     311.1833      1.527     3.55     827.1912     54.88933     253.3373        20     1.257     0.962  68.51   0
       535    334.6976    165.1356 307.7943680  +6.6185567     1025.895     1672.205     1655.769     78.05873     155.8084     311.4311      1.667     3.43     829.2421     54.88933      163.045        12     1.104     0.770  69.92   0
       536    274.8852    163.0273 307.8192846  +6.6174112     29849.23     46701.87     50353.33     78.18214     155.4987     311.2762      1.683     3.29      830.647     54.88933     4126.797        67     1.568     1.311  54.85   0
       537     20.1302    161.7522 307.9251477  +6.6093386     4495.676     7025.929       7959.8     78.05873     155.6846     311.4311      1.744     3.34     835.9255     54.88933     561.7641        34     1.652     1.149  86.13   0
       538    706.5325    159.6980 307.6400889  +6.6333038     8074.963      11828.9     13128.37     78.05873     155.8702     311.4311      1.624     3.23     827.3499     54.88933     1207.611        36     1.452     1.077  63.19   0
       539    184.3540    161.1216 307.8569542  +6.6151445     906.9001     1436.691     1318.065     78.05873     155.8084     311.3691      1.648     5.01     831.1522     54.88933     132.7385        12     1.248     0.752  55.20   0
       540    260.9774    158.5175 307.8252137  +6.6188035      720.742     1053.544     656.8971     77.81132     155.4367     311.3072      1.511     5.12     830.7758     54.88933     99.48419         8     1.297     0.571  67.75   0
       541    117.2669    156.8647 307.8849646  +6.6146369     4795.745     7541.646     7206.668     78.05873     155.7465     311.4311      1.654     3.40     832.3601     54.88933     633.8344        32     1.439     1.117  64.49   0
       542    579.0073    154.7269 307.6932315  +6.6310727     739.2505     1175.018     949.2291     77.68731     155.3126     311.3072      1.680     4.31     826.6759     54.88933     125.5293         9     1.014     0.649  52.82   0
       543    456.5463    154.3368 307.7441159  +6.6271158      1219.31     1835.354     1538.283     78.05873     155.6846     311.3691      1.644     4.33     826.3135     54.88933     150.4697        13     1.238     0.758  49.24   0
       544    388.0189    152.8005 307.7726340  +6.6254432     3923.494     6730.859     7005.693     77.68732     155.3126     311.0903      1.812     3.90     827.9364     54.88933     552.0387        33     1.568     1.154  74.38   0
       545    645.3069    154.0547 307.6657124  +6.6335774     817.8434     1081.953     681.4239     77.93512     155.6846     311.5858      1.385     2.31     827.4841     54.88933     149.8918         7     0.703     0.655 -89.53   0
       546    352.4540    151.8775 307.7874387  +6.6246265     3141.134     4633.979     4826.574     78.18214     155.7465     311.4001      1.604     3.24     828.9579     54.88933     413.1581        24     1.261     1.034  61.18   0
       547    106.7655    151.5390 307.8895065  +6.6164802     1656.906      2567.93     2131.543     78.05873     155.7465     311.3691      1.671     3.97     832.4537     54.88933     202.0425        16     1.156     0.931  19.65   0
       548    935.1458    151.0134 307.5454089  +6.6445514     714.8926     1065.673     963.1177     77.43871     155.6846     311.1523      1.584     4.58     825.4301     54.88933     92.53851         7     0.885     0.673 -33.75   0
       549    668.3544    149.6356 307.6562865  +6.6361750      813.053     1269.354     1286.714     77.81132     155.6846     311.2762      1.616     4.53     827.5636     54.88933     105.4505         7     0.878     0.663  67.17   0
       550    999.1637    146.0987 307.5189784  +6.6487225     1581.074     2378.446     2667.923     78.05873     155.6226     311.5858      1.545     3.63     822.7695     54.88933     220.7383        14     1.196     0.813  61.87   0
       551    725.1672    146.3627 307.6327953  +6.6394327      602.691      764.372     394.3119     77.68732     155.4987     311.1833      1.269     3.53     826.5262     54.88933     102.5998         5     0.798     0.450  14.81   0
       552    204.3691    140.5998 307.8493326  +6.6242889     5441.657     8540.149     8859.058     77.31412     155.5607     311.2143      1.674     3.19     830.8456     54.88933      727.769        34     1.429     1.133  57.76   0
       553    814.1920    139.6625 307.5960370  +6.6451837     1073.221     1496.074     1476.097     77.43871     155.5607     311.2143      1.468     4.06     825.9983     54.88933     176.2189        11     1.142     0.811  69.80   0
       554    666.1611    139.5866 307.6575352  +6.6402486     6382.223     9321.468     9493.278     77.56311     155.5607     311.1523      1.553     3.05     827.0377     54.88933     901.2191        29     1.343     0.994  55.76   0
       555     87.1322    140.3840 307.8980386  +6.6204206     2011.985     3298.053     3440.314     77.56311     155.6846     311.3072      1.807     3.59     832.7166     54.88933     318.2255        19     1.177     1.054  54.62   0
       556    618.3011    136.7254 307.6775133  +6.6398222       9281.2     14207.03     15681.46     77.56312     155.8702     311.3691      1.670     3.22     826.2932     54.88933     1269.113        43     1.528     1.155  51.62   3
       557    621.7847    128.2169 307.6763520  +6.6434507     52373.25     79454.76     85055.69     77.81132     155.4367     311.3382      1.633     3.14     825.8866     54.88933     7339.625        85     1.605     1.314  59.43   2
       558    253.3738    137.2224 307.8290903  +6.6273354     754.5257     878.6237       782.65     77.56311     155.5607     311.3382      1.271     3.75     830.7151     54.88933     121.0747         7     0.987     0.540  21.39   0
       559     16.8591    136.1136 307.9273729  +6.6198086     911.4183     1511.477     1373.317     78.05873     155.7465     311.5239      1.763     5.54      836.288     54.88933     115.0341        13     1.259     0.843 -66.04   0
       560    556.4844    136.4917 307.7032009  +6.6378414     557.7509      628.919     739.7897     77.81132     156.1175      311.493      1.152     3.76      825.631     54.88933      82.0932         6     0.951     0.426 -17.87   0
       561    345.4682    132.3247 307.7909993  +6.6324604     3507.489     6463.708     7005.614     78.18214     155.8702     311.4001      2.013     3.86     829.5842     54.88933     456.2061        39     1.681     1.290 -69.99   0
       562    527.1178    131.7075 307.7155611  +6.6388286     1679.177     2496.438     2523.137     77.81132     156.0557      311.493      1.518     3.73      825.449     54.88933     219.6065        19     1.302     0.898  59.36   0
       563    991.6982    131.7757 307.5225592  +6.6543839      813.774     1091.174     1408.984     78.18214     155.4987     311.2762      1.246     4.32     822.5699     54.88933     117.5131         7     0.874     0.608  14.27   0
       564    300.8890    121.9056 307.8098688  +6.6352583     3444.311     5588.284     6393.545     78.05873     156.1792      311.462      1.782     3.63     830.3345     54.88933     503.8944        31     1.494     1.121  51.61   0
       565    700.8005    116.4585 307.6439217  +6.6509565      854.143     1046.219     595.2531     77.31412     155.4367     311.0903      1.319     3.98      825.771     54.88933     147.4416         9     0.995     0.692  48.66   0
       566    672.1950    115.5046 307.6558373  +6.6503900     1329.367     1899.474     1488.812     77.81132     155.4367     311.1833      1.532     3.75       825.91     54.88933     179.0491        14     1.212     0.748  44.54   0
       567      1.9324    104.8653 307.9346295  +6.6321997     117084.4     186255.8     213849.3     74.52023     132.4642     243.8965      1.850     5.33     837.7011     54.88933     31538.85       204     3.007     1.551 -85.09  24
       568    686.3312    112.3168 307.6500717  +6.6521801     3181.529     4784.562     4857.634     78.30536     155.9939     311.4311      1.615     3.50     825.6725     54.88933     453.7263        24     1.377     0.946  51.31   0
       569    428.0037    103.1817 307.7576946  +6.6472668     3990.062     6014.942     6232.891     77.68732     155.3126     311.2143      1.585     3.53      825.894     54.88933     576.5986        25     1.329     0.993  48.85   0
       570    882.5989     99.7544 307.5689562  +6.6639466       2060.7     2960.641     2947.218     77.43871     155.4367     310.9973      1.539     3.09     823.6871     54.88933     321.4468        17     1.191     0.890  62.75   0
       571    900.4382     98.7415 307.5615789  +6.6649622     3966.523     5948.391     6562.125     78.05873     155.8084     311.4311      1.669     3.26     823.5206     54.88933       526.83        25     1.349     0.947  51.28   0
       572    580.3608     98.9445 307.6945443  +6.6541396     712.2384     1291.801     1432.221     78.05873     155.8084     311.3691      1.817     3.26     824.2361     54.88933      132.101         7     0.943     0.566  32.45   0
       573    592.5432     97.2734 307.6895396  +6.6552387      1823.52     2623.626     2766.722     78.05873     155.6846     311.3691      1.553     3.19     824.1484     54.88933     259.4462        16     1.175     0.815  58.38   0
       574    238.5784     96.7945 307.8365997  +6.6435207     782.0858     1291.396     1711.502     77.68732     155.4987     311.2143      1.768     3.02     830.4615     54.88933     118.3005         7     0.830     0.601  14.56   0
       575    391.2753     95.1101 307.7732241  +6.6493615     1933.053     2764.528     2558.578     78.05873     155.9939      311.462      1.533     3.46     827.7144     54.88933     296.1357        18     1.290     0.846  47.69   0
       576    139.3619     91.8865 307.8779804  +6.6421985     3093.474     4940.445     5685.637     78.05873     155.6846     311.4001      1.795     3.50     829.7896     54.88933     402.5744        23     1.449     0.958  75.07   0
       577     21.1538     89.7327 307.9271566  +6.6390944     12154.49     19131.31      21285.2     78.05873     155.6846     311.4311      1.716     3.29     835.7195     54.88933     1601.897        50     1.568     1.213  58.58   0
       578    287.4633     90.4547 307.8165061  +6.6477853     1561.085      2441.67     2778.784     78.18214     155.6846     311.3691      1.735     3.35     830.4488     54.88933     246.3666        12     0.930     0.899  33.68   0
       579    548.2639     89.5954 307.7081927  +6.6569192     931.8375     1184.903     934.3389     77.31412     155.4987     311.2143      1.451     4.46     823.9462     54.88933     113.5544        10     0.975     0.866  86.40   0
       580    941.4861     88.8732 307.5448562  +6.6704095     568.3589     675.7666     208.5341     78.18214     156.0557     311.4001      1.359     4.22     822.6266     54.88933     81.51868         5     0.903     0.562  45.14   0
       581    756.3401     89.0015 307.6217701  +6.6641518     787.4299     1090.593     1907.203     77.43871     155.4987     311.1213      1.497     4.38     824.7666     54.88933     128.3387         8     0.859     0.679  -0.37   0
       582    889.5592     85.5921 307.5665392  +6.6700246     691.8577     927.2252     818.1085     77.43871     155.5607     311.0903      1.364     3.17     823.2076     54.88933     150.3194         8     1.038     0.496  89.24   0
       583    822.8491     84.4113 307.5942933  +6.6682765     6165.021     9209.715     9706.575     77.43871     155.6846     311.0903      1.572     3.07     823.9697     54.88933     944.1932        32     1.396     1.034  55.20   0
       584    767.9669     84.7518 307.6170825  +6.6662956     3233.713      4741.97     5295.214     77.81132     155.7465     311.3382      1.532     3.11     824.5513     54.88933     501.9432        24     1.252     0.995  45.04   0
       585    413.3523     85.5231 307.7643756  +6.6540613     990.5519     1464.179     1089.554     77.93512     155.8084     311.3691      1.445     3.79     826.2834     54.88933     169.8868        10     1.186     0.769  37.59   0
       586    561.1727     89.4402 307.7028351  +6.6574172     570.7305     915.0886      1113.07     77.68732     155.5607     311.2453      1.486     3.51     823.9173     54.88933     104.7728         5     0.766     0.464  16.82   0
       587    530.2718     82.6556 307.7159005  +6.6591783     1227.775     1769.029     1962.959     77.93512     155.6846     311.3691      1.578     3.90     824.0259     54.88933      183.202        13     1.226     0.757  64.95   0
       588    422.9210     81.6970 307.7605294  +6.6559624     995.8479     1497.405     1820.849     77.81132     155.9939      311.493      1.957     5.52     825.9547     54.88933      135.633        14     1.188     0.893  61.86   0
       589     61.4457     81.5444 307.9106962  +6.6438351     3234.042     4800.864     4959.534     78.05873     155.7465     311.4001      1.644     3.64     832.4045     54.88933     417.0907        26     1.403     1.010  48.86   0
       590     46.1774     82.5028 307.9170063  +6.6429237     929.4414     1386.247     1554.286     78.05873     155.4987     311.2143      1.620     4.88     833.4419     54.88933     115.1196        12     1.140     0.774  58.53   0
       591    585.5123     78.4582 307.6930929  +6.6627675     1280.278      1784.95     1988.432     78.05873     155.7465     311.5239      1.539     3.74     823.5995     54.88933     202.6223        14     1.161     0.784  39.39   0
       592      3.6972     76.8363 307.9348439  +6.6438264     2561.011     4126.212     4772.219     78.05873     151.4786     269.3316      1.770     3.46     835.5571     54.88933     420.5005        24     1.343     1.019  58.88  24
       593    762.6534     72.3504 307.6197060  +6.6712355     1927.283     2750.783     2993.639     78.18214     155.7465     311.4311      1.507     2.88     824.0668     54.88933     294.8308        16     1.064     0.871  63.36   0
       594    403.1342     72.3715 307.7690634  +6.6591449     990.5916     1492.645     1309.705     77.81132     155.6846     311.3382      1.668     3.98     827.1025     54.88933     162.5535        13     1.131     0.886  52.95   0
       595     76.4188     73.1482 307.9047600  +6.6478059     767.7144     1222.272     990.5815     77.56311     155.8084     311.2143      1.449     3.06     831.0949     54.88933     123.2711         5     0.733     0.450  69.61   0
       596    654.1392     72.4029 307.6647860  +6.6675719     531.0621     834.9065     796.0051     77.43871     155.4987     311.1213      1.353     3.41     823.9865     54.88933     78.71881         5     0.754     0.446  19.65   0
       597    100.3417     71.2499 307.8948864  +6.6493973     957.4578      1409.33     1603.863     78.05873     155.7465     311.4311      1.603     4.53     829.8627     54.88933     120.1389        11     1.125     0.792  65.15   0
       598     89.2084     65.9014 307.8996920  +6.6512286     9148.483     14365.89     15282.34     77.81132     155.3746     311.1833      1.690     3.31      830.191     54.88933     1226.075        43     1.564     1.159  60.98   0
       599    418.2743     65.7164 307.7629978  +6.6624010     2505.385     3913.438     3913.067     78.18214     156.0557      311.462      1.662     3.57     826.2362     54.88933     352.7298        24     1.413     0.951  68.66   0
       600    239.5431     65.4002 307.8372578  +6.6565094      537.275     986.5829     1569.756     77.31412     155.3746     311.0594      1.600     3.48     830.1121     54.88933     85.61316         5     1.064     0.328  21.06   0
       601    631.9018     57.9608 307.6745096  +6.6727853     18255.64        27730     30262.26     78.05873     155.6226     311.6167      1.610     3.28     823.3027     54.88933     2726.809        59     1.570     1.226  58.91   0
       602    255.7563     59.9413 307.8307067  +6.6593089     1336.667     2264.876     3536.525     77.93512     155.6846      311.462      2.233     3.99     830.1721     54.88933     220.5571        16     1.259     0.972  65.93   0
       603    531.7085     54.1235 307.7162633  +6.6710018     5191.606     7688.439     8250.505     77.93512     155.9939     311.4001      1.608     3.17     823.1746     54.88933     772.2466        30     1.367     1.042  52.27   0
       604    249.9334     54.3620 307.8333138  +6.6614151      1969.55     3214.555     4398.869     77.93512     155.6846      311.493      2.175     3.65     830.0752     54.88933     247.0512        22     1.261     1.061  28.60   0
       605    618.2458     47.9715 307.6805186  +6.6764491     3121.251     5203.707     6674.464     77.56311     155.8084     311.3072      2.068     3.66     822.8412     54.88933     445.6359        27     1.514     1.033  56.13   2
       606    437.3111     49.5939 307.7556321  +6.6696955     22262.13     34053.08     35967.02     77.56312     155.4367     311.1833      1.677     3.25     825.7352     54.88933     2990.225        58     1.545     1.242  59.59   0
       607    257.8745     49.9912 307.8301623  +6.6634867     8960.805     14033.16     15585.06     77.68732     155.3126     311.2452      1.668     3.28     830.1121     54.88933     1297.161        42     1.465     1.199  54.29   0
       608    915.0438     49.7282 307.5571532  +6.6856795     1796.097     2653.706     2121.442     77.93512     155.7465     311.4311      1.528     3.89     822.1793     54.88933     240.4543        15     1.296     0.740  54.42   0
       609    317.9648     50.5386 307.8051807  +6.6652863     1035.786     1680.025     1808.251     78.05873     155.7465     311.3691      1.594     3.15      830.384     54.88933     168.0944         8     0.812     0.672  77.98   0
       610     23.3287     49.7849 307.9276035  +6.6556536     2399.692     3759.083     3641.895     77.56311     155.6226     311.3072      1.690     3.53     832.0199     54.88933     291.7338        18     1.193     0.916  57.47   0
       611    551.3083     49.6587 307.7082708  +6.6735033     562.7291     955.6364     973.8582     77.93512     155.6846      311.493      1.868     4.02     822.7905     54.88933     78.17603         6     0.921     0.501  43.52   0
       612    522.7217     49.8136 307.7201417  +6.6724783     594.1951     746.4063     1350.628     77.68732     155.4987     311.2143      1.194     3.33     823.2505     54.88933     100.4414         5     0.726     0.684 -22.13   0
       613    245.8967     46.5651 307.8352537  +6.6644967     3091.617     5113.098     6338.046     78.05873     155.6226     311.5549      1.857     3.78     829.9736     54.88933     421.1752        25     1.368     1.035  51.37   0
       614    299.3082     45.2892 307.8131081  +6.6668239     943.9278     1802.434     2345.042     78.05873     156.2409      311.493      2.165     3.73     830.3844     54.88933     140.7537         8     0.968     0.584 -73.95   0
       615    687.2469     39.4108 307.6521395  +6.6822993     1908.513      2963.36      2819.74     77.56312     155.5607     311.0594      1.650     3.87     823.2377     54.88933      247.343        19     1.315     0.926  42.81   0
       616    935.7277     39.9104 307.5488887  +6.6904240     1018.753     1278.941      709.022     78.05873     155.9939     311.4001      1.326     3.11     821.4521     54.88933     167.4421        10     1.022     0.657  51.96   0
       617     92.0658     39.5160 307.8993962  +6.6622139     587.4763     1000.336     513.8403     78.18214     155.9939      311.462      1.745     4.69     829.4659     54.88933     85.24536         7     1.137     0.549  60.68   0
       618    198.7146     35.3814 307.8552317  +6.6675205     762.4326     1043.858     774.0611     77.68732     155.4987     311.3382      1.459     4.16     829.4542     54.88933      117.603         8     1.071     0.619  79.56   0
       619    175.4188     31.9977 307.8650235  +6.6681308     10404.22     16347.08     17083.63     77.68731     155.3126     311.1523      1.687     3.41     829.2936     54.88933     1319.839        46     1.504     1.210  58.40   0
       620    252.9951     33.8672 307.8327331  +6.6699763     679.5802     1076.685     1739.574     77.56311     155.4367     311.2143      2.219     4.22     829.9321     54.88933      118.348         7     1.140     0.446  59.44   0
       621    921.0672     29.9001 307.5553150  +6.6940644     4138.571     6041.629     6328.742     78.05873     155.8702     311.3691      1.503     2.94     821.6949     54.88933      708.998        25     1.350     0.928  57.24   0
       622    519.6941     30.1878 307.7220597  +6.6804760     3002.137      4350.59     4549.847     77.81132     155.4987     311.2143      1.576     3.22     822.7675     54.88933     411.8932        19     1.209     0.885  59.06   0
       623    746.4452   1013.5734 307.5948756  +6.2822375      7348.03     12151.43     13335.41     77.56312     155.8084     311.3072      1.833     3.44     852.3346     54.88933     997.6945        48     1.622     1.299  67.70  16
       624    985.9388     26.1354 307.5284888  +6.6977898     1753.109     2814.579     3300.316     78.05873     155.7465     311.4311      1.772     3.50     817.2157     54.88933     268.5075        20     1.268     1.016  56.53   0
       625    541.8784   1014.0989 307.6797795  +6.2751552     3995.001     6578.195      7530.66     77.68732     155.9939     311.4311      1.809     3.52      855.138     54.88933     546.1107        33     1.489     1.205  69.93  19
       626    539.2126   1006.3291 307.6811470  +6.2782723     7932.862     12584.28     14114.93     77.56311     155.4987     311.2452      1.754     3.31     854.9794     54.88933     1077.795        43     1.546     1.221  77.43   3
       627    327.5779     21.5910 307.8021627  +6.6775567      915.709     1468.591     1930.857     77.68732     155.4987     311.2453      1.780     5.67     830.3638     54.88933     126.6255        11     1.194     0.759  54.43   0
       628    381.2084     20.3280 307.7799249  +6.6798846     788.0574     1004.496     821.1301     77.56311     155.3126     311.3072      1.409     4.54     828.8272     54.88933     114.8928         7     1.014     0.576  68.50   0
       629    512.3557   1015.4402 307.6919900  +6.2736097     1104.076     1684.103     2080.573     77.81132     155.7465     311.3072      1.859     4.53     855.1578     54.88933     152.5189        13     1.026     0.912  79.00   0
       630    292.2862   1012.7271 307.7834354  +6.2673263     14040.73     22805.24     25568.68     78.18214     156.0557     311.4001      1.794     3.55     854.9827     54.88933     1993.552        67     1.698     1.562 -36.66   0
       631    672.5557     16.9981 307.6589959  +6.6910559     878.2644     1236.544     942.9062     77.43871     155.3126     311.0284      1.445     4.54     822.5763     54.88933     137.3303         8     0.783     0.748 -26.97   0
       632    416.7454   1013.8249 307.7317339  +6.2710620     883.5844     1536.459     1516.187     77.68732     155.8084     311.2143      1.806     4.88     854.2202     54.88933      155.204        11     1.222     0.904  67.57   0
       633    807.6876   1013.1184 307.5694669  +6.2844779     984.3378     1386.413     1520.486     77.81132     155.9321      311.493      1.577     4.34     852.0562     54.88933     119.9175        11     1.158     0.646  26.57   0
       634    263.7852   1011.0594 307.7953225  +6.2670546     758.8018     1147.253     971.4437     77.43871     155.7465     311.1523      1.636     5.43     855.2471     54.88933     105.6332         8     1.259     0.660  60.32   0
       635    907.8188   1007.0433 307.5281018  +6.2903387     7669.623     13336.88      14446.5     77.56311     155.6226     311.1833      1.864     3.62     851.3519     54.88933     1006.964        54     1.752     1.342  69.13   0
       636    881.3976   1003.1653 307.5392002  +6.2910547     11125.75     19296.36     21032.73     77.18932     155.5607     311.1833      1.872     3.55     851.6418     54.88933     1388.577        58     1.684     1.423  57.00   0
       637   1003.2404   1002.6549 307.4886347  +6.2953426     4152.729     7334.586     7640.842     77.93512     155.8084     311.4001      1.893     4.02     848.5952     54.88933     507.0538        37     1.614     1.204  58.35   0
       638    594.3046   1003.7931 307.6583619  +6.2811693     1184.843     1690.832     2142.359     77.81132     155.4367     311.2143      1.531     3.81     854.9397     54.88933     182.8518        10     0.940     0.775  50.96   0
       639    721.7340     28.3612 307.6381826  +6.6880171     1973.894      2834.89     2938.609     77.93512     155.6846      311.493      1.490     4.45     822.8976     54.88933     295.4713        16     1.329     0.768  54.38   0
       640    525.6788   1002.4167 307.6868966  +6.2794323     4096.326     6581.709     7233.989     77.68732     155.4987     311.3072      1.788     3.27        854.9     54.88933     552.3181        35     1.618     1.131  32.63   0
       641    635.4460   1001.8774 307.6413471  +6.2833410     1282.124     1798.074     1520.613     77.93512     155.8084     311.4001      1.594     3.81     854.8661     54.88933     153.8876        14     1.164     0.794  55.63   0
       642     60.6192   1001.2551 307.8799876  +6.2642505     775.0464     1378.049     1696.741     77.56311     155.7465     311.2143      1.944     5.36     850.7997     54.88933     120.4965         9     1.124     0.721  78.40   0
       643    478.7849    998.9019 307.7064816  +6.2793069     2033.233     3218.478      3069.86     78.05873     155.4987     311.1833      1.640     4.45     854.8182     54.88933     261.5571        19     1.363     0.925  49.97   0
       644    913.1337    990.7347 307.5264410  +6.2972475      38865.3      65752.7     72046.95     78.05873     155.7465     311.4311      1.859     3.56       850.86     54.88933     5156.048        87     1.793     1.436  57.82   0
       645    220.4323    988.9998 307.8140617  +6.2746980     1601.409     2098.205     2157.448     77.31411     155.5607     311.1523      1.493     3.39     854.3456     54.88933     204.9894        17     1.154     0.913  67.47   0
       646    108.4173    988.4735 307.8605777  +6.2711383     801.9896     994.1519     660.6713     77.56312     155.6226     311.2762      1.350     3.79     851.3299     54.88933     115.2015         7     0.890     0.639 -72.30   0
       647    619.8132    987.4293 307.6483216  +6.2887792     720.8141     1049.573      531.407     77.56311     155.4987     311.3072      1.311     4.17     854.5504     54.88933     124.1167         9     1.059     0.628  65.38   0
       648    759.3349    982.5034 307.5905656  +6.2954927     6376.634     10220.65     11679.98     78.05873     155.8702     311.4311      1.844     3.38     852.1473     54.88933     790.8839        42     1.615     1.257  76.74   0
       649    811.0889    984.5436 307.5690119  +6.2963852     2293.893     3583.987     4117.075     78.05873     155.6226     311.5239      1.734     4.04     851.8844     54.88933     325.2705        21     1.330     1.017  67.80   0
