#   1 NUMBER                 Running object number                                     
#   2 X_IMAGE                Object position along x                                    [pixel]
#   3 Y_IMAGE                Object position along y                                    [pixel]
#   4 ALPHA_J2000            Right ascension of barycenter (J2000)                      [deg]
#   5 DELTA_J2000            Declination of barycenter (J2000)                          [deg]
#   6 FLUX_APER              Flux vector within fixed circular aperture(s)              [count]
#   9 FLUXERR_APER           RMS error vector for aperture flux(es)                     [count]
#  12 FLUX_RADIUS            Fraction-of-light radii                                    [pixel]
#  13 FWHM_IMAGE             FWHM assuming a gaussian core                              [pixel]
#  14 BACKGROUND             Background at centroid position                            [count]
#  15 THRESHOLD              Detection threshold above background                       [count]
#  16 FLUX_MAX               Peak flux above background                                 [count]
#  17 ISOAREA_IMAGE          Isophotal area above Analysis threshold                    [pixel**2]
#  18 A_IMAGE                Profile RMS along major axis                               [pixel]
#  19 B_IMAGE                Profile RMS along minor axis                               [pixel]
#  20 THETA_IMAGE            Position angle (CCW/x)                                     [deg]
#  21 FLAGS                  Extraction flags                                          
         1    178.1761     16.2986 307.8653334  +6.6681814     6211.533     14414.17     17132.55     90.10088     179.2042     358.6584      2.480     6.07     1142.363     63.25712     666.7556        62     2.169     1.565 -23.82   0
         2    522.7718     14.3877 307.7221211  +6.6804941     1611.829     3811.041     4576.427     89.38749     179.2756     358.7655      2.556     8.64     1117.481     63.25712     185.6202        32     2.102     1.196 -28.97   0
         3    923.6121     13.9129 307.5554654  +6.6940427     2874.792     5948.736      6575.27     89.53062     179.2042     358.7298      2.118     5.84     1105.954     63.25712     338.9572        29     1.759     1.056 -22.97   0
         4    724.3357     12.4850 307.6383752  +6.6880011      1116.52     2259.162     2247.825     90.10088     179.6324     358.9082      2.107     7.69     1111.482     63.25712     135.9142        17     1.601     1.034 -58.02   0
         5    461.0372     11.9969 307.7478713  +6.6794198     904.3389     2134.273     2388.953      88.9567     179.2042     358.6584      2.401     7.74      1119.94     63.25712      163.178         9     1.548     1.081 -14.46   2
         6    988.3224     10.1225 307.5286860  +6.6977581     1588.081     3020.979     3219.239     90.24289     179.7749     358.9796      2.091     5.30     1097.149     63.25712     182.5552        23     1.424     1.203 -28.98   0
         7    707.8494      6.7052 307.6454264  +6.6898383     4546.151     10127.45     11591.17     89.81621      179.347     347.7462      2.333     5.99     1111.855     63.25712     473.9429        50     2.067     1.385 -22.38  16
         8    628.1111      5.9004 307.6786094  +6.6875129     2062.393     4964.867      5550.94     89.95866     179.9885     339.3979      2.398     7.92     1113.282     63.25712     227.8992        37     2.018     1.324 -15.81  16
         9    428.0332      2.7743 307.7619078  +6.6821251     3506.597     7284.189     7986.729     89.38748     164.2932      295.383      2.161     6.56     1123.847     63.25712     397.2468        37     1.996     1.219 -19.41  24
        10     29.1088      2.5344 307.9277805  +6.6688666     5266.932     9539.205     10517.74     89.81621     161.6216     291.4994      1.966     5.65     1145.055     63.25712     601.7668        38     2.000     1.115 -16.05  24
        11    295.0873    996.8467 307.7833512  +6.2672316     11379.04     21908.72     25544.27     89.95866      179.347     358.8725      2.174     5.09     1178.791     63.25712     1438.228        61     2.222     1.208 -26.44   0
        12    716.6330   1022.6338 307.6073394  +6.2706461     6044.427     10088.61     11302.74      88.9567     158.8245     288.4525      1.825     5.59     1171.036     63.25712     785.0032        32     1.841     0.921 -19.06  26
        13    708.6977   1022.0265 307.6106569  +6.2706327     1265.085     2166.953     2621.553     90.10088     166.9221     298.6594      1.951     5.52     1171.126     63.25712     170.1278        14     1.372     0.743  -6.26  19
        14    584.9330   1023.7516 307.6620184  +6.2657975     6343.852     9561.358     11010.28       76.914     141.2434     268.5442      1.470     4.77     1176.855     63.25712      1798.52        24     2.023     0.503   2.09  24
        15    572.6693   1021.8099 307.6671794  +6.2661905     3281.505     5998.353     6523.306     89.38749     169.5102     302.2817      1.915     5.13     1176.568     63.25712     418.4541        31     1.785     1.062 -19.68  24
        16    431.5465   1022.7427 307.7257785  +6.2610975     3122.328     5183.628     6307.488     89.10052     157.6105     286.9392      1.867     5.28     1175.874     63.25712     391.6222        29     1.881     0.912 -13.22  24
        17    419.6202    997.1326 307.7316032  +6.2712738     912.4949     1620.553     1288.099     89.53062     179.4898     358.8012      1.800     4.05     1175.562     63.25712     145.9139         6     0.930     0.570 -27.92   0
        18    910.7209    990.8553 307.5277751  +6.2902228     7704.025        13211     14503.44     90.10088     179.4898     358.9082      1.811     4.96     1165.991     63.25712     1147.728        39     1.930     0.961 -20.52   0
        19    541.9537    990.2859 307.6810101  +6.2781828     6588.388     12108.45     13243.96     89.95866     179.4184     358.8725      1.966     4.85     1174.991     63.25712     792.9391        38     1.818     1.103 -23.19   0
        20    884.2889    987.0344 307.5388865  +6.2909221     10815.93     19066.13     20834.97     90.10088     179.4184     358.8725      1.905     5.09     1166.696     63.25712     1437.207        46     1.981     1.005 -22.98   0
        21   1005.7994    986.5193 307.4884174  +6.2951708     4501.837      7408.52     7813.654     89.10052     178.8466      358.587      1.747     5.02     1160.882     63.25712     658.0105        30     1.775     0.887 -28.30   0
        22    597.0136    987.3609 307.6582334  +6.2812261     1248.071     2281.466      2565.39     89.38748     179.2756      358.587      1.847     4.88     1174.702     63.25712      199.772        17     1.303     1.077 -28.73   0
        23    528.1234    986.2791 307.6868921  +6.2793760     3227.609     6105.609     6811.593     90.24289     179.7749     358.9796      1.971     5.06     1174.943     63.25712      383.799        31     1.782     1.047 -26.66   0
        24    638.0201    985.2439 307.6412678  +6.2834667     1095.948      1964.49     2230.705     89.38748      179.347     358.6941      1.972     5.48     1172.602     63.25712     178.5245        14     1.626     0.742 -27.10   0
        25    481.8572    982.4479 307.7062445  +6.2794145     1662.035     3177.103     3344.217     89.95866     179.4898     359.0152      2.094     7.41     1175.132     63.25712     209.1539        25     1.903     1.047 -25.19   0
        26    916.0402    974.5596 307.5261159  +6.2971282     38021.54     66358.17     71482.93     89.67352     179.6324     358.7298      1.877     5.10     1164.717     63.25712     5290.772        67     1.954     1.073 -25.38   0
        27    223.4427    973.2378 307.8139196  +6.2745838     1374.116     2555.388     2265.685     89.67353     179.4898     358.7298      1.911     5.33     1178.035     63.25712     187.7401        15     1.192     1.066   4.93   0
        28    621.6093    971.4988 307.6485522  +6.2885954      778.061     1140.553      1289.25     89.67353     179.0612     358.6584      1.441     4.21     1172.783     63.25712     111.2925         6     1.082     0.467  10.49   0
        29    813.8361    968.3413 307.5687913  +6.2962985     1850.418     3203.994     3330.124     89.95866     179.4898     358.8725      1.848     5.27     1167.666     63.25712     249.6177        18     1.746     0.725 -22.15   0
        30    762.2220    966.2265 307.5903081  +6.2954546     5488.775     9883.154     11173.88     89.38748     179.2756     358.8012      1.910     4.64     1168.103     63.25712     789.3163        38     1.866     1.045 -19.12   0
        31    231.6791    965.4745 307.8107619  +6.2780648     1058.873     2014.964     1964.546     90.24289     179.7749     358.9439      1.996     6.31     1177.733     63.25712      137.472        11     1.462     0.764  -8.34   0
        32     56.5356    963.5844 307.8835905  +6.2729817     2215.445      4115.71     4055.463     89.38749      179.347     358.7298      1.978     5.64     1177.996     63.25712     284.3041        31     1.935     1.114 -21.97   0
        33    950.3387    961.3043 307.5123129  +6.3037409     6158.192     10234.28     10595.22     89.67353     179.5611     358.9439      1.785     4.97     1162.516     63.25712     862.5837        33     1.871     0.881 -27.07   0
        34    924.1036    952.9348 307.5234965  +6.3063254     1765.473     3042.039     3154.938     89.95866     179.6324     358.9082      1.767     5.34     1162.912     63.25712     245.8721        21     1.715     0.849 -28.72   0
        35    644.8389    949.0903 307.6396602  +6.2986220     3622.928     6377.707     6480.387     89.95866     179.4184     358.9082      1.873     4.79     1170.258     63.25712     480.5502        29     1.704     0.997 -26.47   0
        36    257.2101    949.1898 307.8007088  +6.2856426     3266.717     6212.867     6958.425     89.53062     179.2756     358.8012      2.084     5.20     1177.112     63.25712     408.2236        37     1.917     1.152 -21.08   0
        37    782.9827    949.6644 307.5822428  +6.3029841     1012.393     1481.456     1308.932     89.38748     179.4184     358.6941      1.458     3.11     1167.351     63.25712     157.6869         7     0.744     0.648 -10.86   0
        38     25.8240    947.1357 307.8969105  +6.2787440      1551.49     3371.544     3880.468     89.53062     179.4898     358.7655      2.272     7.56     1177.546     63.25712     186.7333        26     1.924     1.075 -25.22   0
        39    466.2319    947.8064 307.7139125  +6.2931967     895.0549     1432.229     1542.152     89.24412     179.2756     358.6227      1.739     5.12     1174.245     63.25712      148.764         9     0.978     0.862  88.11   0
        40    876.1011    945.7525 307.5436844  +6.3076959     713.3195     1022.437     1427.285     89.95866      179.347     359.0865      1.415     5.34     1164.258     63.25712     119.2273         9     1.314     0.612 -34.57   0
        41    946.6132    942.6409 307.5144916  +6.3113236     632.8096     1235.325     1158.454     89.38749     179.2756      358.587      1.608     3.72      1161.61     63.25712     126.1523         5     1.294     0.308 -44.87   0
        42   1000.7687    941.2398 307.4920369  +6.3137005     658.8445      1526.21     2103.651     89.53062     179.2756     358.6941      3.453     5.33     1160.304     63.25712     123.3455         8     1.725     0.465 -38.67   0
        43    569.0881    941.3707 307.6713957  +6.2992850     1274.487     2532.427     2547.424     90.10088     179.2042     358.7298      2.003     5.93     1172.518     63.25712       165.33        17     1.723     0.802 -24.64   0
        44     57.0417    938.6385 307.8842307  +6.2832986     550.2132     1330.301     1626.453     89.67352     179.4898     358.7298      2.488     4.80     1177.067     63.25712     86.88721         5     1.362     0.480   1.27   0
        45    607.4579    937.6514 307.6555795  +6.3020997     812.5428       1482.4     1459.083     89.95866     179.4898     358.8725      1.755     2.54     1171.334     63.25712     189.1213         5     0.907     0.412  15.09   2
        46    288.5901    935.4084 307.7881402  +6.2923821     1232.893     2410.041     2958.402     89.38749     179.2756     358.7655      2.130     5.03     1176.583     63.25712     209.4827        12     1.225     1.022  19.94   0
        47    755.5457    931.7310 307.5942500  +6.3094761     738.3523     1113.562     782.8222     89.95866     179.4184     358.7655      1.611     4.61     1166.642     63.25712     101.4856         7     0.914     0.659 -19.77   0
        48    892.9924    928.2297 307.5372586  +6.3154927     6151.653     10530.85     11102.75     89.38749     179.2756     358.6227      1.814     4.83     1162.415     63.25712     827.7697        39     1.883     1.026 -25.32   0
        49    429.1140    925.5247 307.7300912  +6.3011579     1529.947     2950.403     2894.108     90.10088     179.8461     358.9439      1.896     7.04     1174.815     63.25712     203.9354        24     1.846     0.913 -24.54   0
        50    330.6800    923.9247 307.7710433  +6.2985306     6996.552     13557.03     15221.41     90.24289     179.7749     359.0152      2.123     4.97     1176.039     63.25712      877.161        50     2.039     1.236 -23.35   0
        51    250.7640    923.0059 307.8042779  +6.2962383     5194.137     10354.58     11002.98      88.9567     179.2042     358.6227      2.098     4.92     1176.319     63.25712     668.4418        44     1.911     1.232 -25.48   0
        52    577.7001    916.7030 307.6686541  +6.3097576     753.1564     1381.796     1516.462     89.95866     180.0596     358.6941      1.945     4.23     1171.192     63.25712     127.6829         6     1.295     0.394  38.35   0
        53    908.7280    913.4401 307.5312203  +6.3221225     985.2695      1875.36     2458.526     89.81621     179.4898     358.9439      2.374     6.42     1161.053     63.25712     129.4583        11     1.607     0.721 -20.37   0
        54    864.1528    911.8036 307.5497973  +6.3213167     749.5694     1104.502     368.5665     89.24412     179.2042     358.4798      1.628     5.71     1162.651     63.25712     123.6786         7     1.139     0.807   7.71   0
        55    745.2081    906.2686 307.5994075  +6.3196458     1262.438     2205.205     2631.302     89.38749     179.2042     358.7655      1.834     5.01     1165.324     63.25712     197.4138        16     1.603     0.657 -22.40   0
        56    530.1833    902.4802 307.6888799  +6.3140458     891.6643     1963.167     2568.474     89.53062     179.1327     358.6941      2.310     5.13     1172.008     63.25712     130.9521        10     1.333     0.559 -25.66   0
        57    976.5537    901.7248 307.5034335  +6.3292129     982.0355     1505.495     2291.245     89.81621     179.5611     358.8725      1.846     5.35     1158.935     63.25712     155.1884         9     1.266     0.639 -27.07   0
        58    609.0413    902.3958 307.6561171  +6.3167098     714.6927     1238.087     740.1937     89.10052     179.1327     358.6227      1.920     4.45       1169.5     63.25712     125.6083         6     1.278     0.441 -10.17   0
        59    663.4929    899.7911 307.6335804  +6.3195996     2055.875     3609.878     4269.721     89.53062     179.0612     358.6584      1.949     6.62     1167.582     63.25712     301.6694        26     1.996     0.929 -22.62   0
        60    955.1064    897.0106 307.5125046  +6.3304472     616.5375     1272.572     2120.022     89.53062     179.0612     358.6227      2.432     4.43     1159.079     63.25712      107.776         6     1.369     0.409 -18.15   0
        61     60.2257    896.2072 307.8843544  +6.3009248     2149.072     4235.448     4700.521     89.38748      179.347     358.6941      2.088     5.21     1176.425     63.25712     279.5261        24     1.590     0.991 -17.33   0
        62    823.8625    896.0950 307.5670699  +6.3264634     690.2256     1263.761      1288.76     89.81621     179.5611     358.9082      1.841     5.87     1163.405     63.25712     140.5344         8     1.666     0.581 -29.45   0
        63    203.9444    895.0616 307.8246816  +6.3062101     1606.414     3153.246     3731.839     90.10088     179.4898     358.8725      2.093     6.00     1176.176     63.25712      196.575        22     1.591     1.007 -25.05   0
        64     76.8470    896.2036 307.8774489  +6.3014832     1163.813     1948.337     1959.093     89.24412     179.2042     358.4799      1.710     5.64     1176.292     63.25712     170.0885        12     1.207     0.952 -12.69   2
        65     80.3564    894.6844 307.8760425  +6.3022280      685.842     1128.083     1274.499     89.95866     179.4184     358.8369      1.786     4.13     1176.255     63.25712     126.9843         5     1.135     0.430 -83.63   3
        66    941.9846    895.0342 307.5180238  +6.3308274      512.658     809.7127     1184.929     89.53062     179.2042     358.7298      1.873     3.76     1159.228     63.25712     80.51917         5     1.034     0.392 -32.01   0
        67    341.8380    891.3633 307.7675143  +6.3123481     785.4218     1203.693      1390.72     89.67352      179.347     358.6941      1.893     6.11     1175.704     63.25712     90.59314         9     1.113     0.944   6.97   0
        68    237.9223    891.4980 307.8106857  +6.3088183     680.9919      813.219     366.2706     89.53062     179.7749     358.8725      1.377     4.59     1176.297     63.25712     104.7634         5     0.994     0.602 -78.92   0
        69    658.3638    888.9016 307.6360807  +6.3239251     5267.723     9757.661     10005.25     89.95866      179.347     359.0865      1.960     4.90     1167.395     63.25712     716.1493        38     1.896     1.073 -26.43   0
        70     32.3285    886.2902 307.8962830  +6.3040845      827.118     1471.517     1245.659     89.81621     179.7749     358.8725      2.188     5.34     1176.627     63.25712     115.9637         7     1.138     0.706 -45.62   0
        71     18.5431    886.9341 307.9019885  +6.3033565     915.7032     1771.826     1411.407     90.10088     179.4184     358.8725      1.875     6.17     1176.758     63.25712     134.7024         9     1.456     0.736  -4.39   0
        72    896.0230    884.9879 307.5374615  +6.3334486     2451.506     4383.145     4418.333     89.53062     179.2756     358.7655      1.894     5.08     1160.092     63.25712     361.8445        24     1.744     0.862 -24.13   0
        73    341.3536    882.1873 307.7680276  +6.3161207      11429.7     22889.27      26358.6     89.24413     179.2756     358.6227      2.195     5.06     1175.647     63.25712     1418.044        60     2.082     1.316 -23.02   0
        74     76.3316    882.9262 307.8781155  +6.3069480     1036.682     2173.434     2379.807     90.10088     179.6324     358.8369      2.177     7.64     1176.145     63.25712     143.1869        18     1.916     0.852 -17.37   0
        75    212.0490    881.5571 307.8217740  +6.3120573     920.0347     1688.213      1401.34     89.95866     179.4184     358.8012      1.865     6.51     1176.189     63.25712     131.4351        10     1.352     0.924  15.32   0
        76    104.7390    872.9542 307.8666527  +6.3120170     1259.779     2585.381     3025.413     89.81621      179.347     358.9439      2.409     7.00     1175.745     63.25712     170.0964        18     1.499     0.976 -27.72   0
        77    418.8914    872.9482 307.7361247  +6.3225256     729.1873     1269.212     1707.619     89.81621     179.2756     359.0509      1.969     4.17     1172.846     63.25712      121.201         6     1.214     0.409 -37.19   0
        78    820.5828    865.8476 307.5694563  +6.3388439     2331.902     4555.862     5223.658     89.38749     179.4184     358.6227      2.113     5.72     1161.715     63.25712     302.8712        29     1.819     1.174 -32.89   0
        79    886.1487    866.7786 307.5421803  +6.3406393     1627.371     2745.306      2861.52     89.38748     179.5611     358.7298      1.712     5.69      1159.47     63.25712     250.4304        18     1.694     0.735 -25.75   0
        80     88.3332    866.3256 307.8736950  +6.3142043     1775.123      3412.82     4108.671     90.10088     179.6324     358.8369      2.224     5.12     1175.767     63.25712     226.2372        26     1.633     1.084 -17.43   0
        81    856.9592    866.1844 307.5543295  +6.3399144       1667.5     2748.641     2919.572     89.38749     179.2756     358.6227      1.804     6.19     1160.352     63.25712     196.5731        18     1.560     0.813 -14.67   0
        82    556.4293    857.3241 307.6795067  +6.3335663     242193.6     470802.9     525438.9     89.81621     179.5611     358.9082      2.118     4.96      1169.55     63.25712     28444.12       163     2.185     1.449 -24.59   0
        83    400.7382    859.9749 307.7441082  +6.3272761     5506.438     10963.83     12479.57     89.53062     179.4184     358.8012      2.149     4.96     1172.977     63.25712     661.3617        46     1.961     1.241 -25.98   0
        84    343.9211    858.4139 307.7677691  +6.3260226     8697.355     17461.93     19690.55     89.53062     179.2042     358.6584      2.150     5.02     1175.123     63.25712     996.4698        53     1.987     1.335 -25.19   0
        85    643.8152    860.0615 307.6431034  +6.3353488     942.4139     1801.448     1740.386     89.38748     179.4184     358.6584      1.922     5.14     1166.628     63.25712     120.7067        10     0.956     0.782   1.80   0
        86    894.5907    853.4187 307.5391242  +6.3464364      4529.66     8072.461     9389.065     89.67353     179.1327     358.6941      1.989     5.29     1158.423     63.25712      545.964        33     1.906     0.952 -25.16   0
        87    662.1351    854.6207 307.6356755  +6.3382056     2554.598     5045.104     4729.969     89.53062     179.4898     358.7298      2.046     5.09     1165.825     63.25712     309.1821        29     1.693     1.072 -18.84   0
        88    636.9220    848.5621 307.6463575  +6.3398673     2655.804     4887.847     5379.506     89.81621     179.5611     358.8725      1.922     5.46     1166.001     63.25712     285.6599        28     1.762     1.017 -25.90   0
        89    825.1242    847.6922 307.5681836  +6.3464915     1111.697     1890.763     1907.023     89.81621     179.6324     358.8725      1.866     5.91      1160.64     63.25712     164.6085        13     1.699     0.579 -22.25   0
        90    629.7982    843.1027 307.6495027  +6.3418842     1476.334     3208.032     4508.583     89.38748     179.2042     358.5156      2.705     5.89     1165.719     63.25712     211.2085        21     1.771     0.896 -25.65   2
        91    952.2454    846.0964 307.5154141  +6.3513755     716.4073     1237.375     1249.394     89.95866     179.4184     359.0509      1.879     4.55     1156.371     63.25712     112.2361         6     1.249     0.471 -33.08   0
        92    913.6240    841.1915 307.5316286  +6.3521177      2620.09     4902.074     4519.386     89.53062     179.2756     358.6941      1.940     5.42      1157.24     63.25712     340.8634        26     1.813     0.919 -22.60   0
        93    372.1022    837.3418 307.7567760  +6.3356648     1839.398     3793.283     4227.806     89.67352     179.4184     359.0509      2.309     6.51     1173.057     63.25712     218.8485        28     1.765     1.172 -21.89   0
        94    508.1651    827.1285 307.7005863  +6.3444245     1967.686     3970.719     4376.808     89.81621     179.4184     358.8725      2.113     6.08     1168.704     63.25712     220.5472        29     1.786     1.096 -23.83   0
        95    852.2894    825.8916 307.5576331  +6.3563966     890.4634     1606.411     1457.823     89.95866     180.0596     358.9796      1.974     6.25     1158.267     63.25712     124.8767        12     1.515     0.724 -37.40   0
        96    555.6855    823.0186 307.6809798  +6.3477065     4000.368     8852.945     11309.66     89.53062     179.2042     358.7655      2.578     7.15     1166.846     63.25712     475.1797        56     2.882     1.212  -9.70   0
        97    472.4857    822.5793 307.7155664  +6.3451122     1068.932     2231.014     2517.702     89.67353     179.2042     358.7655      2.187     7.57     1169.424     63.25712     155.6975        17     1.700     0.944 -40.87   0
        98    890.5975    820.9752 307.5418807  +6.3597001     1186.864     2176.302     2190.578     89.53062     179.1327     358.6584      1.938     4.56      1156.73     63.25712     186.1991        13     1.306     0.853 -27.53   0
        99    114.7387    821.5355 307.8642502  +6.3335823     1025.344     2012.624     2201.753     89.95866     179.4898     358.9082      2.231     6.47     1175.024     63.25712     149.9503        12     1.377     0.852 -30.06   0
       100    525.5596    816.9899 307.6937025  +6.3491911     13385.32     27241.68     30771.67     89.24412     179.2756     358.5513      2.177     5.21     1167.443     63.25712     1587.918        64     2.062     1.363 -22.35   0
       101    939.2715    815.1788 307.5218504  +6.3637109     3119.276     5738.354     5755.458     89.53062      179.347     358.8369      1.947     5.55     1155.061     63.25712     411.2333        30     1.911     0.919 -23.87   0
       102     35.9862    807.4879 307.8974507  +6.3367438     963.4332     2002.461     2575.646     89.67352     179.2756     358.7298      2.415     6.84     1174.267     63.25712     120.1123        14     1.526     0.860  -1.10   0
       103    318.2868    805.5800 307.7802171  +6.3469810     2176.799     4561.876      4851.11     89.67353     179.2042     358.7655      2.222     5.19     1173.394     63.25712     258.0172        32     1.722     1.225 -23.25   0
       104    783.7017    801.4645 307.5869610  +6.3642016      41721.5     78031.59     85614.83     89.95866     179.5611     358.9082      2.028     4.99     1160.068     63.25712     4702.625        76     2.075     1.234 -24.37   0
       105     18.1101    803.8809 307.9050012  +6.3376338     1546.728     3029.219     2998.466     89.67352     179.7037     358.9796      2.036     6.32     1173.966     63.25712      230.724        22     1.837     0.922 -17.41   0
       106    240.5334    778.0544 307.8134619  +6.3557462     775841.1      2316072      2817428     89.95866     179.4184     358.8369      2.750     8.46     1173.633     63.25712     63529.17       612     2.756     2.334 -43.51   4
       107    908.8918    796.6628 307.5351007  +6.3703471     6895.435     12563.88     13655.57     89.95866     179.6324     358.9439      1.979     5.18     1155.023     63.25712     939.9019        43     1.978     1.053 -25.51   0
       108    711.7589    796.1423 307.6170368  +6.3640047     15593.78     30600.89     34819.19     89.95866     179.4898     358.9082      2.136     5.14     1161.281     63.25712     1847.428        55     2.090     1.195 -24.83   3
       109    705.6334    792.6011 307.6197022  +6.3652629     63959.18       125592     140423.6     89.10052     179.2756      358.587      2.109     5.07     1161.059     63.25712     6985.341        91     2.136     1.336 -24.51   3
       110    350.6263    793.5731 307.7671876  +6.3530195     13664.62     28694.22     32634.79     89.38749     179.2756     358.6941      2.265     5.19       1171.6     63.25712     1489.676        70     2.164     1.432 -25.07   0
       111    412.4582    791.3923 307.7415688  +6.3559854     14748.74      30779.3     35935.86     89.24413      179.347     358.6227      2.237     5.31     1169.235     63.25712     1747.113        66     2.164     1.360 -25.01   0
       112    400.3864    793.4493 307.7465151  +6.3547330     993.3644     1567.358      1963.85     89.24413     179.4184     358.5513      1.612     5.06     1169.745     63.25712     128.5657        11     1.209     0.762 -66.30   0
       113    949.4252    790.2365 307.5184741  +6.3743473      1719.43     3441.594     3317.453     89.53062     179.2756      358.587      1.940     5.51     1153.411     63.25712     205.3542        21     1.616     0.955 -22.96   0
       114    905.9213    788.0941 307.5366249  +6.3737865     5501.135     9893.596     10800.96     89.67352     179.7037     358.9082      1.939     5.11     1154.679     63.25712     689.8571        39     1.884     1.048 -25.22   0
       115    646.4592    787.3219 307.6444707  +6.3654717     4470.918     9063.794     10418.55     90.10088     179.4898     358.8012      2.233     5.68     1161.522     63.25712     530.4495        42     1.989     1.205 -27.39   0
       116    434.9189    785.4140 307.7324388  +6.3592039     1171.175     2181.621     2201.787     89.53062     179.2042     358.6584      1.942     6.69     1168.306     63.25712     137.6699        20     1.565     1.140 -29.33   0
       117    681.5585    777.3578 307.6302231  +6.3707553     1715.712     3188.751     3514.997     89.67353     179.4898     358.7298      2.060     6.27     1160.177     63.25712     204.0981        25     1.797     0.978 -29.96   0
       118    150.2389    778.1307 307.8509785  +6.3526927     645.1699     1431.222     1559.405     89.81621     179.4898     358.9796      2.149     5.58     1174.049     63.25712     96.92017         6     1.336     0.656 -43.02   0
       119    874.6378    778.3878 307.5499533  +6.3767546     660.1091     955.6265      747.259     89.38749     179.2756     358.5513      1.470     4.47     1154.989     63.25712     112.6602         6     1.223     0.465 -27.21   0
       120    415.3270    774.0856 307.7409648  +6.3632273     35145.23     73344.33     84090.38     90.10088     179.8461     358.8725      2.277     5.28     1168.547     63.25712     3933.492        91     2.212     1.475 -21.96   0
       121    125.6281    777.8110 307.8612156  +6.3520006     660.2378     1309.944     903.6116     89.53062     179.2756     358.6941      1.705     3.46     1174.049     63.25712     96.74939         5     1.239     0.279 -34.82   0
       122    957.6442    775.8026 307.5155465  +6.3805803     725.1713     1114.946      309.541     89.24413     178.9897     358.4799      1.747     4.13      1152.63     63.25712     107.6974         6     1.079     0.636 -10.86   0
       123    533.0599    773.1096 307.6920753  +6.3675597     4823.027     9736.336     10906.25     89.81621     179.4898     358.9439      2.178     4.96     1163.841     63.25712     598.8889        47     2.008     1.263 -30.46   0
       124    449.9540    771.6175 307.7266599  +6.3654025     2846.219     6390.065     8302.254     89.38748      179.347      358.587      2.461     6.22     1167.197     63.25712     321.3036        40     2.023     1.251 -21.46   0
       125    778.2271    769.6235 307.5903141  +6.3771671     8421.896     16180.74     17728.61     89.38749      179.347     358.7298      2.048     5.02     1157.276     63.25712     966.8915        48     1.987     1.178 -22.46   0
       126    446.2244    765.4592 307.7284189  +6.3678208     1555.091     3212.154     4269.322     89.53062     179.4898     358.6941      2.426     6.71      1167.01     63.25712     210.0936        24     1.919     0.942 -30.33   0
       127      7.6561    765.9000 307.9106406  +6.3529652      798.139     1629.021     1338.986     89.67352     179.4898     355.4668      2.016     6.91     1173.781     63.25712     102.4043        12     1.581     0.846 -43.67  16
       128    799.8194    763.9662 307.5815328  +6.3802214     969.0839     2000.979     2345.384     89.38749     179.2756     358.6584      2.217     6.80     1156.385     63.25712     124.7568        16     1.709     0.758 -26.18   0
       129    128.5043    759.2873 307.8606517  +6.3597452     2001.365     4379.007     5533.751     89.95866     179.9173     358.9439      2.448     6.01     1173.482     63.25712     227.5408        32     1.870     1.182 -21.92   3
       130    136.2413    761.7281 307.8573536  +6.3589966     7599.605     16203.66     19643.04     89.81621     179.4898     358.9439      2.381     5.53     1173.572     63.25712     889.6997        60     2.193     1.431 -18.14   3
       131    144.3298    762.1242 307.8539792  +6.3591038     1989.653     4094.824     4968.231     90.24289     179.6324     358.8725      2.356     5.89     1173.572     63.25712      240.338        26     1.734     1.105 -33.72   3
       132    972.4528    758.3260 307.5099833  +6.3882885     1247.905     2163.069     2285.328     89.95866     179.5611     358.9082      1.983     6.16     1151.822     63.25712      183.485        15     1.725     0.713 -34.01   0
       133    923.8242    758.0969 307.5301995  +6.3867678     5153.006     9382.566     10202.17     90.10088     179.2042     358.7298      1.960     5.23     1152.819     63.25712     634.7892        36     1.929     1.016 -26.02   0
       134    678.8293    756.1438 307.6320762  +6.3794239     1057.375     2180.551      2440.24     89.67352     179.5611     358.7655      2.122     8.14      1158.78     63.25712     130.3152        18     1.569     1.180   4.46   0
       135    566.1585    755.3225 307.6789249  +6.3760080     1537.143     3331.392       3841.2     89.81621     179.4898     358.9439      2.268     5.73     1161.428     63.25712     173.7184        25     1.425     1.326  26.45   0
       136    414.2452    755.3862 307.7420498  +6.3709122     720.2658      1256.06      1154.07     89.24413     179.2756     358.6227      1.987     5.21     1167.916     63.25712     76.48218         8     1.105     0.693 -36.41   0
       137    128.6416    752.5894 307.8608229  +6.3625153      1253.74     2546.388     2795.823     89.24413     179.2756      358.587      2.231     7.04     1173.303     63.25712     147.1023        19     1.527     1.064 -39.39   1
       138    947.4932    749.6074 307.5206504  +6.3910595     2434.593     4371.125     4696.745     89.53062     179.1327     358.6584      1.940     5.26     1152.029     63.25712     313.9191        26     1.773     0.957 -24.03   0
       139    918.0518    750.2678 307.5328630  +6.3898087      2274.73     4270.612     4639.847     89.81621      179.347     358.8369      1.989     4.96     1152.605     63.25712     317.0216        27     1.670     1.018 -16.06   0
       140    978.3483    749.3167 307.5078378  +6.3922044     1514.233     2948.235     3091.891     89.95866     179.4184     358.9796      2.096     6.82     1151.557     63.25712     212.7931        21     1.773     0.924 -24.14   0
       141    670.1716    749.3651 307.6359038  +6.3819345     985.9141     1967.874      2417.71     89.53062     179.2042     358.6584      2.377     6.45     1158.653     63.25712     133.1349        13     1.355     1.025 -22.39   0
       142    816.0410    748.3986 307.5753187  +6.3871891      730.586     1265.355     1287.229     89.24412     179.2042     358.5156      1.800     5.85     1154.785     63.25712      122.741         7     1.319     0.732 -87.57   0
       143    243.0660    744.5344 307.8135505  +6.3696712     1187.737     2487.661     3594.799     89.95866     179.4898     358.9082      2.774     8.37     1172.769     63.25712     134.9834        22     1.774     1.103 -35.48   0
       144    935.5779    739.7192 307.5259364  +6.3947467     908.6517     1465.509     1605.104     89.53062     179.1327     358.8012      1.780     4.48     1151.752     63.25712     134.5834         8     1.115     0.511 -22.94   0
       145    962.5073    737.5083 307.5148199  +6.3965542      2022.99     3343.369     3588.633     89.95866     180.0596     358.8725      1.834     5.55     1151.482     63.25712     234.2144        23     1.713     0.860 -27.05   0
       146    910.0657    737.9415 307.5365987  +6.3946330      754.202     1480.852     1412.862     90.10088     179.4184     358.9082      2.020     5.50     1152.276     63.25712     139.7317         9     1.649     0.516  -8.19   0
       147    681.9269    736.9110 307.6314408  +6.3874685     625.2349     1277.391     1387.499     89.95866     179.7749     358.9082      2.046     6.64     1157.275     63.25712     94.07385         8     1.911     0.647 -32.22   0
       148   1004.2433    730.6828 307.4977061  +6.4007585     1476.432         2524     2304.901     89.95866     179.4898     358.8369      1.825     7.11     1150.751     63.25712     174.1843        18     1.558     0.908 -22.59   0
       149    805.1350    729.1801 307.5805014  +6.3947619     895.0031     1357.316     1419.478     89.53062     179.4898     358.6941      1.642     6.68     1153.579     63.25712     129.8683        12     1.522     0.823 -21.86   0
       150    891.5712    726.6854 307.5446652  +6.3986662     1109.246     2184.317     2647.236     90.10088     179.1327     358.6941      2.292     6.27     1151.919     63.25712     145.4789        14     1.588     0.697 -16.49   0
       151    866.4191    721.7457 307.5552850  +6.3998698     833.6456      1505.09     1656.917     89.38749     179.4898     358.6584      1.776     5.68     1152.183     63.25712     122.8507         9     1.453     0.625  -5.19   0
       152    848.5612    718.0538 307.5628312  +6.4008004      1117.89     1866.266     1823.916     89.95866     179.5611     358.8725      1.954     5.03     1152.133     63.25712     172.5519        12     1.397     0.864 -22.25   0
       153     47.9015    717.4193 307.8955716  +6.3743316     1489.529     3329.237     3356.398     89.95866      179.347      358.587      2.276     6.62     1172.455     63.25712     194.0151        25     1.663     1.250 -21.07   0
       154    660.3192    705.4674 307.6414862  +6.3997321     4375.032     8866.464     10025.63     90.10088     179.7749     358.9082      2.209     5.37     1155.901     63.25712     521.6473        39     1.971     1.165 -27.75   0
       155    607.0811    705.1940 307.6636197  +6.3980708     1000.663     1934.551     2463.544     89.53062     178.9897     358.6227      2.369     6.27     1157.532     63.25712     137.8058        11     1.235     0.896 -17.91   0
       156    123.4940    701.6679 307.8646972  +6.3833681     2395.065     4864.587     5460.296     89.81621     179.7037     358.9082      2.185     5.16     1171.381     63.25712     272.3823        35     1.752     1.253 -32.66   0
       157    634.3652    701.4828 307.6524071  +6.4005125     1401.825     3236.861     4383.297     89.95866     179.4898     358.8012      2.650     7.02     1156.421     63.25712     163.7539        24     1.789     1.009 -26.48   0
       158    997.1758    700.5716 307.5016606  +6.4129573     1987.643     3683.895     3832.058     89.38749      179.347     358.6941      1.978     5.76     1148.513     63.25712     263.5695        23     1.793     0.870 -17.79   0
       159    777.2723    697.5747 307.5931506  +6.4068851     14316.11     28585.72     31985.99     89.53062      179.347     358.7655      2.131     5.27     1152.326     63.25712     1602.384        62     2.063     1.303 -25.50   0
       160    907.2386    697.2725 307.5391490  +6.4113320     2713.681     5364.136     6131.238     89.81621     179.4184     358.9439      2.170     6.40     1149.061     63.25712     304.5026        27     1.826     0.950 -27.91   0
       161    476.8961    697.8963 307.7179681  +6.3967417     878.8085     1853.547     2528.306     89.95866     180.2018     358.6941      2.331     6.62     1161.898     63.25712     120.9629        10     1.266     0.971 -47.14   0
       162    251.0312    691.3694 307.8120503  +6.3918894     3806.964     8142.571     9694.034     89.38748     179.2042      358.587      2.324     5.37     1169.011     63.25712     427.6964        43     1.966     1.301 -23.93   0
       163    657.8472    690.4360 307.6430231  +6.4058563     4530.711     9869.034     11368.52     89.53062     179.5611     358.8012      2.335     5.69     1154.908     63.25712     482.0085        49     2.073     1.354 -27.83   0
       164    917.2437    683.2116 307.5354665  +6.4174704     965.0045     1652.562     1879.895     89.38749      179.347     358.5513      1.746     4.85     1147.744     63.25712     147.7007        12     1.159     0.923 -34.48   0
       165    729.5270    679.0182 307.6136213  +6.4129581     2467.473     5386.572     5889.067     89.38748     179.4184     358.8012      2.263     5.67     1152.777     63.25712     267.5275        35     1.814     1.263 -22.31   0
       166    684.3982    679.5716 307.6323574  +6.4112268     744.1953     1518.872     1559.062     89.38749     179.2042     358.6227      2.068     5.51      1153.54     63.25712     99.18506         7     1.165     0.736 -10.80   0
       167    934.0563    676.1630 307.5287177  +6.4209395     1747.188     3512.583     3936.085     89.95866     179.4898     358.9082      2.196     5.08     1146.969     63.25712     281.4806        25     1.725     1.070 -13.54   0
       168    995.7875    675.3831 307.5030887  +6.4233119     7303.505     12913.56     13554.71     89.67353     179.1327     358.7655      1.909     5.16     1146.543     63.25712     887.8701        36     1.888     0.971 -23.87   0
       169     15.0547    675.7676 307.9106414  +6.3904279     1344.297     2934.146      3662.94     89.81621     179.4898     358.8012      2.411     7.30     1170.569     63.25712     154.0742        24     1.820     1.197 -22.46   0
       170     73.3321    670.4993 307.8866042  +6.3945567     16115.16     35115.18     40338.78     89.95866     179.6324     358.8369      2.357     5.49     1170.302     63.25712     1721.322        78     2.169     1.557 -26.33   0
       171    534.4153    671.4315 307.6949634  +6.4095885     1292.906     2862.974     2869.806     89.53062     179.2042     358.8012      2.297     7.95     1159.425     63.25712     151.4276        22     1.654     1.142 -46.54   0
       172    503.5835    668.0363 307.7078917  +6.4099617     901.3736     1887.324     1907.305     89.53062     179.2756     358.6227      2.045     5.09     1159.776     63.25712     121.6168         8     1.083     0.676 -11.59   2
       173    543.3155    665.8772 307.6914532  +6.4121787     573.1718     979.4291     733.6647     90.10088     179.8461     358.9796      1.961     4.46     1158.902     63.25712     86.42126         5     1.146     0.495 -33.15   0
       174    719.1067    662.6368 307.6185069  +6.4193752     2169.841     4620.407     5047.827     90.10088      179.347     358.9796      2.233     7.17     1152.111     63.25712     201.6213        29     1.856     1.082 -23.10   0
       175    741.0694    660.7700 307.6094427  +6.4208773     2829.925     5668.003     6176.513     89.81621     179.4898     358.8012      2.116     5.16     1151.588     63.25712     353.0654        33     1.824     1.121 -22.20   0
       176    572.7513    658.8099 307.6794601  +6.4160786     1955.066     4124.939      4381.79     89.38749     179.2756     358.5156      2.169     5.67      1156.63     63.25712     219.1488        27     1.691     1.117 -19.72   0
       177    233.8948    658.4667 307.8202916  +6.4049015     1060.442     2387.755      2993.91     89.95866     179.6324     358.8725      2.683     6.43     1167.381     63.25712      186.423        14     1.474     0.827 -59.77   0
       178    409.1689    659.1468 307.7474301  +6.4104802     840.6575     1594.096      2163.88     89.81621     179.5611     358.7655      2.244     5.45     1162.998     63.25712     131.5333         7     1.114     0.751 -11.63   0
       179   1013.9477    656.7554 307.4961708  +6.4316065     3906.749     6842.641     7127.617     89.95866     179.4898     358.8725      1.908     5.33     1145.484     63.25712     486.7848        33     1.908     0.960 -27.22  16
       180    316.1500    657.7654 307.7861330  +6.4079422     843.7518     1854.274     2238.683     89.81621     179.4898     358.7655      2.235     4.89     1165.588     63.25712     107.9078         8     1.238     0.547  18.73   0
       181    979.4778    655.6711 307.5105333  +6.4309097     6302.161     11325.49     11971.88     90.24289     179.7749     358.8369      1.965     5.18     1145.792     63.25712     833.2958        40     1.997     1.007 -24.80   0
       182    138.0527    649.4288 307.8604277  +6.4054249     14751.96     32390.59      37134.9     89.67352     179.6324     358.7655      2.338     5.54      1169.01     63.25712     1519.922        74     2.199     1.523 -24.54   0
       183    425.2213    650.2010 307.7410631  +6.4147100     1596.757     3512.635     4229.808     89.53062     179.1327     358.5513      2.387     6.99     1161.736     63.25712     193.9027        27     1.681     1.282 -27.45   0
       184    806.2226    649.6618 307.5827416  +6.4276322     1026.102     1828.125     2188.621     89.53062     179.4898     358.7655      1.865     6.27     1148.959     63.25712     146.6447        13     1.537     0.783 -41.61   0
       185    974.3037    638.6451 307.5132592  +6.4377682      5360.42      10694.9     12192.53     89.95866      179.347     359.0509      2.185     5.03     1145.171     63.25712     607.5792        45     1.875     1.302 -12.65   0
       186    567.9318    634.1046 307.6823015  +6.4261189     29528.26     64748.62     74787.95     89.81621     179.6324     358.9082      2.347     5.58     1155.134     63.25712     3139.783        87     2.215     1.518 -25.13   0
       187    175.1172    631.0510 307.8456513  +6.4142541     1771.131     3754.037      3832.21     89.95866     179.4184     358.9439      2.217     6.07     1167.767     63.25712     193.0342        27     1.580     1.286 -53.80   0
       188     68.5585    625.1051 307.8901360  +6.4131396     871.8913     1730.639     1796.136     89.95866     179.4184     359.0152      2.003     6.43       1168.7     63.25712     105.3683        11     1.203     0.964 -31.50   0
       189    465.2293    617.9792 307.7255312  +6.4293504     37176.12     84406.34     98821.37     89.38748     179.2756     358.7655      2.388     5.64     1158.863     63.25712     3926.787        95     2.252     1.584 -24.05   0
       190      8.4438    619.4890 307.9153089  +6.4134431      989.627     2278.237     2535.988     89.95866     179.4184     358.9082      2.591     7.27     1169.409     63.25712     119.8512        13     1.428     1.036  21.84  16
       191    139.6748    612.5637 307.8610100  +6.4207006     807.6471     1441.681     658.7985     89.81621     179.5611     358.9082      1.757     6.12     1167.432     63.25712     108.8029         9     1.277     0.824 -68.28   0
       192    310.9343    607.5305 307.7900097  +6.4285098     1389.698     2889.894      3450.35     89.95866     179.5611     358.8725      2.164     5.52      1161.92     63.25712     156.0902        23     1.472     1.132  -6.72   0
       193    737.2307    601.4740 307.6130471  +6.4452335     3440.496      7298.76     7986.021     89.81621     179.4898     358.9082      2.236     5.97     1147.863     63.25712     389.8643        41     1.959     1.329 -30.14   0
       194    790.7959    596.5748 307.5909506  +6.4490393     9292.023     18952.33      21171.5     89.38749     179.2042     358.6941      2.179     5.26     1146.703     63.25712     970.0331        59     2.099     1.309 -25.04   0
       195   1007.9781    597.1079 307.5006674  +6.4560378      792.916     1269.437     1150.896     89.95866     179.2756     358.6941      1.674     6.39     1141.892     63.25712     117.1909        11     1.491     0.768 -26.56   0
       196    614.8599    594.8024 307.6641317  +6.4439117     1714.232     3950.233      4464.75     89.24412     179.1327     358.5513      2.300     6.70     1150.543     63.25712     250.6019        30     1.782     1.298 -21.20   0
       197    931.5150    590.8224 307.5326597  +6.4560935     938.9311     1581.033      1766.99     89.81621     179.2042     358.8012      1.745     6.11     1143.625     63.25712     110.9249        13     1.192     0.894 -24.33   0
       198    227.1880    588.9440 307.8254461  +6.4333828      694.955     1391.441     1260.067     89.24412     179.4184     358.5156      1.801     7.92     1164.244     63.25712     97.73242        12     1.556     1.127  14.51   0
       199    866.4752    579.8627 307.5600626  +6.4584571     2018.176     4025.429     5069.912     90.24289     179.4898     358.8725      2.223     5.89     1144.505     63.25712     235.8937        27     1.782     1.045 -31.69   0
       200    825.3765    577.3104 307.5772306  +6.4581442     1825.464     3593.764      3852.83     89.95866     179.2756     358.7298      2.100     6.18     1145.432     63.25712     199.8971        27     1.713     1.196 -22.10   0
       201    806.0353    568.5491 307.5855659  +6.4611185     104311.5     215982.3     245312.8     89.81621     179.4898     358.8012      2.242     5.42     1145.767     63.25712     10995.15       157     2.558     1.473 -25.10   0
       202    253.5774    572.5024 307.8150387  +6.4410545     4420.919     10243.69     11468.47     89.95866     179.2042     358.6941      2.383     5.96     1161.635     63.25712     481.2101        53     2.055     1.555 -24.19   0
       203    187.8518    566.9464 307.8425429  +6.4411489     33773.71     77573.03     93618.65     90.10088     179.4184     358.9082      2.479     5.88     1163.588     63.25712     3640.363       103     2.325     1.665 -26.07   0
       204    111.8816    563.3877 307.8742365  +6.4400739     3734.085     8438.229     9825.262     89.53062     179.1327     358.6941      2.378     5.64     1165.344     63.25712     399.0797        47     1.977     1.438 -24.18   0
       205    842.7461    555.7485 307.5707412  +6.4676251     3006.316     5956.742      6418.78     90.10088     179.4184     358.9082      2.160     5.90     1143.749     63.25712      322.119        33     1.963     1.093 -25.58   0
       206    361.2528    554.1004 307.7709151  +6.4522531     9638.752     22364.72     26505.94     89.95866     179.4898     359.1222      2.476     6.11     1157.162     63.25712     970.8324        73     2.229     1.615 -26.67   0
       207    162.8758    553.1799 307.8533918  +6.4459967     1168.882     2728.178     3623.793     89.53062     179.2042     358.8012      2.485     5.06     1163.551     63.25712     147.7518        14     1.132     0.986  88.65   2
       208    796.4866    549.2014 307.5901898  +6.4687897     3729.609     7733.469     8586.681     89.10052     178.9897     358.5513      2.179     5.48     1145.541     63.25712     381.4263        41     1.900     1.290 -23.28   0
       209    527.6884    548.9823 307.7019164  +6.4599240     3703.088     8644.126     10440.88     89.67352     179.2042     358.7298      2.507     6.55     1151.319     63.25712     378.6655        49     2.200     1.395 -24.55   0
       210    977.2284    560.3202 307.5146912  +6.4702070     1038.211     2002.009     1950.918     89.81621     179.4184     358.8369      1.907     6.30     1139.272     63.25712      144.504        13     1.677     0.664 -26.70   0
       211    385.5768    545.9329 307.7610836  +6.4564383     916.5567     1907.198     1958.919     89.53062     179.4184     358.8012      2.086     7.26     1155.372     63.25712     113.7826        13     1.653     0.892 -68.34   0
       212    269.8534    538.6595 307.8094266  +6.4555725     48350.46     113154.1     136004.9     89.95866     179.4184     358.8725      2.496     5.95     1158.648     63.25712     4798.362       114     2.340     1.705 -25.73   0
       213    174.6287    542.2168 307.8488809  +6.4509168     3875.457     9001.437     9887.851     89.53062     179.2042     358.8012      2.384     6.03     1162.327     63.25712     393.1659        49     2.031     1.490 -23.70   0
       214     46.2571    540.9220 307.9022753  +6.4471504     3001.449     6776.355     7663.331     89.95866     179.4184     358.8369      2.390     6.38     1164.768     63.25712     357.4982        44     1.975     1.401 -25.47   0
       215    813.1646    541.5248 307.5835178  +6.4725143     984.5402     1747.838     1669.404     89.81621     179.5611     358.8725      1.957     5.53     1144.493     63.25712      127.244        11     1.113     1.012   7.28   0
       216    571.8749    542.0289 307.6837876  +6.4642691     1487.126     3583.476     4075.679     89.81621     179.4898     358.8369      2.419     9.01     1149.556     63.25712     163.1841        27     1.966     1.154 -26.00   0
       217    253.2431    533.4689 307.8165067  +6.4571600     703.3444     1851.463     1814.624     89.95866     179.4184     358.9439      2.187     3.50     1158.637     63.25712     99.95532         5     1.081     0.328 -68.86   2
       218    792.8585    530.9245 307.5923168  +6.4762157     10194.78     21571.77     25042.07     90.10088     179.5611     358.8369      2.266     5.64     1144.099     63.25712     1045.782        60     2.121     1.365 -26.69   0
       219    969.4506    531.8531 307.5188864  +6.4817031     1071.238      1810.87     1452.535     90.10088      179.347     358.9082      1.854     6.66     1137.525     63.25712     144.3137        14     1.819     0.685 -29.88   0
       220    496.5918    529.3724 307.7155068  +6.4669833     23677.61     56497.71     68467.24     89.53062     179.2756     358.6584      2.543     5.97     1151.053     63.25712     2360.903        98     2.370     1.682 -20.28   0
       221    210.0171    525.8422 307.8347313  +6.4588625      1012.78     2411.211     3034.454     89.38749     179.2756      358.587      2.340     8.09     1159.589     63.25712     117.5885        17     1.867     0.979 -22.58   2
       222     45.1658    526.4918 307.9032212  +6.4530719     792.9114     1697.708     1227.072     90.10088      179.347     358.9439      2.304     5.99     1164.216     63.25712     115.0841         7     1.312     0.771  26.13   0
       223    656.3685    524.3738 307.6492688  +6.4743756     1737.228     4143.818     4961.288     89.38749     179.2042     358.6941      2.609     6.95     1145.528     63.25712     192.9749        31     1.796     1.226 -34.68   0
       224    718.3552    523.3153 307.6235408  +6.4768775     789.0809     1601.284     1504.499     89.95866     179.4184     358.8725      2.079     7.21     1144.625     63.25712     112.0448        11     1.479     0.983  50.38   0
       225    666.7048    524.6401 307.6449637  +6.4746101     769.3586     1569.879     2476.391     89.95866     179.4184     359.0152      2.793     6.05      1145.13     63.25712     111.8782         9     1.098     0.938 -14.32   0
       226    325.7843    518.4531 307.7868688  +6.4657862     2078.525     4665.078     5249.605     89.24413     179.5611     358.5513      2.405     6.33     1155.441     63.25712     214.5499        36     1.877     1.335 -38.09   0
       227    394.3927    519.9515 307.7583030  +6.4674605     1036.873     2164.272     2015.264     89.38748     179.2756     358.4441      2.172     6.30     1153.439     63.25712     134.1608        11     1.195     0.932  13.97   0
       228    140.9724    517.0377 307.8637266  +6.4601860     14522.85     33478.98     39725.31     89.53062     179.2042     358.6941      2.431     5.80     1162.003     63.25712     1431.592        81     2.213     1.643 -27.58   0
       229    506.0731    518.1134 307.7119485  +6.4719486     1192.038     2629.695     3543.942     90.10088     179.8461     358.8725      2.582     6.62     1150.119     63.25712      137.225        19     1.690     1.004 -21.16   0
       230    868.6367    516.9020 307.5612950  +6.4845263     1116.362     2200.202     1914.458     89.95866      179.347     359.0509      2.150     7.16     1139.926     63.25712     129.1436        15     1.420     1.066  -4.95   0
       231    106.1539    515.7315 307.8782418  +6.4595588     1278.406     3164.817       3062.5     89.95866     179.4184     358.8369      2.389     8.19     1163.085     63.25712     159.1031        26     1.916     1.238 -33.09   0
       232    966.3610    511.4765 307.5208596  +6.4900143     3604.556     7037.264     7837.016     89.81621     179.4898     358.9082      2.143     5.49     1136.455     63.25712     391.2842        39     2.057     1.096 -32.38   0
       233    540.8978    504.0649 307.6979514  +6.4789113     746.9832     1586.122     1343.101     89.95866     179.5611     358.9082      2.232     6.73     1148.579     63.25712     103.9922        12     1.843     0.688 -33.19   0
       234      5.3028    501.4641 307.9206421  +6.4620687     15235.33     34010.36     39682.13     89.81621     179.6324     332.3835      2.415     5.59     1163.838     63.25712     1594.939        78     2.179     1.621 -27.33  24
       235    437.9103    498.0619 307.7409602  +6.4779524     23280.89     55277.34     65968.05     89.95866     179.6324     358.9439      2.485     6.04     1150.807     63.25712     2380.362        91     2.315     1.650 -25.05   0
       236    645.8586    497.6803 307.6545424  +6.4850474     7169.792     16242.07     19474.38     90.10088     179.5611     358.8369      2.461     5.79     1144.728     63.25712     706.0876        63     2.221     1.465 -22.34   0
       237    203.1551    495.7247 307.8386092  +6.4710682     10665.02     25363.01     30239.45     89.81621     179.5611     358.9082      2.495     5.80     1157.739     63.25712      1062.85        80     2.257     1.714 -22.32   0
       238    168.9444    496.8424 307.8527895  +6.4694613     962.8651     2161.227     2491.182     89.81621     179.4184     358.9082      2.252     8.02     1159.646     63.25712     123.6019        18     1.740     1.034 -36.99   0
       239    567.5988    494.7989 307.6871681  +6.4836280      1579.88     3604.732     4040.593     89.24413     178.9897     358.5156      2.376     8.80     1147.173     63.25712      166.379        29     1.952     1.108 -32.78   0
       240    979.6124    495.9117 307.5158778  +6.4968814     826.9262     1706.953     2084.497     89.67352     179.2042     358.7298      2.441     5.12     1134.971     63.25712     108.1804        10     1.135     0.713 -38.28   0
       241    941.3978    491.5879 307.5319082  +6.4973973     3377.761     6511.386     7269.988     89.53062     179.1327     358.6584      2.052     5.26     1136.421     63.25712     395.6171        35     1.926     1.069 -26.83   0
       242    614.8270    490.2195 307.6676936  +6.4870936     3651.244     8109.774     9561.546     89.53062     179.2756     358.7655      2.404     5.93      1145.11     63.25712     357.5697        47     2.057     1.389 -36.18   0
       243    964.2673    483.8477 307.5226640  +6.5013531     2436.673     4665.734     5053.079     89.95866     179.4184     358.9082      2.040     5.25     1134.966     63.25712     347.3615        28     1.856     0.953 -24.26   0
       244    526.7751    481.3838 307.7045915  +6.4878053     3996.675     9434.404     11752.67     89.67353      179.347     358.8012      2.582     6.21     1147.602     63.25712     419.4243        55     2.159     1.520 -25.77   0
       245    373.0916    481.7230 307.7684563  +6.4825333     1464.764     3358.689     3641.773     89.67352     179.7749     358.8725      2.315     8.67     1151.583     63.25712     149.3157        24     1.752     1.197 -17.74   0
       246    883.5178    477.0979 307.5564566  +6.5014567     2123.015     4420.028     5697.791     89.95866     179.9173     358.9796      2.486     6.69     1136.938     63.25712     235.7805        28     1.861     1.087 -25.02   2
       247    890.0873    471.7043 307.5539085  +6.5039022     1353.364     2662.778     3467.658     89.95866     179.9173     358.9439      2.380     7.69     1136.513     63.25712     140.5613        21     1.762     0.939 -46.78   3
       248    929.9991    471.1335 307.5373380  +6.5054644      811.832     1678.281     1388.226     89.10052     178.9897      358.587      2.089     5.86     1135.507     63.25712     124.2947         9     1.451     0.667 -33.21   0
       249    714.7057    467.7762 307.6269403  +6.4996886     1873.958     3794.269     4347.558     90.10088     179.2042     358.7298      2.117     6.49     1142.063     63.25712     214.0514        27     1.732     1.092 -36.84   0
       250    385.5415    465.9774 307.7638172  +6.4894507     1983.071     4628.648     5420.463     89.53062     179.4898     358.6941      2.361     6.89      1149.89     63.25712     224.6324        32     1.755     1.348 -40.94   0
       251    613.3627    462.3269 307.6692486  +6.4985619     5723.796     13309.59     15885.55     89.81621     179.4898     358.9439      2.482     6.03     1143.402     63.25712     541.3195        60     2.151     1.516 -25.06   0
       252    776.2886    458.4890 307.6016576  +6.5055737     10214.47     22053.76     26547.79     89.67353     180.0596     358.9796      2.438     5.73     1138.976     63.25712     1091.941        76     2.429     1.448 -32.78   0
       253    295.6636    459.6837 307.8013877  +6.4890448     1323.182     3266.591     3234.029     90.10088     179.5611     358.8725      2.471     7.69     1151.243     63.25712     148.6752        27     1.667     1.343  -8.98   0
       254    804.8124    455.3194 307.5899087  +6.5078316     870.4619     1816.023     1928.624     89.53062     179.1327     358.6941      2.244     4.37     1137.412     63.25712     113.8353         7     1.236     0.440 -40.44   0
       255     76.6357    466.3197 307.8921949  +6.4789712     1035.103     2204.537     2482.649     89.81621     179.5611     358.9082      2.369     7.43     1161.175     63.25712        127.2        16     1.354     1.143  31.42   0
       256    961.1804    453.6852 307.5249671  +6.5137051     1299.923      2533.94     1884.674     89.53062     179.2042     358.8012      1.920     6.69     1133.258     63.25712     164.2979        20     1.806     0.932 -24.52   0
       257    113.4914    450.8349 307.8774050  +6.4865999     2400.158     5752.403     6836.571     90.10088      179.347     358.9082      2.597     7.10     1159.301     63.25712     236.1831        42     2.116     1.429 -22.05   0
       258    751.6361    449.7133 307.6122021  +6.5083767     1510.339     3086.779     3207.832     89.95866      179.347     358.8725      2.120     6.71      1139.73     63.25712     170.9362        24     1.526     1.211 -16.30   0
       259   1015.3140    448.1342 307.5026529  +6.5177950     2834.608     6083.304     6608.614     89.95866     179.7037     358.9439      2.216     5.89     1131.012     63.25712     307.8602        40     1.972     1.288 -18.75  16
       260    272.5016    448.3928 307.8113990  +6.4929320     747.4509     1671.078     2189.789     89.67353     179.0612     358.6584      2.885     7.11     1151.052     63.25712     95.78455        10     1.433     0.990  -2.42   0
       261    349.8096    445.7315 307.7793574  +6.4966160     1771.147     3901.599      4380.21     89.38749     179.2756     358.7298      2.294     6.99     1148.894     63.25712      174.974        25     1.538     1.309 -41.33   0
       262    705.4431    443.3035 307.6316200  +6.5094851     1000.001     1885.699     1913.654     89.95866     179.4184     359.0509      2.104     6.91     1140.563     63.25712     118.0972        12     1.420     0.943  19.05   0
       263    546.7155    436.1032 307.6978410  +6.5071671     560.2742     1594.336     1804.692     89.95866     179.9173     358.9439      2.200     4.21     1142.771     63.25712     100.6108         6     1.498     0.337  60.72   0
       264    831.3489    433.0557 307.5796323  +6.5179074     903.3787     1875.347     2227.723     89.95866     179.4898     358.8725      2.076     6.65     1135.761     63.25712     104.5132        11     1.512     0.822 -65.03   0
       265    817.1655    432.4541 307.5855483  +6.5176840     1277.844      2671.37     3615.424     89.81621     179.4898     358.8725      2.579     7.95     1136.017     63.25712     164.8638        21     1.739     1.159 -19.11   0
       266    469.2969    433.2559 307.7301170  +6.5057590     537.9101     1131.541       1405.6     89.81621     179.4898     359.1222      1.609     4.28     1144.461     63.25712     100.4652         5     1.271     0.410  51.26   0
       267    714.5423    430.5778 307.6282692  +6.5150427     9054.903     19858.34     22991.98     89.53062     179.4898     358.6584      2.331     5.72     1139.579     63.25712     890.8899        58     2.156     1.407 -24.06   0
       268    635.6732    426.4636 307.6611920  +6.5141138     1565.624     3745.604     4717.471     89.95866     179.4898     358.8725      2.673     9.11     1140.732     63.25712     179.5771        37     2.184     1.285 -22.54   0
       269    608.0309    421.7340 307.6728423  +6.5151452     8189.953     21535.05     30129.88     89.67352     179.4898     358.8012      2.998     6.95      1140.93     63.25712       850.09       100     2.632     2.014  13.67   0
       270    939.6454    420.3518 307.5350460  +6.5267535     2558.896     5148.556     5408.249     89.95866      179.347     358.8725      2.130     5.97     1131.797     63.25712     302.6322        31     1.916     1.049 -28.65   0
       271    379.0210    416.5337 307.7682090  +6.5096481     15592.37     37630.61     44936.97     89.53062     179.4898     358.7655      2.536     5.98     1145.571     63.25712      1557.49        83     2.311     1.650 -24.35   0
       272    895.5977    415.7783 307.5535105  +6.5271780     971.1328     2471.957      3770.88     89.53062     179.1327      358.587      3.412     9.02     1133.016     63.25712     127.9095        21     2.093     1.086 -24.86   0
       273    125.1291    416.0118 307.8737554  +6.5013679     1309.558     3189.196     3926.616     89.38749     179.2042     358.6584      2.554     8.82     1156.825     63.25712      153.785        25     1.730     1.255   0.87   0
       274     58.7210    411.5821 307.9015080  +6.5009712      819.278     1915.666      2113.33     89.53062     179.1327     358.8012      2.380     8.08         1159     63.25712      119.386        15     1.529     1.195 -52.92   0
       275    908.6714    410.6815 307.5482485  +6.5297171     3247.512     6591.328     7468.892     90.24289     179.8461     358.9082      2.179     5.83     1132.208     63.25712     370.6455        34     1.971     1.061 -26.86   0
       276    236.6240    407.1017 307.8277173  +6.5087804     7421.057     17773.62     20703.16     90.10088     179.2042     358.6941      2.487     6.04       1150.2     63.25712     717.6576        65     2.198     1.612 -25.14   0
       277    959.9846    398.8870 307.5273173  +6.5362923     708.3896     1524.381     1845.619     89.53062     179.2042     358.7655      2.331     6.71     1129.325     63.25712     108.7238        10     2.027     0.623 -43.33   0
       278    350.1012    397.0714 307.7808917  +6.5167174     840.8615     1794.343     1628.053     89.67352     179.7037     358.8725      2.219     5.97     1144.551     63.25712     101.1843        10     1.233     0.814  82.41   0
       279    136.8936    395.7363 307.8695570  +6.5101337      2843.64     6570.426     7635.766     89.95866     179.5611     358.9439      2.396     6.17     1155.329     63.25712      297.274        47     2.072     1.461 -31.08   0
       280    158.6765    391.7936 307.8606374  +6.5124912     1468.762     3723.857     5364.873     89.53062     178.9182     358.6941      2.921     8.80     1153.932     63.25712     171.6461        30     1.952     1.433 -20.02   0
       281    381.9459    386.4676 307.7680159  +6.5221601     1190.307     2719.332     3459.949     89.95866     179.4184     358.7655      2.476     7.65     1142.254     63.25712     129.1725        21     1.412     1.160 -68.52   0
       282    970.8345    385.2853 307.5232671  +6.5422690     788.2846     1442.415     2077.027     89.95866      179.347     358.8369      1.840     4.35      1127.48     63.25712     102.2957         7     0.865     0.623  20.39   0
       283     32.3993    380.9572 307.9134933  +6.5127332     1922.555     4557.932     5538.459     89.24412     179.1327     358.4441      2.571     7.73      1158.95     63.25712     216.2838        41     2.187     1.371 -24.25   0
       284    436.1827    379.9679 307.7456925  +6.5266558     3680.696     9368.521     10837.12     89.53062     179.2756     358.7298      2.515     6.51     1139.704     63.25712     366.8467        53     2.148     1.502 -21.72   0
       285    776.5846    377.0950 307.6042922  +6.5391919     7601.847     16811.89     19717.29     89.67352     179.2042     358.6941      2.409     5.79     1134.557     63.25712     774.4015        63     2.345     1.416 -21.97   2
       286    768.8623    378.5182 307.6074541  +6.5383472     1273.513     2543.441     2871.584     90.10088     179.4898     358.8725      2.213     4.39      1134.81     63.25712     170.0782        12     1.073     0.877   9.02   3
       287   1020.4933    372.1609 307.5030679  +6.5493374     2580.532     4665.818     4775.449     90.10088     179.4184     322.0527      1.924     5.13     1123.442     63.25712     311.0444        29     1.731     1.043 -28.02  24
       288    484.3850    363.5719 307.7262134  +6.5350354     1854.573      4172.77     4717.011     89.53062     179.2756     358.7655      2.349     6.58     1136.918     63.25712     201.3988        33     1.822     1.324 -35.87   0
       289    456.4477    364.2345 307.7378037  +6.5338289     1434.372     2953.328     3699.086     89.67353     179.4898     358.8012      2.331     8.29     1137.452     63.25712     168.8694        24     1.780     1.083 -30.53   0
       290    842.0317    359.9854 307.5776659  +6.5484343      20666.4     45987.12      52699.4     89.53062     179.2042     358.8012      2.341     5.50     1131.917     63.25712     2173.726        78     2.152     1.538 -29.08   0
       291    613.7430    352.3265 307.6728234  +6.5439943     1543.139     3727.007     4348.428     89.95866     179.4184     358.8369      2.520     8.63     1133.471     63.25712     188.8027        29     1.711     1.459 -27.52   0
       292    698.5251    346.0363 307.6377936  +6.5494171     46210.23     105082.7     122284.3     89.81621     179.5611     358.9082      2.397     5.79     1133.031     63.25712     4534.964       108     2.279     1.607 -25.29   0
       293     98.2535    341.7908 307.8874574  +6.5311124     3463.527     8233.987     9876.103     89.24413     179.4184     358.5513      2.445     6.19     1155.707     63.25712     386.0736        49     1.995     1.602 -33.42   0
       294     78.0219    345.4863 307.8957407  +6.5289084     774.6529     1780.701     1661.165     89.95866     179.2042     358.7298      2.421     4.66     1156.543     63.25712     109.8329         8     1.322     0.467   8.27   0
       295    561.1042    342.9456 307.6950232  +6.5461122     1492.929     3589.618     3755.664     89.81621     179.4184     359.1222      2.393     8.59     1133.933     63.25712     152.4642        29     1.842     1.299 -21.82   0
       296    544.3106    339.0682 307.7021358  +6.5471529     3949.868     9349.484     11107.28     90.10088     179.7037     358.8725      2.406     6.14     1133.896     63.25712      385.021        49     2.054     1.452 -25.36   0
       297    407.2321    334.2227 307.7592819  +6.5445768      13488.5     33536.81     40731.41     89.38749     179.2756     358.6227      2.579     6.24     1136.635     63.25712     1368.448        81     2.319     1.681 -26.34   0
       298    273.5385    336.7025 307.8147709  +6.5390830     1341.576     3421.352      3862.92     89.67353     179.5611     358.9439      2.585     9.60     1144.518     63.25712     145.9136        28     1.914     1.344 -24.77   0
       299    496.2263    324.6194 307.7226147  +6.5515142     4668.644     11317.29     13977.23     89.38749     179.2756     358.7655      2.623     6.36      1132.92     63.25712      466.473        58     2.246     1.550 -28.39   0
       300    765.4589    323.2971 307.6107401  +6.5610352     2017.407      4534.91     5641.117     89.67353     179.4898     359.0152      2.500     6.86     1131.284     63.25712     203.4618        33     1.844     1.273 -19.84   0
       301    921.0854    322.3381 307.5460773  +6.5666077     558.1511     1202.922     1837.541     90.10088     179.6324     358.8725      3.429     5.62     1125.002     63.25712     122.2032         6     1.623     0.549 -32.51   0
       302    386.3743    308.7468 307.7688187  +6.5543988     4106.669     9889.622      11511.9     89.38749     179.5611     358.7655      2.502     6.01     1136.492     63.25712     399.5952        53     2.076     1.519 -25.50   0
       303    241.7343    309.1109 307.8289309  +6.5494111     1061.629     2580.864     3058.622     89.95866     179.7037     358.8725      2.503     7.98     1144.684     63.25712     130.8651        18     1.342     1.325 -23.03   0
       304    754.0162    304.5718 307.6161316  +6.5683860     31920.48     71038.15     81679.44     89.53062     179.2042     358.7655      2.344     5.76     1130.023     63.25712     3306.629        87     2.210     1.532 -24.74   0
       305    425.8177    304.1282 307.7525795  +6.5576237     1145.511     2856.116     3625.523     89.38748     179.4184     358.8012      2.631     7.68     1134.326     63.25712     147.3555        23     1.761     1.349   0.77   0
       306    987.8604    302.6147 307.5189849  +6.5769703     996.8922     1606.642     1323.272     89.38748     179.4184      358.587      1.830     6.46     1121.195     63.25712     108.8259        13     1.354     0.866 -37.64   2
       307    990.2109    300.2557 307.5180875  +6.5780224     733.7281     1245.745     1223.842     89.24413     179.4184     358.5156      1.865     3.82     1121.018     63.25712     116.3726         5     1.227     0.342  11.17   3
       308    929.8926    300.6305 307.5431505  +6.5758637     1288.746     3150.367     3804.963     90.10088     179.2756     358.8369      2.501     8.73     1122.938     63.25712     137.9316        26     1.892     1.125 -25.03   0
       309    572.6190    301.3986 307.6916473  +6.5636512     724.1746     1406.727     1769.353     89.53062     178.9897     358.5513      2.166     4.85     1129.508     63.25712     97.72021         7     1.465     0.456  -7.40   0
       310    462.5150    300.5425 307.7374466  +6.5603300     745.4294     1914.986     2064.979     89.95866     179.4898     359.0509      2.389     6.64      1131.93     63.25712     88.28394         9     1.447     0.854  -6.95   0
       311    412.6382    299.6237 307.7582113  +6.5590433      1177.11     2576.661     2993.929     89.53062     179.2042     358.6584      2.247     8.16     1134.858     63.25712     136.5634        20     1.450     1.299 -42.10   0
       312      2.3351    295.7501 307.9288982  +6.5469054     1603.153      1458.92     1072.777     89.10052     158.5825     288.0971      0.721     0.86     1159.634     63.25712     785.6248         5     0.566     0.428  10.22  16
       313    833.6234    294.1343 307.5833913  +6.5753451     750.7795     1549.308     2396.901     89.53062     179.4898     358.8012      2.491     5.43     1126.981     63.25712     104.4542         7     1.353     0.616  -8.41   0
       314    188.9819    291.9924 307.8514423  +6.5547132     1075.381     2544.881     2943.402     89.53062     179.2042     358.6941      2.804     7.94     1148.778     63.25712     131.9531        18     2.128     0.828 -34.66   0
       315    752.3558    289.2540 307.6173410  +6.5746556     3661.911     7999.378     9154.981     89.95866     179.4898     358.8725      2.353     5.93     1128.876     63.25712     383.1675        46     2.068     1.352 -26.27   0
       316    768.8456    287.1717 307.6105565  +6.5760644       1516.6     3403.772     4066.198     89.38748     179.5611     358.7655      2.374     6.04     1128.691     63.25712     183.2205        26     1.724     1.114 -26.93   0
       317     85.7059    288.2470 307.8944995  +6.5527993     689.5184     1398.866     1679.979     89.81621     179.4184     359.0152      2.294     4.41     1155.521     63.25712     122.1748         5     0.795     0.697 -59.82   0
       318    358.0896    282.0092 307.7814861  +6.5644933     1019.825     2728.196     3291.101     89.67352     179.1327     358.6227      2.581     9.75     1136.417     63.25712     136.3116        23     2.066     1.282 -40.50   0
       319     72.2619    282.7870 307.9002742  +6.5546030      788.063     1504.821     1912.793     89.38749     179.2756     358.5513      2.278     5.11     1156.037     63.25712     136.8026         6     1.114     0.662  86.18   0
       320   1007.0278    277.9039 307.5118521  +6.5878102     4369.015     8173.201     8698.791     90.10088     179.2042     358.8012      1.970     5.39     1119.433     63.25712     473.0237        36     1.933     1.066 -23.70   0
       321    485.3251    278.3990 307.7287170  +6.5702347     1075.818     2582.911     3002.938     89.10052     178.8466     358.7298      2.457     8.67     1128.698     63.25712     133.5493        20     1.782     1.178 -48.51   0
       322    247.7860    273.6704 307.8276225  +6.5642468     3089.033     7786.267     9388.773     89.38749     179.2756     358.7655      2.650     6.95       1143.1     63.25712     364.8191        54     2.230     1.558 -27.20   0
       323    382.6446    265.0649 307.7718551  +6.5723103      929.898     2293.186     2851.129     89.95866     179.4184     358.8725      2.733     7.26     1134.326     63.25712     122.9513        13     1.389     1.061  85.39   0
       324    304.9085    260.8360 307.8043140  +6.5714572     623.0725     1385.141     1629.174     90.10088      179.347     358.9082      2.086     3.46      1138.89     63.25712     86.08838         5     1.576     0.219 -27.56   0
       325    152.5454    260.2500 307.8676705  +6.5665988     904.9678     1924.631     1884.471     89.95866     179.4898     358.9082      2.281     6.99     1150.401     63.25712     118.0582        11     1.437     0.953 -22.31   0
       326    561.4999    255.9180 307.6978140  +6.5820593     1198.351     2825.496     2872.895     89.95866     180.0596     358.9796      2.254     8.92     1125.964     63.25712     164.6915        26     1.669     1.332 -59.79   0
       327    904.7466    254.9431 307.5551505  +6.5938927     1360.048     2746.052     3338.307     90.10088     179.4898     358.8725      2.397     6.50     1120.699     63.25712     154.6215        20     1.485     1.099 -12.59   0
       328    724.8079    253.4731 307.6300062  +6.5885124     2933.682     6408.007     7622.663     89.53062     178.9897     358.7298      2.380     6.50     1125.826     63.25712     299.1124        42     2.021     1.329 -28.72   0
       329    665.9498    253.4267 307.6544766  +6.5865707     1215.468     2405.543     2979.354     89.53062     179.5611     358.8012      2.254     5.68     1125.941     63.25712     149.9911        15     1.124     1.072  51.31   0
       330    920.8099    245.1754 307.5488029  +6.5984598     692.1119     1632.933     2360.414     89.53062     179.2756     358.7298      2.063     3.95     1119.243     63.25712     82.69006         5     0.968     0.462 -44.63   0
       331    224.7209    238.9597 307.8383931  +6.5778065      1183.59     2939.257     3583.213     89.81621     179.4898     358.8369      2.538     8.92     1144.221     63.25712     135.1716        21     1.759     1.262   1.94   0
       332    866.7816    237.4764 307.5715252  +6.5998425      1189.35     2436.741     2670.242     89.38749     179.2042     358.8369      2.146     6.88     1121.535     63.25712     146.1133        18     1.467     1.057 -12.78   0
       333    756.7722    237.3733 307.6172635  +6.5962245     945.0573      1972.29     2289.749     89.38749     179.2756     358.6941      2.168     7.12     1124.205     63.25712     112.3749        13     1.538     0.924 -44.04   0
       334    458.5959    228.3457 307.7415300  +6.5900091     12130.44     29902.89     37563.43     89.24413     179.2042     358.5156      2.663     6.51     1126.385     63.25712     1187.795        92     2.702     1.645 -33.05   0
       335    784.2970    227.4897 307.6061555  +6.6012217     8307.947     18436.65     21430.09     89.95866     179.9885     358.8725      2.372     5.79     1122.967     63.25712     886.1428        60     2.170     1.430 -26.54   0
       336    147.0285    221.7584 307.8712763  +6.5823067     1271.983     2976.649      3649.73     89.53062     179.4184     358.7298      2.414     9.34     1148.789     63.25712     155.4603        25     1.850     1.355 -25.88   0
       337    920.4487    217.9843 307.5498733  +6.6096753     925.0582     1753.313     1565.569     89.38748     179.4898      358.587      2.104     5.89     1117.463     63.25712     108.2155        12     1.416     0.688  -2.38   0
       338    582.3970    214.3319 307.6905387  +6.5999273      2540.15     6300.011     7248.291     89.24413     179.0612     358.6227      2.464     6.98     1122.873     63.25712     281.8247        42     2.110     1.402 -23.84   0
       339    545.2136    214.4338 307.7059936  +6.5986447     1203.245     2631.869     2516.722     89.38749     179.2042     358.7655      2.222     7.59       1123.1     63.25712     126.0691        20     1.434     1.241  22.19   0
       340    385.4725    215.1091 307.7723790  +6.5930313     659.0054     1331.838     1632.066     89.95866     179.7749     358.8725      2.572     4.25     1131.339     63.25712     100.5343         5     0.936     0.550 -44.58   0
       341    943.4019    211.3815 307.5405540  +6.6131644     1999.341     3746.367     3952.511     89.53062     178.9897     358.5513      1.953     5.84     1116.229     63.25712      234.882        25     1.681     1.061 -18.84   0
       342    889.4291    210.6964 307.5630163  +6.6116533     7448.521      15725.6     17666.05     90.10088     179.2042     358.8725      2.255     5.54     1118.598     63.25712     831.8328        53     2.071     1.332 -23.99   0
       343    976.0576    208.5483 307.5270732  +6.6154193     6819.618     13456.75     14465.49     89.95866     179.4898     358.8725      2.088     5.32     1115.296     63.25712     783.3425        47     2.035     1.180 -26.30   0
       344     15.6768    207.5680 307.9263632  +6.5837619     14690.59      34051.7     40599.35     89.81621     179.4898     358.8012      2.467     5.93     1158.341     63.25712     1558.579        74     2.264     1.577 -30.19   0
       345    687.1157    208.7273 307.6471936  +6.6057325     1681.586     3813.617      4598.83     90.10088     179.8461     358.9082      2.359     6.49     1123.014     63.25712     187.6212        29     1.765     1.215 -28.28   0
       346    496.4028    203.7558 307.7266485  +6.6014246     1088.634     2404.555     2982.658     89.24413     178.9897     358.4799      2.377     6.83     1122.809     63.25712     160.9885        15     1.301     1.021  80.77   0
       347    880.3741    199.4322 307.5671623  +6.6160033     1177.782     2474.133     3097.542     89.38749     179.2042     358.6941      2.433     7.33     1118.107     63.25712     150.1686        19     1.769     0.952 -21.34   0
       348    827.8168    200.2607 307.5889850  +6.6139130     1328.948     2561.467     2863.109     89.38749     179.4184     358.6584      2.012     5.76     1119.916     63.25712     151.0837        17     1.479     1.027 -20.81   0
       349    508.0929    199.6361 307.7219286  +6.6035158     1442.781     3185.115     3854.304     90.10088      179.347     358.9796      2.333     7.21     1122.446     63.25712     153.1393        24     1.428     1.348 -72.25   0
       350    739.5711    196.7664 307.6257913  +6.6124185     23634.47     53239.55     61262.89     89.38749     179.2042     358.6227      2.362     5.70     1121.506     63.25712     2293.717        85     2.217     1.560 -22.80   0
       351    342.5977    196.3133 307.7908426  +6.5993587     3608.951     9677.054     13312.04     89.24413     179.0612     358.5513      2.917     7.02     1134.215     63.25712     356.1567        74     2.380     1.920 -50.81   0
       352    973.5674    195.2260 307.5285591  +6.6208375     1972.976     4330.917     4535.092     89.38749     179.2042     358.6941      2.248     7.77     1114.424     63.25712     217.2709        31     2.030     1.151 -23.71   0
       353    907.4603    193.7569 307.5560932  +6.6192472      5109.38     10364.41     11666.58     89.95866     179.4898     359.0152      2.174     5.39     1116.531     63.25712     543.4796        47     2.022     1.256 -26.52   0
       354   1011.2002    194.1593 307.5129491  +6.6225278     1319.961     2511.838     2614.788     89.10052     179.0612     358.5156      1.932     6.41     1113.363     63.25712     170.1107        18     1.568     0.915 -21.15   0
       355    451.0743    193.1093 307.7458549  +6.6043068     2562.219     6485.492     7479.902     89.95866     179.7037     358.9082      2.537     6.89      1124.46     63.25712     259.5358        48     2.085     1.537 -23.43   0
       356    108.4552    184.5059 307.8885820  +6.5963951     2759.057     6613.498     7904.705     89.81621     179.4898     359.1222      2.518     6.68     1150.431     63.25712     302.2827        46     2.146     1.421 -24.38   0
       357    254.0794    182.2973 307.8281189  +6.6021845     3459.893     8542.141     10249.51     89.67352     179.7749     358.9082      2.516     6.59     1142.566     63.25712     371.2894        53     2.186     1.499 -23.20   0
       358    278.7462    181.0291 307.8179076  +6.6035336     18249.58     44973.39     54053.74     89.67352     179.5611     358.8012      2.535     6.08     1141.355     63.25712     1976.788        91     2.307     1.730 -26.01   0
       359    402.7960    176.4979 307.7664907  +6.6095526     27012.74     65373.96     78822.87     89.67353     179.1327     358.5156      2.548     6.22     1127.027     63.25712      2751.11        95     2.336     1.689 -26.27   0
       360    158.6549    178.1328 307.8679307  +6.6007086     2128.738     5131.514     5774.584     89.95866     179.4184     358.8012      2.446     6.38     1147.773     63.25712     252.0803        40     1.984     1.456 -19.06   0
       361    420.7637    176.8307 307.7590096  +6.6100156     863.0562      1606.69     1683.361     89.53062     179.2042     358.6941      2.236     5.49      1125.36     63.25712     112.8877         9     1.096     0.775  -6.47   0
       362    307.4157    174.2751 307.8062189  +6.6072814     9921.685     23790.95     31616.34     89.38749     179.2042     358.7298      2.823     6.80     1138.601     63.25712     1116.771        98     2.954     1.714 -10.30   0
       363    742.0126    172.6315 307.6255946  +6.6224652     19911.26     44303.34      51541.1     89.38748     179.2042     358.8012      2.350     5.80     1119.885     63.25712     2027.823        75     2.193     1.486 -23.00   0
       364    790.4814    172.8587 307.6054357  +6.6239850     812.1895     1688.987     2465.376     89.95866     179.5611     358.8725      2.522     5.38     1118.871     63.25712     97.00537         8     1.077     0.758   7.65   0
       365     59.0543    170.0670 307.9096112  +6.6007004     5044.105     11846.04     13849.84     89.95866     179.4184     358.7655      2.440     5.95     1154.337     63.25712     533.2153        58     2.199     1.519 -27.97   0
       366     93.2016    168.3786 307.8954734  +6.6025424     870.6351     1963.292     2208.064     89.53062     179.1327     358.5513      2.222     6.23     1150.897     63.25712     123.2217        11     1.291     0.844 -42.08   0
       367   1000.5031    166.6908 307.5183254  +6.6335146     716.2216     1477.293     1438.385     89.95866     180.0596     358.8725      2.065     5.37     1111.744     63.25712     100.5353         7     1.168     0.695 -50.49   0
       368    575.7521    158.1673 307.6952086  +6.6228960     622.7876     1412.164     1750.473     89.67352     179.4898     358.8012      2.397     4.49     1119.339     63.25712     79.33203         5     0.797     0.718  52.32   0
       369   1002.2877    152.4357 307.5180655  +6.6394599     1377.675     2974.029     4270.191     89.95866      179.347     358.8725      2.600     4.34     1110.895     63.25712       217.15        13     1.118     0.928  17.24   2
       370    592.5267    149.5255 307.6885280  +6.6270238     1178.463     2614.291     3698.632     90.24289     179.7749     358.9439      2.996     7.82     1119.071     63.25712     142.2313        18     1.591     1.076 -24.79   0
       371    585.7184    151.0126 307.6913080  +6.6261826     649.2269     1552.231     2259.241     89.53062     179.1327     358.6941      2.908     5.16     1119.106     63.25712     104.4602         5     1.207     0.624   0.87   0
       372    277.5817    147.3313 307.8195394  +6.6174081     16555.82     40482.08     49351.19     89.53062      179.347     358.8012      2.575     6.11     1141.946     63.25712     1752.459        92     2.393     1.685 -25.64   0
       373    338.3103    149.1925 307.7942289  +6.6186711     686.8895       1147.7     1610.952     89.38749     179.1327      358.587      1.833     5.02     1133.919     63.25712     89.18127         5     1.064     0.671 -27.64   0
       374     22.9979    146.1430 307.9254171  +6.6093687     2622.174     5824.305     6350.361     89.24413     179.1327      358.587      2.373     5.97     1157.313     63.25712     316.5002        40     2.021     1.289 -34.40   0
       375    709.3250    143.8618 307.6401603  +6.6332556     4935.314     10650.11     12434.19     90.24289     179.4898     358.8725      2.311     5.68     1118.956     63.25712     496.3871        48     2.008     1.368 -25.59   0
       376    187.2012    145.6364 307.8571713  +6.6150822     667.3375     1142.461     777.4998      88.9567     179.2756     358.6584      1.540     3.73     1145.721     63.25712     82.78857         5     1.018     0.393  85.23   0
       377    120.0068    141.0757 307.8852614  +6.6147139     2800.091     6278.373     7490.338     89.53062     178.9182     358.6941      2.394     6.59     1148.527     63.25712     315.8486        41     2.046     1.362 -22.86   0
       378    459.1296    138.5474 307.7443611  +6.6271042     829.9593     1889.924     2089.667     89.81621      179.347     358.8012      2.187     6.80     1121.087     63.25712     90.44958        10     1.546     0.839 -33.45   0
       379    390.7378    137.1748 307.7728416  +6.6253859     2199.028     5463.707     7067.252     89.53062     179.4184     358.8012      2.670     6.97      1126.89     63.25712     215.4927        41     1.881     1.603 -27.35   0
       380    355.1794    136.0626 307.7876627  +6.6246564     1570.945     4127.109     4391.348     89.53062     179.4898     358.7298      2.558     9.07     1131.216     63.25712     174.3882        33     1.901     1.619 -44.35   0
       381    109.5359    135.8363 307.8897932  +6.6165262     953.0432     2316.273     2296.713     89.81621     179.4898     358.9082      2.311     7.29     1148.772     63.25712     113.0762        14     1.550     1.264  76.49   0
       382   1001.8028    130.0700 307.5190235  +6.6486788     914.4138     1515.972     1889.549     89.38748     179.0612     358.6584      1.856     6.78     1109.924     63.25712     125.9337        14     1.512     0.852 -33.79   0
       383    206.8680    125.0871 307.8496956  +6.6242253     3114.782     7660.055     8864.606     90.10088     179.7749     358.9082      2.496     6.46     1144.441     63.25712      333.365        46     2.020     1.497 -21.18   0
       384    668.7947    123.5951 307.6576989  +6.6402732     3589.879     8012.331     9012.138     89.24413     179.2042     358.7298      2.313     5.74     1118.528     63.25712     360.9233        45     2.027     1.377 -20.30   0
       385     90.3238    124.8004 307.8981567  +6.6204387     1215.838     2765.728      3332.39     89.10052      178.775     358.6584      2.763     9.29     1149.641     63.25712     137.1044        21     1.770     1.359 -31.52   0
       386    816.8997    124.2767 307.5960981  +6.6449240      628.637     1308.744     2092.359     89.38749     179.6324     358.9082      2.459     5.98     1114.918     63.25712     78.04187         7     1.463     0.686   6.77   0
       387    621.0635    120.9346 307.6776342  +6.6397806     5537.185     12611.95     15245.28     89.95866     179.4898     358.8725      2.445     5.94     1118.137     63.25712     590.1333        53     2.143     1.457 -18.57   3
       388    624.5126    112.4005 307.6764899  +6.6434193     30527.57     70830.52        83657     89.10052     178.9182     358.5156      2.445     5.84     1117.762     63.25712     3099.772       100     2.310     1.629 -26.32   3
       389    348.1829    116.7651 307.7912283  +6.6323902     2146.784     5344.646     6732.498     89.53062     179.2756     358.6227      2.712     7.34     1132.068     63.25712     228.2283        45     2.089     1.497 -33.91   0
       390    993.3682    116.4024 307.5229928  +6.6540421     623.9286     941.9926     1009.909     89.24413     179.2756     358.6227      1.871     5.51     1109.619     63.25712     88.83325         5     1.041     0.823  77.56   0
       391    530.0920    116.1636 307.7156189  +6.6387157     1066.975     2200.839     2157.735     90.10088      179.347     358.9082      2.319     5.12     1118.255     63.25712     159.9778        12     1.215     1.084  89.47   0
       392    303.6780    106.4145 307.8100836  +6.6351753     1985.069     4866.582     6461.688     89.53062     179.2042     358.6941      2.714     9.06     1139.101     63.25712     244.9386        41     2.341     1.404 -25.60   0
       393    674.2086    100.1641 307.6562430  +6.6501283     733.1161     1569.164     1832.931     89.38748     179.2756     358.6227      2.457     6.53      1116.79     63.25712     113.9941        10     1.683     0.710 -41.38   0
       394      2.8338     88.9515 307.9357529  +6.6323053     690899.8      1400930      1500374     89.67352     165.4582     296.5079      2.093     9.98     1156.193     63.25712     63609.56       237     2.088     1.567 -68.74  28
       395    689.0363     96.4403 307.6502044  +6.6521600     1925.797     4334.601     4560.924     89.67352     179.4898     358.7298      2.236     6.79     1116.206     63.25712     211.0229        34     1.874     1.303 -28.08   0
       396    430.9106     87.4344 307.7578316  +6.6472658     2206.226     5106.347     5648.214     90.10088     179.4184     358.8725      2.401     6.71     1122.133     63.25712      233.698        39     1.924     1.474 -11.45   0
       397    884.9547     83.7225 307.5691757  +6.6639328     1407.458      2938.08     3641.966     89.81621     179.5611     358.8725      2.376     7.05      1110.37     63.25712     163.6281        22     1.753     0.963 -29.97   0
       398    903.1398     82.6286 307.5616515  +6.6649891     2391.624     5027.196     5572.322     89.53062     179.5611     358.8012      2.260     6.23     1110.273     63.25712     251.4438        34     1.984     1.125 -23.46   0
       399    594.7182     81.5802 307.6899241  +6.6551513     1007.626     2291.371     2624.297     89.53062     179.1327     358.8012      2.306     6.95     1116.795     63.25712     144.2164        17     1.654     1.117 -61.12   0
       400    393.9862     80.3370 307.7734249  +6.6489623     979.8469     1842.509     2319.599     89.38748     179.2756     358.6941      2.363     6.50     1126.011     63.25712     116.6776        13     1.430     0.830 -26.95   0
       401    141.9339     76.5174 307.8783477  +6.6421038     1859.754     4377.155     4717.171     90.24289     179.7749     358.9439      2.294     6.66     1145.086     63.25712     199.8066        33     1.831     1.372 -23.59   0
       402     23.9938     74.1458 307.9274616  +6.6391282     7370.672     17115.79     21528.18     89.38749     179.2042     358.5513      2.566     5.84     1152.669     63.25712     859.3572        70     2.258     1.585 -28.11   0
       403    290.8746     74.9298 307.8164790  +6.6477467     908.6874      2139.78       3029.3     90.10088     179.6324     358.8725      2.666     5.61     1140.584     63.25712     133.2644        10     1.063     0.833  39.08   0
       404    825.5965     68.4399 307.5943741  +6.6682685     4041.853     8332.739     9204.429     89.10052     179.2042      358.587      2.218     5.61     1111.185     63.25712     461.9965        44     2.058     1.257 -17.28   0
       405    770.6390     68.9366 307.6172081  +6.6662342     2183.353      4386.84     5008.034     89.95866     179.4184     358.9439      2.186     6.07     1113.002     63.25712     241.8989        29     1.867     1.080 -25.22   0
       406    892.5988     69.3399 307.5664844  +6.6701256     645.6945     968.9153     734.2365     89.24413     179.2042     358.5513      1.806     5.14     1109.497     63.25712     92.62109         6     1.003     0.745 -14.75   0
       407    532.8046     67.0584 307.7161597  +6.6590816     670.6125     1423.918     2131.928     89.24412      179.347     358.6227      1.596     3.59     1117.552     63.25712     107.1885         5     1.411     0.263  77.63   0
       408     64.3055     66.0011 307.9109803  +6.6438433     1932.472     4347.639      4717.19     89.38748     178.9897     358.4799      2.308     6.88     1148.946     63.25712     231.2737        35     1.962     1.342 -20.98   0
       409    424.7231     66.3375 307.7611218  +6.6557698     659.0743     1181.293     1589.499     90.24289     179.4898     358.8725      2.251     4.88      1122.97     63.25712     94.56006         6     0.925     0.728  19.08   0
       410    587.9586     63.0577 307.6933636  +6.6625737     857.7889     1725.995     1411.133     89.95866     179.4898     358.9439      2.221     5.71     1116.322     63.25712     113.6083         8     1.216     0.754 -14.01   0
       411      6.4253     61.9840 307.9351809  +6.6435601     1622.413     3535.563     4525.784     89.67352      179.347     344.8993      2.526     6.01     1152.627     63.25712     218.4503        26     1.607     1.267 -32.36  16
       412    765.0405     56.5668 307.6199553  +6.6711553     1263.885      2748.25     3349.287     89.67352     179.4184     358.6941      2.370     6.54     1112.494     63.25712     138.2969        22     1.540     1.026 -50.69   0
       413    103.0775     56.0476 307.8952006  +6.6492530     590.6728      1219.18     1781.844     89.81621     179.5611     358.8369      1.648     3.59     1145.922     63.25712     102.2726         5     1.648     0.226  30.79   0
       414     92.0407     50.2898 307.8999857  +6.6512602     5309.742     12498.67     15078.41     89.95866     179.4898     358.9082      2.548     6.21     1146.191     63.25712      584.101        62     2.239     1.531 -26.63   0
       415    421.2933     49.9808 307.7631042  +6.6624087      1499.59     3260.183     4039.381     89.81621     179.2042     358.6941      2.459     5.95     1123.651     63.25712     183.3191        23     1.516     1.111 -15.89   0
       416    634.6130     42.1457 307.6746754  +6.6727641     10777.22     24542.89     28864.53     89.24412     179.4184      358.587      2.369     5.75     1114.742     63.25712     1161.856        71     2.248     1.501 -26.77   0
       417    258.5305     44.2561 307.8309715  +6.6593290     952.5543     2427.053     4234.999     90.10088      179.347     358.8369      3.826     8.38      1141.14     63.25712     106.8081        18     1.589     1.235 -40.06   1
       418    534.2905     38.2610 307.7165204  +6.6710214      2873.53     6973.673     8103.881     89.81621     179.6324     358.9439      2.403     6.72     1117.476     63.25712     276.9136        44     2.097     1.357 -21.11   0
       419    252.5416     38.4924 307.8336579  +6.6615083     1236.982     2686.009     4128.556     89.81621     179.4184     359.0152      2.773     5.98     1141.211     63.25712     137.4281        22     1.442     1.246 -28.63   3
       420    260.5666     34.3088 307.8304639  +6.6635043     5136.606     12597.87     15732.67     90.10088      179.347     358.8725      2.692     6.53     1140.799     63.25712     550.0896        64     2.304     1.606 -25.80   3
       421    439.9796     33.8171 307.7558846  +6.6697070      12505.1      30202.5     35799.66     89.67352     179.2756     358.7655      2.501     6.16      1122.08     63.25712     1389.299        75     2.282     1.601 -25.05   0
       422      2.5067     36.1870 307.9376912  +6.6540795     764.3759     1224.498     1386.477     89.67353     160.7478     290.9277      1.910     7.21     1149.595     63.25712     90.94263        11     1.255     1.161   2.78  24
       423    620.5704     32.2677 307.6808496  +6.6763745     2000.832     4844.008     6921.219     89.67353     179.4898     358.8369      2.814     7.43     1114.403     63.25712     229.7812        41     2.097     1.445 -27.45   0
       424     26.4428     33.8966 307.9278179  +6.6558284     1379.913     3415.908     3759.514     89.95866     179.4184     359.0509      2.471     7.01     1148.339     63.25712     181.7795        27     1.767     1.253 -34.56   0
       425    917.8083     33.6088 307.5572120  +6.6857172      1198.97     2508.153     2750.958     89.24413     179.2756     358.7298      2.177     8.08     1107.252     63.25712     147.0225        19     1.689     1.081 -28.70   0
       426    248.7149     31.2481 307.8354957  +6.6643713     1701.867     3918.097     4611.927     89.95866     179.4898     358.8725      2.383     6.96     1141.185     63.25712     198.8171        32     1.938     1.284 -29.51   0
       427    689.8825     23.3569 307.6523322  +6.6823642     1209.718     2474.449     2796.242     89.95866     179.4898     358.8369      2.171     6.83     1113.194     63.25712     150.0314        20     1.586     1.194 -35.22   0
       428    938.8564     23.6669 307.5487965  +6.6905219     835.4276     1396.052      1321.12     90.10088     179.4184     358.8369      1.896     6.14      1105.25     63.25712     110.2515         9     1.184     0.896 -16.38   0
       429    748.6405   1018.2648 307.5941892  +6.2735155     1094.501     2090.657     2700.824     89.95866     179.4184     348.0039      2.006     6.11     1170.424     63.25712     152.1284        14     1.591     0.659 -24.32  16
       430    956.0372   1012.3085 307.5082218  +6.2828698     6135.437     10167.56     10810.51     90.10088     179.4184     358.9082      1.772     5.04      1164.85     63.25712     826.4875        33     1.775     0.898 -23.46   0
       431    715.5484   1010.6317 307.6081965  +6.2755658     2420.471     4502.562     6662.591     89.81621     179.5611     358.8012      2.617     5.75     1170.542     63.25712     300.5895        28     1.856     0.950 -22.50   2
       432    240.8009   1012.2344 307.8053811  +6.2590629     1034.472     1835.329       1451.7      88.9567     179.2756     358.6227      1.772     4.91     1179.591     63.25712     172.8242        10     1.468     0.601 -26.75   0
       433    810.4944    997.0902 307.5692069  +6.2843165     852.5715     1804.182     1823.189     89.95866     180.0596     358.8725      2.136     6.58     1169.103     63.25712     140.7496        13     1.789     0.895 -28.68   0
       434    362.7980   1008.0121 307.7548409  +6.2648840     1569.679     2982.454     3658.133     89.53062     179.1327     358.6227      2.198     5.74      1176.73     63.25712     188.9073        21     1.595     0.945 -10.46   0
       435    749.2577    997.4581 307.5946372  +6.2821273     6689.444      12099.4     13014.43     89.95866     179.4184     358.9082      1.947     5.21     1169.505     63.25712     801.7821        43     1.988     1.056 -24.50   0
       436    544.7985    998.1328 307.6795619  +6.2750377     3125.837     5698.191     6508.316     89.38748     178.9897     358.6584      1.942     4.72     1175.268     63.25712     427.7723        29     1.888     0.878 -24.30   0
       437    515.3325    999.0726 307.6917723  +6.2736668     827.1289     1328.717     1229.049     90.10088     179.6324     358.8725      1.926     5.54      1175.52     63.25712     99.80811         9     1.248     0.693 -55.59   0
