#   1 NUMBER                 Running object number                                     
#   2 X_IMAGE                Object position along x                                    [pixel]
#   3 Y_IMAGE                Object position along y                                    [pixel]
#   4 ALPHA_J2000            Right ascension of barycenter (J2000)                      [deg]
#   5 DELTA_J2000            Declination of barycenter (J2000)                          [deg]
#   6 FLUX_APER              Flux vector within fixed circular aperture(s)              [count]
#   9 FLUXERR_APER           RMS error vector for aperture flux(es)                     [count]
#  12 FLUX_RADIUS            Fraction-of-light radii                                    [pixel]
#  13 FWHM_IMAGE             FWHM assuming a gaussian core                              [pixel]
#  14 BACKGROUND             Background at centroid position                            [count]
#  15 THRESHOLD              Detection threshold above background                       [count]
#  16 FLUX_MAX               Peak flux above background                                 [count]
#  17 ISOAREA_IMAGE          Isophotal area above Analysis threshold                    [pixel**2]
#  18 A_IMAGE                Profile RMS along major axis                               [pixel]
#  19 B_IMAGE                Profile RMS along minor axis                               [pixel]
#  20 THETA_IMAGE            Position angle (CCW/x)                                     [deg]
#  21 FLAGS                  Extraction flags                                          
         1    711.3478     21.1969 307.6452512  +6.6898661      8377.68      11178.2     11780.96     78.73464      158.164     316.1703      1.379     2.64     853.4421      55.8079     1363.253        30     1.208     0.971  64.97   0
         2    431.7649     16.6411 307.7615683  +6.6823724     7131.374     9758.808      10203.8     79.11348     158.3529     316.4224      1.463     2.91     859.2886      55.8079     1040.983        29     1.249     1.012  55.48   0
         3     32.7652     16.1613 307.9273561  +6.6691446     9541.655        13525     13719.57     79.11348      158.227     316.4224      1.501     2.96     871.6526      55.8079      1346.79        33     1.320     1.051  66.35   0
         4    507.5613     13.7308 307.7301742  +6.6861182     1060.388     1487.063     1337.507     79.23936     158.3529     316.7057      1.533     5.06     855.8587      55.8079     139.0466        11     1.125     0.715  61.84   0
         5    423.6817     12.8844 307.7650535  +6.6836520     903.1562     1241.433     1832.688     79.11348     158.6044     316.6743      1.502     3.71      859.787      55.8079     141.6233         9     1.068     0.673  65.20   0
         6    328.3364     11.5331 307.8047130  +6.6810064     14757.69     20556.07     22109.34     79.36504     158.3529     316.6428      1.512     2.87     865.9888      55.8079     2048.527        36     1.284     1.101  65.19   0
         7    101.7841     11.5513 307.8988378  +6.6733742     2900.119     4267.583     4544.327     78.86112     158.3529     316.3594      1.595     3.36     867.4779      55.8079     392.0853        21     1.212     1.001  62.96   0
         8    796.9580     10.0422 307.6100552  +6.6973367     1008.012      1155.67     882.8357     79.11348     158.3529     316.4854      1.304     3.72     852.8932      55.8079     177.6151        10     1.022     0.756 -84.80   0
         9     92.9236     10.7051 307.9025476  +6.6734250     1715.764     2304.274     2596.864     79.11348     158.4787     316.6743      1.461     3.11     867.6098      55.8079     246.3224        16     1.016     0.993  25.15   0
        10    462.8185     10.0128 307.7488896  +6.6861516     656.6021     1043.798     748.9923     79.11348     158.0379     316.5169      1.610     5.13     857.1688      55.8079     87.81189         8     1.130     0.657  17.98   0
        11    394.6626      9.4738 307.7772254  +6.6840854     2664.174      3518.78     3061.677     79.61579     158.3529     316.6113      1.467     3.20     861.4963      55.8079      368.407        18     1.197     0.874  42.43   0
        12    655.2906      5.0210 307.6690870  +6.6946672     12411.92     16991.63     17810.02     79.23936      158.164      290.201      1.441     2.90     853.6462      55.8079     1949.996        38     1.336     1.035  53.39  24
        13    989.4281      6.3375 307.5302065  +6.7052984     757.1888     799.6377     633.0698      78.9874     158.3529     303.4636      1.077     3.37     844.9791      55.8079     139.0058         5     0.728     0.452  69.29  16
        14    533.0076      5.0276 307.7198948  +6.6905652     1547.123     2270.379     2216.535      78.9874      158.164     289.9606      1.539     3.21     855.4473      55.8079     229.6526        14     1.113     0.780  72.56  16
        15     73.2079      5.5570 307.9109129  +6.6748860     808.6824     1087.942      1002.33     78.86112      158.164     295.7123      1.470     4.26     868.6147      55.8079     110.6095         9     0.902     0.789 -10.62  16
        16    819.8251      4.5521 307.6007382  +6.7003683     1924.934     2551.556     2602.399      78.9874     158.3529      284.478      1.432     3.18     851.9301      55.8079     280.6013        13     1.048     0.763  54.82  16
        17    255.4761      2.1815 307.8353006  +6.6824171      7045.88     9064.646     9187.929     77.45847     137.8263     251.7276      1.411     3.05     868.9508      55.8079     1037.991        25     1.296     0.986   1.41  24
        18    890.2397      2.5010 307.5715492  +6.7035693     1771.841     2154.029     2390.577     79.36504     141.9584     256.8619      1.410     3.77     849.6361      55.8079     232.3064        14     1.172     0.766  48.55  24
        19    431.7903      2.4631 307.7620359  +6.6882268     735.7122     910.4994     1499.833     78.86112     141.4661     255.8511      1.524     5.12     859.1933      55.8079     98.02356         7     0.905     0.818  77.79  24
        20    777.4922      1.8922 307.6184172  +6.7000504     547.0659     621.0974     625.0298     75.50378     134.3847      247.455      1.593     4.10     852.6762      55.8079     98.75836         6     1.021     0.470  32.05  24
        21    677.0992      1.3234 307.6601499  +6.6969244     2940.287     3763.161     4418.099     68.58698     125.9628     237.9276      1.037     2.13     853.0341      55.8079     949.5745        14     1.222     0.558   7.34  24
        22    647.1219      1.4620 307.6726009  +6.6958630     6338.074     7345.236      8037.06     70.87383     127.9255     240.4692      1.031     2.26     853.7033      55.8079     1671.679        16     1.066     0.617   7.37  24
        23    416.9243      1.4448 307.7682469  +6.6881481     5520.948     6401.027      6646.74     70.30909     127.7696     240.2204      1.067     2.79     860.2571      55.8079     1291.832        14     1.073     0.607   3.57  24
        24    226.4755    987.5905 307.8140746  +6.2745975     2007.181     2750.672     2541.291      78.9874     157.8486     316.4224      1.486     3.80     889.9666      55.8079     273.3711        17     1.237     0.901  86.58   0
        25    734.6641   1023.5790 307.6018859  +6.2767801      882.385       1022.2     825.3326     70.02502      127.379      239.722      1.029     2.80     886.8113      55.8079     201.2278         8     0.986     0.493   1.75  24
        26    719.2070   1023.7424 307.6082977  +6.2761956     1316.739     1577.468     1685.586      67.7095     124.5304     236.6255      1.095     2.96     887.0428      55.8079     333.0615        10     1.181     0.436  -1.62  24
        27    365.7479   1022.4019 307.7550826  +6.2649035     2084.136     2458.699     2237.512     78.73464     143.0077     257.9074      1.355     3.27     891.2723      55.8079     264.4166        15     1.082     0.855  73.94  24
        28    114.7148    986.3637 307.8605126  +6.2713449     719.6378     1164.667     1147.291     79.36504     158.2899     316.6113      1.551     5.06     888.1926      55.8079     133.6528         9     1.270     0.571 -78.68   0
        29    625.6039    985.4421 307.6484451  +6.2888762      1002.69     1192.807     691.5442     78.73464     158.0379     316.3279      1.327     4.70     886.4825      55.8079     163.4071        11     1.193     0.809 -88.91   0
        30    765.3793    981.1033 307.5905596  +6.2953451     7271.113     10768.83     12253.44     79.23936      158.164     316.4224      1.621     3.12     884.0866      55.8079     1037.277        42     1.614     1.210 -78.97   0
        31    817.1921    983.0041 307.5689842  +6.2962925     2519.009     3685.424     4360.071     78.73464     158.0379     316.4539      1.583     3.00     882.3168      55.8079     378.9407        20     1.125     1.004  63.03   0
        32    732.8979    981.8579 307.6040198  +6.2939471      639.748     637.1541     546.1207     79.11348     158.2899     316.7687      1.217     2.16     885.5505      55.8079     133.3677         6     0.713     0.550  46.63   0
        33    552.2025    980.0812 307.6790994  +6.2886308     984.9914     1423.365     1952.013     78.73464     157.9117     316.3594      1.396     4.27     888.1022      55.8079     151.5527         9     1.077     0.603 -89.34   0
        34    235.0038    979.9916 307.8107905  +6.2780216     1590.622     2235.686     1910.915     78.73464     158.0379     316.4539      1.446     3.08     889.8765      55.8079      276.723        12     1.087     0.719  61.58   0
        35    199.2065    979.4124 307.8256712  +6.2770572     934.4582     1484.645     1060.215      78.9874      158.164     316.5169      1.558     4.46     889.1342      55.8079     152.1436        11     1.204     0.691 -89.25   0
        36     59.7933    977.9391 307.8835973  +6.2729743     3171.713     4365.383     4965.353     78.73464      158.164     316.3594      1.452     3.02     889.3487      55.8079     490.8296        19     1.095     0.932  80.25   0
        37    953.6960    976.0958 307.5125414  +6.3037043     7286.811     10911.26     11088.84     79.36503      158.981     316.4539      1.570     3.19        880.6      55.8079     981.1134        31     1.310     1.122  56.58   0
        38    210.3185    972.1459 307.8213033  +6.2804310     696.7535     882.3378     658.2314     79.36503     158.3529     316.6743      1.443     4.58     889.2791      55.8079     98.40729         6     1.164     0.512  45.22   0
        39    635.6510    970.4326 307.6447783  +6.2954098     841.6207     1086.177     881.8683     79.23936     158.4158     316.5484      1.280     3.89      886.127      55.8079     122.0037         8     0.861     0.729  81.75   0
        40    927.3778    967.8253 307.5237456  +6.3062406     2223.216      3363.99     3355.168     78.86112      158.164     316.5484      1.637     3.46      881.462      55.8079     315.3267        18     1.210     0.920  57.26   0
        41    260.2698    963.7775 307.8008482  +6.2855651     5078.792     6967.725      7062.68      78.9874     158.2899     316.5799      1.486     2.93     889.7293      55.8079     762.0305        24     1.160     1.013  87.98   0
        42    786.9286    964.2695 307.5821776  +6.3030161      1441.45     2055.155      2140.69     79.36503     158.4787     316.5484      1.566     3.52     882.7206      55.8079     208.8401        15     1.108     0.893  37.41   0
        43    648.1302    963.6642 307.6398246  +6.2986222     5061.033     6917.452     7277.671     79.36503     158.4158     316.6113      1.404     2.67     885.8738      55.8079     820.4863        25     1.232     0.927  66.78   0
        44    997.2070    962.9307 307.4949169  +6.3105921     682.1605     1194.229     972.3998     78.86112     157.9748     316.5169      1.493     6.33     878.3933      55.8079     106.5345        11     1.364     0.825  41.65   0
        45    470.3613    962.0910 307.7136827  +6.2933148     1210.995      1503.04     1612.695     79.49051     158.2899     316.6428      1.340     3.52     888.7342      55.8079     203.7864        11     1.194     0.578  61.20   0
        46     28.9213    961.1788 307.8969800  +6.2788544     2398.956     3173.387     3399.261      78.9874     158.0379     316.6113      1.403     2.82     889.5594      55.8079     367.2136        16     1.075     0.858 -77.23   0
        47    880.0206    959.9486 307.5436719  +6.3079112     1016.084     1412.223     1631.052     78.86112     158.4158     316.4224      1.417     3.37     881.7186      55.8079     159.2139         9     0.888     0.746  19.48   0
        48   1004.0225    955.8779 307.4923233  +6.3137316     992.6538     1735.071     1486.926      78.9874      158.164     316.5799      1.850     6.41     878.0093      55.8079     127.9945        14     1.525     0.756 -88.31   0
        49    951.6039    957.4594 307.5140344  +6.3113293     802.6586     709.9847     346.5678     78.73464      158.227     316.3594      1.363     4.57     880.0872      55.8079     124.5428         9     0.938     0.778  16.14   0
        50    296.5533    957.0881 307.7860104  +6.2895462     991.9906     1469.772      1470.49     79.36503      158.227     316.7057      1.761     4.36     889.7799      55.8079     142.0245        10     1.137     0.701  71.34   0
        51    572.8362    956.1985 307.6713361  +6.2991829      1942.15     2579.511     2504.634     78.48106      158.164     316.3909      1.370     2.97     886.9948      55.8079     297.6406        16     1.109     0.839  73.03   0
        52    612.1091    952.6427 307.6551503  +6.3019666     1364.798     1991.136     2185.041     79.36503     158.3529     316.7057      1.590     3.46     886.0931      55.8079     221.9843        13     1.094     0.816  29.66   0
        53     61.6937    953.0663 307.8836490  +6.2833074       816.34     1357.083      1813.03     79.23936     158.5416     316.6113      1.740     3.37     888.5955      55.8079     124.0547         7     0.816     0.619  69.21   0
        54    292.0629    950.1028 307.7881102  +6.2922794     1534.689     2263.027     2428.405     79.23936     158.4787     316.6743      1.516     3.71     889.6059      55.8079     261.5196        13     1.208     0.689  89.41   0
        55    559.6775    948.1702 307.6770693  +6.3020567     721.5661     817.2861     798.8898     79.23936     158.4158     316.6113      1.351     4.41      887.098      55.8079     134.8961         7     0.970     0.651  49.75   0
        56    758.7948    945.9466 307.5944734  +6.3096406     945.8266     1043.619      681.577     78.73464     158.1009     316.2964      1.113     2.74     883.5372      55.8079     192.3345         8     0.876     0.570 -89.02   0
        57    896.4047    942.9125 307.5374404  +6.3154925     7801.962     11120.57     10898.67     78.86112     158.0379     316.2964      1.505     3.02     881.0461      55.8079     1072.362        31     1.267     1.071  64.07   0
        58    134.2490    944.3514 307.8538221  +6.2893478     662.2477     631.6688      705.229     79.36504      158.227     316.6113      1.192     4.45     888.0963      55.8079     115.9351         7     0.881     0.638  79.36   0
        59    432.3011    940.1440 307.7302232  +6.3010996     2446.667     3400.572     3499.204     79.11348     158.3529     316.8316      1.426     2.73      888.492      55.8079     396.1185        17     1.112     0.888  73.28   0
        60    601.3802    939.6727 307.6600408  +6.3069623     580.4449     641.7438     275.0353      78.9874     158.2899     316.5799      1.137     3.39     886.1265      55.8079     111.7058         5     1.048     0.317  68.39   0
        61    333.8725    938.3817 307.7711474  +6.2985232     10936.28     14963.09     15908.09     78.86112     158.2899     316.5484      1.440     2.67     889.1471      55.8079     1746.462        35     1.226     1.088  51.48   0
        62    254.0303    937.2944 307.8043320  +6.2962896     8076.865     10900.47     11337.35     79.49051     158.1009     316.5484      1.446     2.93     889.0292      55.8079     1231.827        27     1.199     1.006  81.46   0
        63    172.2385    935.2656 307.8383573  +6.2943771     452.8925     514.7175     296.4425     79.23936     158.2899     316.7057      1.217     3.78     888.3198      55.8079     95.39014         5     0.977     0.420  45.49   0
        64    581.9677    931.8816 307.6683625  +6.3095288     1415.575     1812.005     1515.476     79.23936     158.2899     316.5484      1.318     2.77     886.3358      55.8079     212.2194        10     0.870     0.709  76.33   0
        65    766.1155    931.1887 307.5919293  +6.3159788     731.5767     723.6014     722.6538      78.9874     158.1009     316.4539      1.177     2.92     882.9269      55.8079      120.996         6     0.726     0.579  48.68   0
        66    911.9231    928.0108 307.5314966  +6.3221635     1155.805     1757.177     2208.328      78.9874     157.9748     316.4539      1.487     3.88     880.2471      55.8079     192.5966        11     1.084     0.818  40.82   0
        67    144.4574    927.8896 307.8501400  +6.2964878     702.0477      941.459     813.7234     79.23936     158.2899     316.7372      1.474     4.18      888.109      55.8079      103.279         6     0.759     0.656  46.59   0
        68    868.9971    927.2962 307.5493436  +6.3210248     698.8686     1056.472     1287.606     79.11348     158.0379     316.2964      1.591     3.77     881.2458      55.8079      96.7951         5     0.820     0.497  50.57   0
        69    215.9796    927.3190 307.8204659  +6.2991290     545.6044      857.796     634.5292     79.11348     158.0379     316.5484      1.678     4.08     888.5876      55.8079     82.14246         5     0.824     0.577 -87.70   0
        70    410.4708    925.8810 307.7397670  +6.3062559     644.1505     923.3501     955.4694     79.61579     158.6673     316.6428      1.337     3.81     888.3383      55.8079     115.9037         6     0.834     0.499  89.71   0
        71    979.6062    922.9343 307.5035643  +6.3265190     749.6539     1092.652     925.0039     78.86112     158.1009     316.4224      1.637     5.37     878.1969      55.8079     88.60388        10     1.075     0.755  52.10   0
        72    748.3570    921.1312 307.5996401  +6.3195375     1851.355     2691.416     2703.718     79.36503     158.2899     316.6743      1.504     3.20     883.2694      55.8079     278.4788        18     1.186     0.904  82.51   0
        73    572.1683    921.2228 307.6727895  +6.3136013     817.9328     1219.033     1979.341     78.86112      158.164     316.3909      1.720     3.22     886.2083      55.8079     134.5909         8     0.806     0.693 -53.15   0
        74    624.2397    917.6731 307.6512893  +6.3168112     677.3535     845.8311     1250.691     79.23936     158.4158     316.6743      1.379     4.18     885.2856      55.8079     102.9578         6     0.745     0.668  67.66   0
        75    612.5521    917.9248 307.6561335  +6.3163159     1059.827     1210.053     1071.909     79.23936     158.4158     316.6113      1.375     4.27      885.504      55.8079     158.6134        10     1.153     0.648  30.68   0
        76    533.5345    916.8212 307.6889780  +6.3141239      1482.91     1823.647     1988.525      78.9874     158.3529     316.5169      1.280     3.01     886.7372      55.8079     215.1749        13     1.073     0.766  71.34   0
        77    979.6066    916.7072 307.5037727  +6.3290901     1381.032     1769.108     1140.932      78.9874     158.0379     316.4224      1.261     2.67      878.026      55.8079     219.8168        12     0.959     0.754  30.00   0
        78    667.0219    914.4289 307.6336354  +6.3195831     2983.318      3915.99      4184.24     78.73464     158.1009     316.4854      1.421     2.79     884.3946      55.8079     453.7929        19     1.072     0.974  71.04   0
        79    957.4294    912.2449 307.5131304  +6.3301924     707.9225     811.8337      815.051      78.9874     158.4158     316.4854      1.309     4.98     878.5544      55.8079     115.8542         8     0.860     0.817 -10.60   0
        80     63.5933    910.5291 307.8842980  +6.3009336     3391.774     4872.113     4955.488     78.86112     157.9748     316.5169      1.532     3.14     887.8245      55.8079     458.9441        23     1.280     0.971 -80.78   0
        81    827.6562    910.9810 307.5670556  +6.3263798     917.6312     1448.468     1717.082     78.86112     158.2899     316.4224      1.739     4.07     881.3124      55.8079     122.6464         9     1.012     0.746  46.48   0
        82     81.0670    909.8694 307.8770659  +6.3017942     2299.777     3208.253     3040.984     79.36503     158.4158     316.6113      1.482     3.81     887.7379      55.8079     357.3809        19     1.271     0.895 -89.42   0
        83    564.6364    910.7743 307.6762681  +6.3176630     510.0009     692.0262     677.1027      78.9874      158.164     316.3909      1.338     3.49     886.0095      55.8079     95.81995         5     0.756     0.464  77.81   0
        84    945.1011    909.6882 307.5183349  +6.3308365     890.0565     999.1369     917.0093     79.36503     158.7928     316.6428      1.333     3.59     878.8461      55.8079     143.6534        10     0.917     0.835  51.47   0
        85    207.2523    909.4742 307.8246914  +6.3062032     2588.106     3400.302     3583.963     79.36504     158.4158     316.6113      1.424     2.86     888.4731      55.8079     406.4455        19     1.055     1.013 -78.77   0
        86    346.0633    906.0457 307.7671761  +6.3122833     1038.355     1571.219     1510.867     79.23936     158.2899     316.6428      1.681     5.01     888.6769      55.8079     189.9758        13     1.286     0.912 -70.48   0
        87    241.2318    906.2537 307.8106927  +6.3086753     938.3716       1397.2     1121.319     79.23936     158.4158     316.5484      1.710     4.02      888.731      55.8079     118.1754        10     0.980     0.771  37.69   0
        88    799.1957    904.7838 307.5790805  +6.3279871     856.1223      1053.42     743.5181      78.9874     158.0379     316.4539      1.321     3.30     881.5598      55.8079     140.7908        11     0.919     0.838 -59.98   0
        89    661.6737    903.5108 307.6362228  +6.3239120     7999.438     10561.07     10889.03     79.36504     158.6044     316.6743      1.404     2.66     884.3832      55.8079     1209.673        29     1.183     1.024  57.06   0
        90     21.6728    901.8813 307.9019941  +6.3030921     1393.288     1977.662     1952.394     79.61579     158.6673     316.6428      1.605     3.94      888.002      55.8079     164.3513        15     1.177     0.851  52.73   0
        91    899.3839    899.7905 307.5376489  +6.3333966     3129.096     4280.523     4719.421     79.11348     158.1009     316.5169      1.494     3.03     879.8261      55.8079      434.204        19     1.155     0.926  76.35   0
        92    451.2730    900.9493 307.7236662  +6.3179187     636.1484     1056.897     1319.143     79.36503     158.4158     316.6428      1.759     3.10      887.736      55.8079     128.6147         7     0.856     0.580  67.61   0
        93     34.5802    899.9924 307.8966993  +6.3043067     1271.373     1814.227     2120.154      78.9874     158.1009     316.4224      1.396     3.67     887.9244      55.8079     229.7884        12     1.072     0.934  27.86   0
        94    344.6280    896.6336 307.7680892  +6.3161211     18811.35     25435.54     26312.92     78.86112     158.1009     316.3909      1.435     2.74     888.6191      55.8079     2843.255        39     1.246     1.090  70.18   0
        95     79.2640    897.8573 307.8782204  +6.3066930     1637.897     2290.632     1879.309     79.49051     158.2899     316.6428      1.440     3.33     887.6611      55.8079     257.8612        13     1.091     0.801  47.32   0
        96    215.4012    896.2302 307.8217552  +6.3119453     1546.514     2260.266     1834.385     78.73464      158.164     316.4224      1.458     3.21     888.5312      55.8079     214.3435        15     1.138     0.819  68.18   0
        97    422.3087    887.5692 307.7361425  +6.3224712     1218.798     1474.363     1132.698     79.49051      158.164     316.5799      1.233     3.39     887.5919      55.8079      221.249        10     1.114     0.581  47.09   0
        98    107.8895    887.4447 307.8666878  +6.3119556     1812.568     2524.648     2798.027     79.36503      158.227     316.7057      1.490     3.00     887.5168      55.8079     254.0546        15     0.967     0.945  21.88   0
        99    454.0972    886.0956 307.7229938  +6.3241462     530.9691      675.148     365.8258     79.36503     158.9183     316.4539      1.407     5.26     887.4315      55.8079     90.67572         7     1.321     0.592  77.60   0
       100    675.9672    883.3311 307.6309661  +6.3327224     922.2128     1285.233     2241.515     79.23936     158.3529     316.6428      1.522     3.16     883.9528      55.8079     171.3329         8     0.972     0.554  71.42   0
       101    502.9241    884.2368 307.7027836  +6.3265512     832.2441      1198.59     1501.339     79.23936     158.4158     316.6428      1.339     2.83     886.6258      55.8079     142.4641         7     0.741     0.646   7.01   0
       102    889.9039    881.4623 307.5421996  +6.3406475     2251.261     3016.805     2651.145     79.11348     158.4158     316.6743      1.457     3.09     879.5933      55.8079     321.2693        18     1.102     0.964  42.71   0
       103    860.6463    881.2083 307.5543563  +6.3397750     2275.999     3156.233     2447.835     78.86112      158.227     316.2649      1.418     3.15     880.3868      55.8079     323.3945        17     1.135     0.852  48.50   0
       104     91.4289    880.8307 307.8737453  +6.3141322     2860.593     3902.252     3972.938     78.86112     158.1009     316.3594      1.465     2.93     887.4503      55.8079     384.3863        18     1.102     0.898  70.88   0
       105    823.7789    880.4034 307.5696913  +6.3388753      3671.01     4841.368     5367.708      78.9874     158.0379     316.3909      1.402     2.86     880.9737      55.8079     564.5516        18     1.085     0.875  59.88   0
       106    559.7452    871.8731 307.6796074  +6.3335607     390860.9     521832.8     543744.9     79.23936      158.227     316.5484      1.407     2.67     884.8598      55.8079     60527.88       178     1.484     1.295  67.44   4
       107    454.5077    879.1338 307.7230578  +6.3270344     749.6154     900.2094     1117.278     79.23936     158.5416     316.6113      1.377     3.44     887.2894      55.8079     134.7254         5     0.996     0.344  67.15   0
       108    339.4347    878.6893 307.7708503  +6.3233555     772.7872     1225.422     1948.917     79.49051     158.2899     316.6113      1.729     5.03     888.5333      55.8079     128.2665        11     1.326     0.759  62.33   0
       109    404.0322    874.4225 307.7441737  +6.3272858     9030.573     12119.49     12552.71     78.86112      158.164     316.3909      1.425     2.70     887.5744      55.8079     1376.138        33     1.251     1.036  63.51   0
       110    647.4584    874.9935 307.6430834  +6.3352104     1272.642     1610.884     1611.243     78.73464      158.227     316.3279      1.290     2.98     884.2201      55.8079     219.2258        10     0.980     0.626  29.37   0
       111    347.2100    872.8346 307.7678194  +6.3260338     14350.07     19382.47     20271.96     78.86112     158.1009     316.4224      1.410     2.72     888.4373      55.8079     2232.842        34     1.196     1.072  69.52   0
       112    665.5831    869.1348 307.6357547  +6.3382362     4068.079     5413.454     5659.035     78.86112      158.227     316.4854      1.374     2.74     883.9802      55.8079     584.8907        20     1.154     0.876  57.33   0
       113    897.7589    868.0273 307.5393884  +6.3464571      5821.49     8390.904      9863.17      78.9874      158.164     316.4539      1.600     3.24     879.0227      55.8079     885.5923        30     1.608     1.127  -3.08   0
       114    737.4300    866.2386 307.6060201  +6.3418364     743.5547     1225.592     1597.269      78.9874     158.1009     316.4854      1.796     3.80     881.6999      55.8079     121.2917         7     0.909     0.563  35.95   0
       115    640.3735    863.1881 307.6464218  +6.3398475     3753.001     4861.868     5250.187      78.9874      158.164     316.5484      1.346     2.68     884.0579      55.8079     571.0328        18     1.099     0.842  54.23   0
       116    828.9076    862.2772 307.5681698  +6.3465308     1871.067     2511.751     2859.339     79.11348     158.5416     316.6428      1.358     2.88     880.6026      55.8079     296.1003        12     0.973     0.758  55.63   0
       117    630.6005    862.0598 307.6505176  +6.3399861     1132.167      1437.03     1599.641     78.60796      158.164     316.2964      1.287     3.42     884.0895      55.8079     169.2479        10     0.899     0.847  27.71   0
       118    955.8505    861.0851 307.5155000  +6.3512631     969.8331     1275.823     1284.396     79.36503     158.2899     316.6743      1.358     3.00     877.1043      55.8079      156.709        10     0.921     0.700   7.52   0
       119    633.3434    857.5947 307.6495288  +6.3419215      2414.01     3334.278     3865.519     78.86112      158.227     316.3279      1.557     3.19     883.9349      55.8079     338.9167        18     1.187     0.867  77.83   0
       120    917.0279    855.8541 307.5317955  +6.3521268     3729.343      5292.18     5482.225     79.11348     158.4158     316.5169      1.503     3.01     878.0782      55.8079      585.928        24     1.218     1.021  59.88   0
       121    327.2056    856.6801 307.7766697  +6.3320318     1233.459     1707.004     1555.318      78.9874     157.9117     316.3909      1.504     3.10     888.3286      55.8079     190.3723        11     1.007     0.704  54.71   0
       122    375.0490    851.8215 307.7569689  +6.3356444     3245.778      4340.25     4675.097     78.86112     158.4158     316.4854      1.395     2.70     887.5125      55.8079     503.7443        20     1.114     0.919  66.98   0
       123    855.3597    847.3051 307.5576885  +6.3535967     605.8308     696.7112      1259.16     79.36504     158.2899     316.7057      1.230     3.41     879.4697      55.8079     100.1418         5     0.755     0.445  72.89   0
       124    511.3772    841.4899 307.7007125  +6.3444840     3711.786     4765.391     4915.858     79.36504      158.164     316.4854      1.359     2.59     885.0082      55.8079     576.3462        22     1.248     0.902  63.17   0
       125    855.8490    840.6951 307.5577070  +6.3563422       1056.6     1429.651     1709.618     79.23936      158.227     316.7687      1.483     3.55     879.2083      55.8079     143.4675        11     1.029     0.777  62.41   0
       126    576.5585    839.1075 307.6737284  +6.3476524     975.0644     1316.456     1408.362     79.36503     158.2899     316.7057      1.474     3.59     883.6089      55.8079      139.222        11     1.065     0.752  -8.11   0
       127    558.2478    837.6322 307.6813809  +6.3476479     7031.034     9472.588      9951.65     79.11348     158.3529     316.5484      1.442     2.82      883.638      55.8079     1019.531        31     1.201     1.049  69.59   0
       128    564.9729    836.8210 307.6786158  +6.3482082     1477.648     2161.635     2119.596     78.86112      158.164     316.5799      1.507     3.31     883.5771      55.8079     237.2695        15     1.122     0.876  68.34   0
       129    269.6040    837.7800 307.8012231  +6.3378998     706.8793     1030.758     949.9516      78.9874     157.9748     316.4224      1.370     3.45     888.4491      55.8079      124.826         5     0.731     0.471  76.42   0
       130    893.7071    835.8676 307.5421490  +6.3596002     1539.956     2023.707     2146.095     79.23936     158.5416     316.6428      1.360     3.66      878.027      55.8079     215.2468        15     1.210     0.795  60.98   0
       131    475.9402    836.4499 307.7155960  +6.3453766     1837.642     2448.663     2691.213     79.36503     158.2899     316.6743      1.409     2.78     885.9488      55.8079      316.621        14     0.957     0.926  26.25   0
       132    117.6989    835.7053 307.8643632  +6.3336474     1713.695     2330.166     2243.589     79.36504     158.8556     316.4539      1.364     3.19      887.028      55.8079     238.3508        12     1.020     0.723  67.37   0
       133    693.7122    834.5432 307.6252372  +6.3534601     993.5861     1054.695     945.4602     79.36504      158.227     316.7372      1.231     2.71     882.2536      55.8079     148.0963        10     0.825     0.805 -51.55   0
       134    528.8633    831.4918 307.6937885  +6.3491983     23208.03     30686.81        32090     79.36503     158.5416     316.6743      1.403     2.69     883.9928      55.8079     3629.234        47     1.270     1.097  69.52   0
       135    369.9807    833.0410 307.7597062  +6.3432283     913.1038      1286.84     1523.848      78.9874      158.164     316.3594      1.432     4.80     886.9391      55.8079     123.0874         9     0.903     0.805   4.42   0
       136    175.3623    831.2281 307.8405731  +6.3374362     645.3991     560.8157     208.2405     78.86112     158.0379     316.4539      1.180     3.82     887.4083      55.8079     103.0087         5     0.986     0.424  75.22   0
       137    942.4649    829.8597 307.5221045  +6.3637090     4451.892     6187.359     6078.812     79.49051     158.2899     316.6428      1.473     3.04     876.6088      55.8079     608.6964        21     1.226     0.892  54.53   0
       138    696.7001    823.4030 307.6243707  +6.3581598     681.0377     796.1673      692.288     79.11348     158.1009     316.2649      1.263     4.56     881.8345      55.8079     134.6724         9     1.175     0.718  77.27   0
       139     39.2582    821.8832 307.8973980  +6.3367128     1738.994     2377.311     2533.438     79.36503     158.3529     316.6743      1.413     2.87     886.3912      55.8079     295.5072        11     0.983     0.719  73.99   0
       140    168.9861    822.3770 307.8435193  +6.3408760      422.763     711.6877     549.6594     79.11348      158.164     316.5169      1.468     4.32     887.2526      55.8079      76.7359         5     0.831     0.641 -88.22   0
       141    584.1462    820.5645 307.6712015  +6.3555627     676.1168     1179.251      1076.02     79.23936     158.3529     316.6428      1.969     4.49     882.9507      55.8079      98.2605         7     1.258     0.456  68.99   0
       142    321.4975    820.2217 307.7802690  +6.3468928     3944.595       5173.7     4997.118     79.23936      158.164     316.4224      1.396     2.83     887.5713      55.8079     552.8879        20     1.151     0.918  60.63   0
       143    787.0505    816.1527 307.5870979  +6.3641758     63940.52     85668.82     88884.65     79.36503      158.227     316.6113      1.415     2.81     880.4266      55.8079     10002.19        63     1.308     1.146  58.08   0
       144     21.3462    818.3213 307.9049553  +6.3375800     2435.616     3292.721     3087.968     79.49051     158.3529     316.6428      1.358     2.74       886.14      55.8079     338.4238        17     1.110     0.837  64.88   0
       145    725.6263    817.8660 307.6125457  +6.3614139     844.5428     1280.238     1342.337      78.9874     158.2899     316.4854      1.670     4.53     881.2006      55.8079     113.7802         9     0.982     0.726  42.03   0
       146    244.2825    813.9843 307.8125395  +6.3468733     6097.905     8861.437     10742.96      78.9874     158.0379     316.4854      1.587     2.99     887.8095      55.8079     900.4016        35     1.393     1.101  59.26   0
       147    430.0898    814.7425 307.7353647  +6.3528009     794.0229     1215.302     1363.701     79.23936     158.2899     316.7372      1.601     4.79     885.7479      55.8079     109.0962         9     1.017     0.640  56.47   0
       148    912.3239    811.4315 307.5352379  +6.3703114     10025.83     13606.71     14475.54     79.23936     158.4158     316.5799      1.453     2.67      876.785      55.8079     1526.888        33     1.241     1.062  64.09   0
       149    715.2541    810.7701 307.6170909  +6.3639966     25034.77        33766     35636.88     79.11348     158.4158     316.5169      1.419     2.71     881.2303      55.8079     3722.509        49     1.340     1.116  75.97   3
       150    708.9737    807.2021 307.6198186  +6.3652596     102246.4       136822     142381.5     78.86112     158.0379     316.4224      1.410     2.77     881.2173      55.8079     16094.67        79     1.334     1.177  66.44   3
       151    353.8673    808.0475 307.7672391  +6.3530064     23530.35     31858.93     33712.03     79.36503     158.2899     316.6428      1.418     2.80     886.2119      55.8079     3607.856        49     1.318     1.115  60.91   0
       152    212.7926    810.3361 307.8257374  +6.3473208     562.7274     927.0833     1543.536     78.86112     158.0379     316.4539      1.658     4.71     887.3883      55.8079     75.42706         6     0.948     0.663 -75.63   0
       153    643.0587    807.8464 307.6471670  +6.3627871     990.0448     1360.714     1648.616     79.36503     158.3529     316.7372      1.450     4.52     882.0699      55.8079     164.8878        10     1.088     0.773  58.81   0
       154    403.1411    808.3076 307.7467711  +6.3545534     1674.448     2504.125     2548.133     79.23936     158.2899     316.7372      1.569     4.03     885.8161      55.8079     236.5583        13     1.192     0.722  64.84   0
       155    415.7280    805.8821 307.7416265  +6.3559772      25949.1     34596.79     35475.74     79.61579     158.6673     316.6428      1.398     2.69     885.6581      55.8079     3991.766        46     1.229     1.128  61.84   0
       156    952.8143    805.1830 307.5186339  +6.3742433     2191.041     3194.856     2922.848     79.11348     158.0379     316.5484      1.534     3.23      875.548      55.8079     323.7018        19     1.147     0.977  79.13   0
       157    243.8059    792.3336 307.8134680  +6.3557962     761672.6      1613399      1776584     78.86112     158.1009     316.4224      2.157     4.25      887.311      55.8079     63961.64       592     2.375     2.136  74.17   4
       158    881.9009    804.1846 307.5481138  +6.3722874     873.5245     1172.734     1114.035     79.36503     158.1009     316.3279      1.314     4.18     877.0884      55.8079     132.0608         9     0.977     0.667  57.32   0
       159    649.8167    801.8473 307.6445625  +6.3654903      7549.91     9843.507     9807.312     78.86112     158.2899     316.3594      1.332     2.64     881.7681      55.8079     1207.244        28     1.182     0.990  72.30   0
       160    390.2740    801.8141 307.7523325  +6.3568024     584.5749     973.4844     605.3178     78.86112     158.1009     316.4539      1.557     5.87     885.7358      55.8079     82.47852         8     1.315     0.737  21.23   0
       161    139.7935    802.0306 307.8563273  +6.3482941      498.413     511.1536     543.5825     78.73464     158.1009     316.3909      1.090     3.91     886.8238      55.8079     83.97778         6     0.918     0.476  53.78   0
       162    438.5602    799.8196 307.7323503  +6.3592465     1981.163     2423.865     2194.834      78.9874      158.164     316.3279      1.280     2.76     885.2123      55.8079     273.5181        14     0.991     0.814  64.72   0
       163    163.4963    799.1841 307.8465819  +6.3502670     1045.207     1185.573     1063.811     79.23936      158.164     316.4539      1.242     3.03     886.9754      55.8079     176.3043        10     1.015     0.656  46.91   0
       164    877.6290    793.9066 307.5502323  +6.3763884     813.8646     1213.464     1126.962     79.49051     158.1009     316.5169      1.496     5.02     876.9019      55.8079     122.4001        10     1.177     0.810  14.58   0
       165    603.1373    793.9583 307.6642105  +6.3671842     1119.798     1451.523     1510.331     79.36503     158.2899     316.6743      1.451     4.57     881.9886      55.8079     174.9492        12     1.158     0.758  58.30   0
       166    684.8942    792.1046 307.6303245  +6.3706873     2739.569     3458.578     3504.746     79.36503      158.981     316.5484      1.355     2.80     881.0398      55.8079     408.8494        19     1.062     0.945  58.20   0
       167    154.0180    792.7916 307.8507333  +6.3525873      1178.66     1428.161     1693.671     79.11348     158.1009     316.4539      1.211     3.41     886.8143      55.8079     185.8357         8     0.958     0.581  63.99   0
       168    129.1270    792.3342 307.8610836  +6.3519385     1225.364     1612.845     1567.384     79.49051     158.4158     316.6113      1.445     3.00     886.5721      55.8079     195.9879        11     0.989     0.733  43.53   0
       169    961.4781    790.4587 307.5155296  +6.3806120     890.1537     1197.566     790.2816     79.49051     158.3529     316.5484      1.324     3.59     874.9166      55.8079     138.8684         8     0.974     0.588  42.65   0
       170    418.6792    788.5696 307.7409843  +6.3632242      62716.8     83609.07     86784.16     79.23936     158.3529     316.5799      1.424     2.70     885.1096      55.8079     9507.684        66     1.296     1.189  61.22   0
       171     70.6263    789.8349 307.8854576  +6.3510009     512.9199      571.965     423.4818     78.73464     158.1009     316.3594      1.156     2.94     885.9791      55.8079     98.84338         6     0.725     0.623 -15.49   0
       172    536.4294    787.5903 307.6921240  +6.3675780     8351.833     10969.25     11639.72     78.86112      158.164     316.4539      1.394     2.59     882.2131      55.8079      1191.63        29     1.128     1.026  59.83   0
       173    453.2704    786.1945 307.7267011  +6.3653656     5201.672     6817.379      7012.36     78.86112     157.9748     316.4854      1.394     2.73     884.5118      55.8079     803.6322        23     1.133     0.970  64.49   0
       174    781.5999    784.2247 307.5904329  +6.3771762     13549.52     18268.05     18758.41     78.86112     158.0379     316.4224      1.425     2.64     879.3585      55.8079     1967.995        38     1.237     1.103  48.76   0
       175     10.9725    780.1101 307.9105547  +6.3530065     1305.725     1659.236     1551.147     79.49051     158.1009     316.4854      1.345     2.81     885.3555      55.8079     216.2924        10     0.863     0.733  75.62   0
       176    449.6940    779.4836 307.7284121  +6.3680163     2671.639     3655.782     3731.187     79.11348     158.7301     316.7372      1.417     2.84     884.2968      55.8079     381.1019        19     1.062     1.005  50.65   0
       177    803.1682    778.4090 307.5816719  +6.3802986     1375.705     1812.164     1713.313     78.86112      158.164     316.4539      1.335     2.38     878.5795      55.8079     244.3783        11     0.927     0.679  70.56   0
       178    139.3946    776.1797 307.8573661  +6.3589538     13114.98      18033.8     19343.09      78.9874     158.0379     316.4224      1.458     2.79     886.4106      55.8079     1933.229        37     1.271     1.078  68.20   0
       179    909.1758    802.8243 307.5368336  +6.3737601     7434.718     10220.48     10643.93     78.86112      158.164     316.4854      1.440     2.73     876.5814      55.8079     1189.524        28     1.218     1.011  56.15   0
       180    147.5796    776.3519 307.8539618  +6.3591581     3536.381      4719.13     4791.201     78.86112     158.3529     316.4224      1.440     2.93     886.4973      55.8079     514.7862        18     1.088     0.919  83.67   0
       181    131.6029    773.6495 307.8606868  +6.3597362     3366.313     4780.944     6105.079     78.73464     158.0379     316.2018      1.667     3.00     886.3111      55.8079     474.9691        23     1.290     0.933  64.98   1
       182    927.1363    772.7652 307.5303832  +6.3867710     7386.659     10002.25     10558.59     79.23936     158.4158     316.6113      1.454     2.97     875.2898      55.8079     1067.984        31     1.306     1.013  64.46   0
       183    976.4197    772.6936 307.5099203  +6.3884458     1849.141     2369.125     2869.578     79.23936      158.164     316.4854      1.363     3.06     874.1627      55.8079      251.876        13     1.060     0.753  55.10   0
       184    682.6053    770.4803 307.6320015  +6.3795390     1927.431     2362.625       2798.2      78.9874     157.9117     316.3909      1.283     2.72      880.379      55.8079     305.2635        13     0.932     0.813  48.98   0
       185    569.4141    769.7639 307.6790274  +6.3760438     2988.566     3917.221     3938.573      78.9874      158.164     316.3909      1.385     2.76     881.2762      55.8079     462.8429        16     1.029     0.885  57.25   0
       186    417.5337    769.4722 307.7421033  +6.3710707      1518.08     1843.683     1972.252     79.36504     158.4158     316.6743      1.311     3.52     884.4864      55.8079     236.1584        14     1.138     0.791  38.69   0
       187    131.7125    767.2557 307.8608573  +6.3623797     2186.594     2943.803     3762.021     79.36504      158.227     316.7687      1.468     2.90      886.199      55.8079      310.014        17     1.218     0.830  67.63   1
       188    700.9914    768.1713 307.6244443  +6.3811078     508.0065     671.6868     385.3858      78.9874      158.164     316.4224      1.306     3.76     880.1285      55.8079     81.35236         5     0.808     0.502  56.35   0
       189    921.3145    764.9141 307.5330639  +6.3898182     3459.222     4656.265     5130.707     79.11348     158.4787     316.6743      1.376     2.59     875.1857      55.8079     569.7891        20     1.054     0.946  47.96   0
       190    981.6147    764.1437 307.5080495  +6.3921494     2104.881     2749.111     2814.637     78.73464      158.227     316.3279      1.335     2.82     873.8634      55.8079     316.7284        17     1.091     0.844  66.28   0
       191    950.8397    764.3054 307.5208237  +6.3910554     3396.817      4557.75     4369.788     79.49051     158.2899     316.7057      1.403     2.73      874.493      55.8079     494.1732        20     1.132     0.940  68.80   0
       192    673.7022    764.0355 307.6359150  +6.3819020     1743.895     2401.463     2167.215     79.36503      158.227     316.7687      1.443     3.11     880.2875      55.8079     232.3667        13     0.959     0.842  89.39   0
       193    821.0158    762.2867 307.5748016  +6.3875520     1248.012     1785.496     2560.777      78.9874     158.1009     316.5169      1.465     3.52     877.3684      55.8079     174.2037        12     1.070     0.739  76.60   0
       194    896.3011    760.0753 307.5436131  +6.3909807     797.9247     1178.137     1560.525     78.86112     158.4787     316.5169      1.536     2.83     875.7268      55.8079      128.086         7     0.746     0.636  89.60   0
       195    246.0962    758.8771 307.8136460  +6.3696865     2117.153     3256.686     3969.517     79.11348     158.5416     316.6743      1.686     3.88     886.3217      55.8079     294.6211        20     1.287     0.941  47.07   0
       196    683.3107    756.2382 307.6321871  +6.3854430     694.7265     950.9772     1127.021     79.36504     158.2899     316.6428      1.248     2.66     879.9453      55.8079     145.1876         5     0.733     0.438  75.37   0
       197    939.1362    754.6650 307.5260068  +6.3946451     1246.183     1360.127     965.0341     79.36503     158.3529     316.6113      1.250     2.98     874.4619      55.8079     210.0201        11     1.020     0.701  16.73   0
       198    266.4803    754.6865 307.8053235  +6.3721019     875.9358     1060.792     1312.672     79.11348     158.6044     316.7372      1.337     3.81     886.2507      55.8079     142.2345         9     0.989     0.677  53.57   0
       199    162.1409    754.3817 307.8486578  +6.3687189     824.4309     915.7755     653.6833      78.9874      158.227     316.3909      1.406     3.80     886.2899      55.8079      122.157         7     0.855     0.615  76.05   0
       200    912.8381    753.2055 307.5369763  +6.3943695     1444.581     1953.951     2066.264     78.48106     158.1009     316.3594      1.432     3.51     875.0482      55.8079     222.5004        13     1.080     0.826   5.87   0
       201    965.6865    752.2264 307.5150631  +6.3965383     2770.269     3648.779     4060.574     79.49051      158.164     316.4854      1.403     2.83     873.9166      55.8079     414.3572        17     1.088     0.842  46.61   0
       202    685.1139    751.0246 307.6316135  +6.3876560       1203.3     1734.978     1982.904     79.36503      158.164     316.4539      1.485     3.05     879.7693      55.8079     190.5398        11     0.999     0.694  89.12   0
       203    476.6645    746.7379 307.7183157  +6.3824412     615.9127       784.04     727.8326     79.36504     158.3529     316.6428      1.323     4.17     882.5419      55.8079     109.9926         6     0.755     0.657  10.02   0
       204    406.1450    746.6177 307.7476023  +6.3801245      782.839     892.9814     421.1078     78.86112     158.2899     316.3594      1.352     3.88     884.0317      55.8079     106.2891         9     0.917     0.683  62.92   0
       205   1007.5563    745.6767 307.4978955  +6.4006399     1961.764     2484.715     2860.073     79.23936     158.3529     316.6428      1.364     2.66      873.149      55.8079     310.4131        13     0.936     0.836  54.55   0
       206    633.9203    745.0648 307.6530721  +6.3884026      774.858     793.8463     583.6446     79.61579     158.4158     316.5799      1.372     4.56     879.9644      55.8079     116.7081         8     1.116     0.676  85.65   0
       207    808.6826    744.3183 307.5805261  +6.3945586     1382.609      1899.94     1694.459     79.11348     158.6044     316.7057      1.473     3.14     876.6215      55.8079     213.6944        11     0.944     0.787  66.41   0
       208    895.0287    741.2457 307.5447729  +6.3987128     1807.137     2695.879     2931.541     78.86112     158.4158     316.5169      1.481     2.96     875.2922      55.8079     301.0618        15     1.073     0.863  66.60   0
       209    869.4180    736.6484 307.5555623  +6.3997553     1118.535     1257.122     1610.879     78.86112     158.4158     316.4224      1.198     3.45     876.0807      55.8079     185.4572        10     1.063     0.690  55.11   0
       210    655.5153    736.4650 307.6443938  +6.3926765     528.5876     759.2386     1025.788     79.49051     158.5416     316.6743      1.332     3.63     879.5215      55.8079     100.4777         5     0.915     0.535  46.05   0
       211     51.0607    731.5476 307.8955520  +6.3744068     2895.225     4097.056     4008.118     79.36503     158.2899     316.6113      1.451     2.92     885.2977      55.8079     422.5049        21     1.227     0.912  59.06   0
       212    851.9778    732.7661 307.5629348  +6.4007756      1715.79     2063.222     2120.524     78.86112      158.164     316.3594      1.332     2.98      876.114      55.8079     273.7856        11     0.901     0.799  69.97   0
       213    115.5344    732.0399 307.8687646  +6.3763746     824.8801     1656.953     2509.281     79.36503     158.2899     316.7372      2.629     4.89     885.4647      55.8079     145.5068         7     1.079     0.628  77.98   2
       214    463.2279    730.3985 307.7244454  +6.3887366     654.5712     774.9388     804.3894     78.86112     158.1009     316.3909      1.296     3.14     882.2124      55.8079     98.14282         5     0.724     0.461  17.30   0
       215    706.6513    723.8766 307.6235821  +6.3995859     617.4391     667.6255     674.7412     79.36503     158.4158     316.6113      1.231     2.31     878.5569      55.8079     132.4826         5     0.731     0.424  68.52   0
       216    663.7480    720.2042 307.6415216  +6.3996660      7450.94     9905.847     10388.65     78.73464      158.164     316.2334      1.366     2.70     878.8204      55.8079     1065.926        29     1.178     1.042  57.16   0
       217    610.5951    719.6016 307.6636141  +6.3981347     1533.297      1983.62     2045.209     78.73464     157.9117     316.3909      1.307     2.85     879.5219      55.8079     271.7159        13     1.027     0.769  50.81   0
       218    532.0938    719.9494 307.6962006  +6.3953604     755.2783     980.0604     783.8209     79.23936      158.227     316.8001      1.411     3.93     880.5562      55.8079     113.9593         7     0.897     0.523  47.87   0
       219    521.4798    720.0652 307.7006042  +6.3949567     820.2979     1148.347      1033.26     79.61579     158.4158     316.5799      1.394     4.76     880.7591      55.8079     139.6591         9     1.050     0.611  40.57   0
       220    637.5540    715.8359 307.6525458  +6.4005925     2623.143     3448.667     3524.644     79.11348     158.2899     316.5169      1.341     2.60     879.0479      55.8079     404.7505        17     1.060     0.889  25.12   0
       221    126.7069    715.9929 307.8646677  +6.3833760     4144.124     5749.606     5970.622      78.9874     158.0379     316.4224      1.455     2.82     885.2695      55.8079     619.4813        21     1.131     0.978  39.90   0
       222   1000.7953    715.4109 307.5017169  +6.4129108     2966.269     4055.953     4056.329      78.9874     158.1009     316.5169      1.470     2.89     872.6321      55.8079     404.3517        18     1.073     0.947  28.00   0
       223    313.2250    715.7960 307.7872254  +6.3897297     800.9427     990.3682      965.752     78.86112     158.1009     316.4539      1.283     4.38     884.3069      55.8079     127.7903         7     0.914     0.597  40.26   0
       224    248.9570    715.8096 307.8139116  +6.3875641     743.9196     887.8127     696.3063     78.86112      158.164     316.3594      1.307     4.03     884.7761      55.8079     153.8376         6     0.825     0.562  32.34   0
       225    780.6658    712.2119 307.5932382  +6.4068782     23305.05     31079.38     32293.45     78.86112      158.164     316.4854      1.387     2.61     876.6838      55.8079     3466.867        45     1.255     1.100  62.49   0
       226    910.6559    712.0317 307.5392630  +6.4112969     4171.858     5560.954     5476.561     79.23936     158.3529     316.5484      1.334     2.79      874.187      55.8079     707.7156        20     1.119     0.890  57.57   0
       227    479.7542    712.5092 307.7181853  +6.3966771     1621.521     2158.011     2519.884     79.36504     158.2899     316.7372      1.352     2.98     881.2952      55.8079     235.6381        15     1.057     0.832  43.58   0
       228    508.1577    712.0305 307.7064067  +6.3978274     822.7401     1029.752     951.8333      78.9874     158.2899     316.4539      1.174     2.00     880.8167      55.8079     206.7209         7     0.814     0.480  40.69   0
       229    325.2414    712.1225 307.7823596  +6.3916500      791.278     999.7461     991.6501     79.23936     158.3529     316.6743      1.428     2.93     883.9188      55.8079      124.987         6     0.739     0.562  49.11   0
       230    281.9714    711.8023 307.8003379  +6.3903283     655.0898     844.8354     395.0402     78.86112     158.1009     316.4224      1.345     3.34      884.528      55.8079     101.1179         7     0.710     0.698 -47.00   0
       231    661.1498    705.0957 307.6431084  +6.4058170     8005.694     10731.06     11460.24     79.23936     158.2899     316.7687      1.372     2.71     878.2687      55.8079     1301.086        27     1.150     1.013  45.53   0
       232    643.3202    706.2583 307.6504733  +6.4047400     1113.476     1704.872     1644.729     79.36504     158.4158     316.5799      1.672     3.75     878.6588      55.8079     143.3873        11     0.985     0.798  46.40   0
       233    254.1177    705.7939 307.8121067  +6.3918728     7039.652     9728.177     9727.209      78.9874     157.9748     316.3909      1.432     2.88     884.3548      55.8079      1074.05        27     1.241     0.974  64.05   0
       234    356.4394    704.7277 307.7696541  +6.3957511     777.1002      1286.53     1396.969     79.23936     158.3529     316.6743      1.728     5.85     883.0035      55.8079     108.6285        10     1.304     0.750 -83.70   0
       235    921.3104    697.7437 307.5353174  +6.4175521       1566.4      1975.38     1456.598     79.23936     158.2899     316.7372      1.391     3.05     873.7192      55.8079     225.9516        12     0.996     0.770  51.27   0
       236    732.9171    693.5002 307.6136952  +6.4130067     4156.575     5838.403     6487.768     79.36503     158.8556     316.7057      1.474     2.89     877.1147      55.8079     588.0827        25     1.238     0.987  68.60   0
       237    687.9283    693.6148 307.6323739  +6.4114539     1213.185     1675.165     1761.811     78.86112      158.227     316.4854      1.528     4.35     877.4315      55.8079     191.8036        14     1.137     0.985 -58.57   0
       238    999.1705    690.0770 307.5032403  +6.4233168     10263.96     13876.84     14395.65     79.23936     158.4158     316.6428      1.395     2.72     872.0909      55.8079     1617.039        35     1.244     1.066  66.42   0
       239    937.7789    690.6962 307.5287146  +6.4210119      2702.31      3541.83     3374.116     79.23936      158.164     316.4224      1.337     2.88     873.2916      55.8079     456.4011        19     1.200     0.823  49.39   0
       240     18.1263    689.8474 307.9106374  +6.3905138     2053.039     3247.683     3785.501     79.23936     158.4158     316.6113      1.758     4.62     885.0941      55.8079     298.9066        20     1.448     0.944  22.43   0
       241    434.7955    688.1191 307.7376761  +6.4052389     723.0093     1129.888     779.1229      78.9874     157.9117     316.3594      1.652     5.67     881.3362      55.8079     93.45709         9     1.146     0.790 -30.12   0
       242    551.7581    688.3812 307.6890971  +6.4090535     638.5154      817.427     462.0874     78.86112      158.164     316.3909      1.191     3.08     879.8773      55.8079     113.0668         5     0.706     0.478  -9.67   0
       243    537.8238    685.8889 307.6949674  +6.4096154     2426.746     3508.622     3552.573     79.36503      158.164     316.4854      1.485     3.04     880.0106      55.8079     378.5212        20     1.218     0.926  43.89   0
       244     76.5561    684.8234 307.8865454  +6.3945563     28747.06     39705.55     41017.79     78.86112      158.227     316.4224      1.467     2.85     884.8706      55.8079     4003.404        48     1.323     1.116  65.62   0
       245    506.4677    682.9213 307.7080884  +6.4097893     1660.903      2341.61     2614.014     79.49051     158.4787     316.6113      1.448     3.34     880.1684      55.8079     244.0872        15     1.060     0.890 -63.93   0
       246    927.7070    682.1253 307.5331846  +6.4242144     1192.017     1586.208     1606.659     79.36503     158.4787     316.5799      1.344     3.02     873.3691      55.8079     175.8922        10     0.894     0.747 -24.50   0
       247    546.9316    679.6537 307.6913951  +6.4124951     1186.933     1415.455     1091.014     79.36503     158.2899     316.5484      1.422     2.87     879.8666      55.8079     201.4261        13     0.972     0.868  38.01   0
       248    722.5596    677.1229 307.6185465  +6.4194222     4037.093     5374.676     5390.247     79.23936     158.3529     316.6428      1.379     2.73     876.4941      55.8079     607.7288        20     1.100     0.963  78.32   0
       249    744.5045    675.3277 307.6094936  +6.4208976     4706.396      5988.25     6126.448     79.23936     158.4787     316.5799      1.355     2.71     876.3016      55.8079     737.5376        21     1.074     0.967  75.09   0
       250    576.0026    673.3620 307.6795345  +6.4160672     3846.141     5000.409     4680.357     78.48106     158.1009     316.3909      1.373     2.68      879.321      55.8079     601.4042        18     1.056     0.884  87.52   0
       251    412.1559    673.8284 307.7475589  +6.4103794     1549.131     2285.766     2357.535      78.9874     158.4158     316.5169      1.588     3.63     881.1533      55.8079     243.2661        15     1.186     0.846  53.39   0
       252    236.6200    672.7170 307.8204889  +6.4049410     1983.173     2775.107     2483.854      78.9874     158.0379     316.5484      1.489     3.58     883.0424      55.8079     266.7501        15     1.140     0.845  52.24   0
       253   1017.4365    671.5033 307.4962769  +6.4315952     5785.463     7690.104     7398.602     79.36504      158.227     312.9067      1.379     2.67     871.2963      55.8079     840.0833        26     1.140     0.997  66.40  16
       254    320.2837    672.2971 307.7857614  +6.4079264     1613.419     1993.814     2168.395     79.36504     158.7301     316.6743      1.365     2.89     882.0243      55.8079     242.4958        12     0.965     0.781  53.88   0
       255    982.8643    670.4269 307.5106705  +6.4308860     9205.295     12046.14     12569.49      78.9874     158.2899     316.5169      1.370     2.60      871.996      55.8079     1421.113        28     1.154     0.997  59.91   0
       256    536.5231    671.2149 307.6960014  +6.4156304     640.1922     845.5428     601.8006      78.9874     158.0379     316.4539      1.512     3.72     879.7665      55.8079     130.0737         6     0.916     0.692  27.22   0
       257    702.6541    669.1874 307.6270795  +6.4220325     1124.661     1436.195     1470.446     78.73464     158.2899     316.3279      1.303     2.79     876.4208      55.8079     188.8466        10     0.843     0.782  54.10   0
       258     94.1875    666.9187 307.8798294  +6.4025423     995.3135     1478.251     1529.038      78.9874     158.0379     316.4539      1.416     3.14     884.5566      55.8079     205.8156        10     1.038     0.643  84.61   0
       259    141.2937    663.7281 307.8603766  +6.4054454     27556.47      37532.6     38909.56     79.23936     158.4158     316.6743      1.459     2.85       884.17      55.8079     3885.553        52     1.312     1.146  65.78   0
       260    428.1826    664.7057 307.7412110  +6.4146838     3316.062     4546.784     4698.479     79.23936      158.164     316.4854      1.434     3.01       880.79      55.8079      511.815        22     1.251     0.885  65.91   0
       261    809.6335    664.5253 307.5828093  +6.4275360     1359.339     1882.302     2253.375     79.23936     158.3529     316.5799      1.573     2.96     875.5707      55.8079     214.0734        14     1.041     0.845  35.33   0
       262    645.4906    664.5131 307.6509754  +6.4220486     585.0974      827.897      910.809     79.11348     158.7928     316.7372      1.603     4.62     877.4186      55.8079     90.77881         6     0.910     0.743 -79.24   0
       263    361.2945    659.1634 307.7691741  +6.4147265     717.1443     1355.289     1310.267     79.49051      158.227     316.7057      1.739     4.50     880.7899      55.8079      119.017         7     1.132     0.509 -62.48   0
       264    977.7252    653.4649 307.5133731  +6.4377179     7884.974     11268.59     12135.57     79.49051     158.3529     316.5799      1.561     3.07     871.7495      55.8079     1163.969        35     1.439     1.017  49.82   0
       265     22.2167    652.5646 307.9102001  +6.4060443     1303.948     1877.496     1799.751      78.9874      158.164     316.3909      1.525     2.95     884.9756      55.8079     215.0831        10     1.017     0.662  69.78   0
       266    571.3188    648.6464 307.6823111  +6.4261149     55645.91     74021.12     76941.07     79.36504     158.3529     316.6428      1.417     2.69     878.4408      55.8079     8103.063        64     1.284     1.179  71.98   0
       267    935.9834    650.1867 307.5308182  +6.4376779     756.9274     1136.911     1083.486     79.11348     158.0379     316.5484      1.413     4.60     872.3249      55.8079     143.3214         9     1.043     0.641  25.47   0
       268    530.5372    648.7147 307.6992445  +6.4247197     904.9254     1286.051     1196.637     79.49051     158.4787     316.6113      1.525     5.05     878.9661      55.8079     118.7665        11     1.153     0.770  54.60   0
       269    796.0315    648.1422 307.5890080  +6.4338456     505.7466     422.7051     236.8137     79.23936     158.3529     316.5484      1.228     3.91     875.4338      55.8079     78.23737         6     0.942     0.466  35.78   0
       270    982.0696    645.2334 307.5118447  +6.4412616     774.0037     1047.173     1429.543     79.23936     158.3529     316.6428      1.524     4.65     871.5291      55.8079     105.8666         8     0.961     0.638  66.87   0
       271    501.7161    645.5148 307.7113210  +6.4250744     745.0079     1025.025     859.8991     79.11348     158.4787     316.7057      1.432     3.21      879.308      55.8079     111.7543         8     0.791     0.769 -48.78   0
       272    178.8509    645.1757 307.8454077  +6.4143689     3088.336     4579.413     4877.002      78.9874     158.3529     316.5169      1.571     3.08     883.2424      55.8079     469.5955        23     1.220     1.017  69.95   0
       273     71.6161    639.5245 307.8901282  +6.4130923     1479.185     2328.716     2657.001     78.86112     158.1009     316.4854      1.688     2.95     884.2538      55.8079     250.2277        14     0.985     0.898  51.69   0
       274    134.0110    638.5314 307.8642521  +6.4156032     575.6509     594.2493     -161.759     78.86112      158.164     316.4539      1.201     2.41     883.6784      55.8079     137.8387         5     0.741     0.568  88.70   0
       275    468.5972    632.4313 307.7255151  +6.4293654     71478.04     95640.99      99609.6     78.73464      158.164     316.3909      1.445     2.73     879.6258      55.8079     10384.45        71     1.345     1.166  60.97   0
       276     12.4066    633.9321 307.9149040  +6.4134064     2091.001     2940.164     2891.467     78.86112     158.1009     316.4224      1.505     3.33     885.1219      55.8079      321.584        18     1.181     0.939  55.48   0
       277    654.5618    629.8266 307.6483744  +6.4366739     1071.517     1239.651     633.5034      78.9874      158.164     316.4539      1.282     4.14     876.6899      55.8079     192.5186        10     1.164     0.668  48.16   0
       278    142.9627    627.5269 307.8609067  +6.4204479     1855.556     2337.211       1764.9     79.23936     158.3529     316.6743      1.353     2.75     883.3995      55.8079     297.6284        13     1.042     0.759  51.19   0
       279    938.0479    625.5148 307.5307879  +6.4479336     827.7209     1081.651     838.1614     79.36503     158.2899     316.6113      1.430     5.30     871.5126      55.8079     116.3442         8     0.937     0.845  20.89   0
       280    422.1367    625.2049 307.7450526  +6.4307899     770.3569     1221.597     1196.588     78.73464      158.164     316.3909      1.747     5.70      880.209      55.8079       121.52         9     1.270     0.721  55.86   0
       281    614.6335    624.3842 307.6651393  +6.4375837     1058.156     1537.455     1900.188      78.9874     158.1009     316.4854      1.465     3.83     877.0454      55.8079     158.3244        10     0.962     0.793 -87.78   0
       282    496.4320    623.4647 307.7142578  +6.4340012     621.8047     1090.074     1042.618     79.11348     158.3529     316.5799      1.549     3.95     878.9248      55.8079     91.79889         5     1.042     0.429  74.88   0
       283    313.8218    621.6149 307.7901543  +6.4286346     2437.586     3419.773     3152.038     79.11348      158.164     316.5484      1.472     3.06     880.6584      55.8079       390.83        16     1.104     0.837  62.92   0
       284    466.3321    620.0839 307.7268716  +6.4343874     982.7589     1353.978     2190.674     79.61579     158.6044     316.6428      1.560     3.76     879.4968      55.8079     156.8748        11     1.019     0.864  50.88   0
       285     21.2885    621.1301 307.9116489  +6.4189912     592.8566     903.2955     1446.767     79.36503     158.6044     316.6113      1.701     4.27     884.9713      55.8079     100.9627         5     1.014     0.512  56.49   0
       286    740.5394    615.9313 307.6131352  +6.4452889      6184.31      7785.61     8111.218     79.49051     158.2899     316.6113      1.349     2.76     875.8822      55.8079     895.1689        22     1.109     0.927  69.67   0
       287    794.2219    611.2368 307.5909985  +6.4490229     16257.15     21196.46     22008.02      78.9874     158.1009     316.3909      1.344     2.64     874.5424      55.8079     2723.594        34     1.197     1.013  63.01   0
       288   1011.5070    612.0388 307.5007313  +6.4559498     1003.965     1314.437     889.4053     79.49051     158.2899     316.6743      1.345     3.74     870.7681      55.8079     184.8911         9     1.135     0.577  62.90   0
       289    536.3757    611.4769 307.6980732  +6.4402901     1370.608     2014.771      2826.56      78.9874      158.227     316.5799      1.599     3.43     877.3829      55.8079     207.9891        12     1.120     0.679  49.24   2
       290     39.1802    610.6844 307.9045726  +6.4239067     682.4339      937.808     924.0376      78.9874     158.0379     316.5484      1.501     3.47     884.5507      55.8079     111.9314         6     0.730     0.645  78.28   0
       291    617.9667    609.2015 307.6642656  +6.4439640      3185.01      4193.81     3947.491     78.60796      158.164     316.3594      1.377     2.80     876.5652      55.8079     528.1909        21     1.111     0.986  40.28   0
       292    935.2009    605.5411 307.5326399  +6.4560855     1389.067     1873.191     2469.431     78.73464     158.1009     316.2964      1.464     2.73     870.8814      55.8079     253.4524        11     0.998     0.691  50.99   0
       293    230.5608    602.9963 307.8253586  +6.4335229     1468.157     1996.662     2337.128     78.48106     158.1009     316.3594      1.404     3.03     880.8793      55.8079     237.7433        13     1.077     0.758  61.33   0
       294    194.1435    603.6209 307.8404606  +6.4320402     690.3221     1030.935      1291.37      78.9874     158.3529     316.4224      1.685     3.80      881.864      55.8079      131.693         7     0.873     0.782  66.88   0
       295    376.6590    603.0861 307.7646841  +6.4383955     955.8571     1187.395     1473.452     79.36503     158.3529     316.7372      1.251     2.80     879.5177      55.8079     164.9271         9     0.871     0.662  34.98   0
       296    870.2711    594.5027 307.5599763  +6.4584742     3241.074      4151.12     4035.759     79.23936     158.4787     316.6428      1.363     2.84     872.7214      55.8079     460.4802        19     1.062     0.942  68.38   0
       297    165.7451    594.6234 307.8525576  +6.4347995     620.2814     876.2363     1346.992      78.9874     158.3529     316.4224      1.727     5.20     882.5332      55.8079     109.3755         8     1.117     0.685   5.08   0
       298    829.0485    592.0425 307.5771790  +6.4581123     2948.545     3746.933     3724.826     79.36503     158.2899     316.5484      1.334     2.74     873.5073      55.8079     514.4188        17     1.033     0.854  65.71   0
       299    809.5895    583.1364 307.5855595  +6.4611390     181588.1     241372.1     252294.6     78.86112      158.164     316.4539      1.400     2.65     873.7181      55.8079     27204.62       117     1.413     1.228  64.94   0
       300    799.9510    587.9644 307.5894004  +6.4588233     2965.023     4228.593     5650.091     79.11348     158.3529     316.5484      1.488     2.88     874.0115      55.8079     486.6977        19     1.146     0.892  60.02   0
       301    742.4332    588.4144 307.6132731  +6.4567136     948.5319     1408.608     1584.752      78.9874     158.1009     316.5169      1.783     5.06     875.2957      55.8079     122.3738         9     1.087     0.667  47.67   0
       302    453.5803    588.7658 307.7332222  +6.4468901     448.0662     481.7615     -107.759     78.86112      158.164     316.4224      1.162     5.23     878.7679      55.8079     82.55371         6     1.117     0.692 -42.26   0
       303    257.0140    586.8438 307.8149185  +6.4410813     8604.729     11982.05     12837.84     78.73464      158.164     316.3594      1.465     2.95     880.2803      55.8079     1261.126        32     1.313     1.020  57.29   0
       304    191.1856    581.3416 307.8424415  +6.4411391     65061.88     91280.34     96166.89     78.73464      158.227     316.3279      1.506     2.89     881.4854      55.8079     9596.055        78     1.407     1.264  79.96   0
       305    115.1208    577.5330 307.8741580  +6.4401515     6993.836     9461.616     9668.785     79.49051     158.4787     316.5799      1.455     2.89     882.7759      55.8079     1000.275        27     1.164     1.055  69.32   0
       306    980.5607    574.9890 307.5148253  +6.4702145     1608.563     2054.378     1933.059     78.73464      158.164     316.3594      1.343     2.61      868.941      55.8079     244.6076        13     0.977     0.759  54.25   0
       307   1001.1071    573.8351 307.5063305  +6.4713767     898.8946     1096.814     1179.353     79.49051      158.227     316.6743      1.269     4.57     868.4178      55.8079      119.598         8     0.900     0.659  44.94   0
       308    229.7520    573.1410 307.8267025  +6.4458221     690.7933     1010.185      1343.13     79.36503     158.3529     316.6743      1.521     3.29     880.1738      55.8079     113.3243         7     0.837     0.604  64.96   0
       309    846.2004    570.4878 307.5707789  +6.4675853     5140.671      6581.99     6311.276     78.60796     157.8486     316.2964      1.364     2.70     872.6078      55.8079     795.8073        23     1.134     0.929  64.36   0
       310    364.5800    568.5267 307.7708656  +6.4522586     19220.22     26267.46     27462.76      78.9874     158.2899     316.5484      1.479     2.83     878.2491      55.8079      2726.67        39     1.260     1.115  54.48   0
       311    454.7321    568.8593 307.7334145  +6.4551477     767.1119     856.9781     894.6737     79.49051     158.2899     316.6113      1.257     3.27     878.0264      55.8079     130.9958         7     0.777     0.631  81.79   0
       312    166.3760    567.3769 307.8532161  +6.4460699     2194.886     3266.987     4370.569     78.86112      158.227     316.5799      1.580     3.06     882.0203      55.8079     316.3573        18     1.100     0.998  87.12   0
       313    911.6376    566.4473 307.5437370  +6.4714400     600.4913     663.3649     1052.762     79.23936     158.3529     316.5169      1.150     3.45      870.463      55.8079     102.1373         6     0.869     0.480  87.82   0
       314    800.1027    563.7361 307.5901508  +6.4688319     6849.946     9057.646     9109.529     79.23936     158.4787     316.6428      1.380     2.78     873.6352      55.8079      1090.97        24     1.139     0.954  55.79   0
       315    530.9599    563.4177 307.7019401  +6.4599513     7409.033     9925.423     10091.93      78.9874      158.164     316.3909      1.415     2.72     875.8899      55.8079     1066.748        26     1.145     1.028  56.86   0
       316    241.9393    564.8931 307.8219197  +6.4496373     978.5199     1384.766     2122.229     79.23936     158.3529     316.6743      1.451     3.17     879.8508      55.8079     167.0969        10     0.901     0.760 -62.18   0
       317    103.9378    564.5464 307.8792410  +6.4451367     1025.394     1289.409     1349.937     79.36503     158.2899     316.5799      1.411     4.76     882.7581      55.8079     150.0703        10     1.068     0.702  67.51   0
       318    389.2336    560.0458 307.7609130  +6.4565880     1462.693     1992.253     1878.008      78.9874     158.3529     316.5169      1.401     3.22     877.9553      55.8079     201.9841        13     1.042     0.803  64.85   0
       319    575.5745    556.5790 307.6836415  +6.4642704     2660.092     3901.177     4639.541      78.9874      158.164     316.5484      1.638     3.57     875.1655      55.8079     394.6598        21     1.289     1.030 -23.42   0
       320    178.0192    556.5279 307.8487474  +6.4509409     7522.244      10303.6     10845.75      78.9874     158.2899     316.5484      1.467     2.88     881.4339      55.8079     1053.346        27     1.193     1.041  76.34   0
       321     49.5651    555.2283 307.9021358  +6.4471525     5545.257     7960.753     7919.569      78.9874     158.1009     316.3909      1.498     2.89     883.1805      55.8079     788.1256        28     1.420     0.927  67.38   0
       322    816.7828    556.1488 307.5834780  +6.4725223     1540.989     2014.212     2029.756     78.86112     158.4158     316.3909      1.303     3.22     873.0492      55.8079     248.9056        11     0.961     0.811  77.33   0
       323    273.2047    552.9755 307.8093378  +6.4556090     95699.05     134291.1     139674.2     78.86112     158.1009     316.4539      1.466     2.84     879.1581      55.8079     14374.41        87     1.395     1.254  68.26   0
       324    858.9349    556.2288 307.5659685  +6.4738983     763.0298     811.9609     469.3692     79.11348     158.3529     316.5484      1.243     2.84     871.8854      55.8079     134.5692         6     0.863     0.470 -36.51   0
       325    562.7642    550.7083 307.6891593  +6.4662650     1077.356     1522.784     1966.126     79.49051      158.227     316.6428      1.435     3.32     874.9838      55.8079     168.3358         9     0.907     0.783  19.77   0
       326    257.1381    548.1110 307.8161743  +6.4570772     1550.866     2203.441     873.8314     79.36503     158.4787     316.6743      1.434     3.22     879.2241      55.8079     213.9852        14     1.032     0.879  50.68   0
       327    972.5804    546.9688 307.5190788  +6.4815174     1781.693     2558.304     2409.253     78.86112      158.164     316.4854      1.443     3.25     867.6986      55.8079      282.057        14     1.024     0.923  81.88   0
       328    796.3459    545.5068 307.5923232  +6.4762329     18715.18     24359.34     25209.53     79.23936     158.2899     316.8001      1.365     2.67     873.4157      55.8079     2823.064        38     1.229     1.057  67.25   0
       329    499.9399    543.8658 307.7154812  +6.4669836     44641.01     66411.65      70494.8     79.49051     158.2899     316.6113      1.592     3.15     876.3104      55.8079     6416.404        71     1.481     1.333  30.19   0
       330    650.2490    542.3801 307.6531056  +6.4726347     1060.515     1574.064      1709.14     78.86112     158.4158     316.4539      1.571     3.06     874.4926      55.8079     170.0219        10     0.915     0.799  60.21   0
       331    260.9520    541.4849 307.8148141  +6.4599412     549.2397     767.3042    -481.9981     79.36503     158.3529     316.6428      1.700     4.22     878.9401      55.8079     73.04358         5     1.144     0.444 -63.92   0
       332    212.3579    540.2704 307.8350359  +6.4588084     1933.067     2825.133     3180.259     79.23936     158.3529     316.6743      1.604     3.36      879.925      55.8079     249.7288        17     1.092     1.002  56.99   0
       333     98.4403    540.5150 307.8823364  +6.4548734     675.1631     1046.687     842.5494     79.36504     158.2899     316.5799      1.722     3.63     882.6124      55.8079     125.0334         6     0.938     0.406  70.20   0
       334     48.2076    540.4869 307.9031982  +6.4531929     1347.056     1805.392     1741.992      78.9874     158.0379     316.3594      1.463     2.91     882.9593      55.8079     231.3894        14     0.999     0.909  44.62   0
       335    670.1210    538.9554 307.6449675  +6.4747141     1596.291     2116.318      2405.25     79.36503     158.3529     316.6113      1.382     2.95     874.2967      55.8079     260.0608        12     1.003     0.744  50.57   0
       336    659.9904    538.9079 307.6491765  +6.4743945     3345.624     4546.252     5231.291      78.9874     157.9748     316.3909      1.432     2.88     874.3472      55.8079     531.0687        23     1.153     1.042  19.26   0
       337    721.9982    537.7899 307.6234608  +6.4769319      1469.08     2027.721     2291.188     78.86112     158.0379     316.4224      1.613     3.02     874.1021      55.8079     249.2979        11     1.062     0.622  61.19   0
       338     79.0205    536.1237 307.8905496  +6.4560323     706.9171     1179.018     1087.789      78.9874     158.1009     316.5484      1.862     4.54     882.6963      55.8079     90.94952         7     0.893     0.658  55.91   0
       339    397.4748    534.4799 307.7583522  +6.4674203     2042.404     2779.864     3219.498     79.61579     158.6044     316.6743      1.549     3.39     876.9262      55.8079     278.4992        16     1.126     0.902  50.08   0
       340    144.3001    531.3589 307.8636009  +6.4601976     28851.77     39895.08     40992.39     79.36504      158.227     316.8316      1.500     2.92     881.6473      55.8079     4173.539        49     1.323     1.144  65.17   0
       341    509.2148    532.2220 307.7120214  +6.4721021     2213.623     2990.572      3385.22     79.11348      158.164     316.5484      1.374     3.05     875.6115      55.8079     369.3673        17     1.267     0.786  64.78   0
       342    329.0858    532.8612 307.7868091  +6.4657916     4323.635      5950.69     6289.429     79.36503     158.4787     316.6428      1.435     2.94     877.4214      55.8079      576.434        23     1.166     1.003  65.28   0
       343    872.0908    531.5128 307.5613338  +6.4845429      1909.52     2595.787     2739.967     79.11348     158.7928     316.7372      1.420     2.89     870.7299      55.8079     269.5349        14     1.026     0.801  52.35   0
       344    109.4108    529.6583 307.8781475  +6.4597251     2979.745      4107.03     3823.695     78.73464      158.227     316.3279      1.479     3.20      882.256      55.8079     438.5144        19     1.197     0.887  64.63   0
       345    346.3060    527.7338 307.7798304  +6.4684871     1189.734     1630.866     1577.172     79.36504     158.5416     316.6113      1.399     2.87     876.9698      55.8079     175.8784        10     0.923     0.669  47.42   0
       346    969.8733    526.0611 307.5209039  +6.4900596     6028.817     8038.536     7944.441     79.49051     158.3529     316.6428      1.384     2.78     867.3771      55.8079     948.9686        25     1.120     0.991  57.06   0
       347    133.9949    521.4578 307.8682152  +6.4639386     517.0317     1007.146     504.3322     78.86112      158.227     316.3279      1.964     4.53     881.5826      55.8079     97.35175         5     1.065     0.548  78.64   0
       348    542.8312    518.3478 307.6985269  +6.4789578     1671.573     2254.095     2331.729     79.23936     158.4787     316.5484      1.455     2.89     874.2527      55.8079      239.369        13     1.015     0.753  40.15   0
       349      8.5723    515.6928 307.9204968  +6.4620938     28177.01     38823.88     40620.25     79.49051     158.1009     316.4854      1.512     2.90     883.2374      55.8079     3907.173        50     1.333     1.146  66.45  16
       350    441.2986    512.5255 307.7408915  +6.4779558     47806.85     65188.54     67699.22     78.86112     158.4787     316.5799      1.465     2.75     875.8338      55.8079     6960.604        59     1.334     1.154  64.58   0
       351    649.3418    512.2357 307.6544960  +6.4850504     13881.95     18692.39     19709.71     79.36504     158.3529     316.5799      1.414     2.67     873.5494      55.8079     2165.972        35     1.225     1.046  63.54   0
       352    288.9264    512.6745 307.8041686  +6.4727766     1133.278     1566.594     1440.957     79.61579     158.6044     316.6743      1.510     3.19     877.0297      55.8079     171.2134        12     1.020     0.772  51.77   0
       353    206.4793    510.0837 307.8384968  +6.4710738     20934.16     30885.23      31933.3     79.49051     158.6673     316.7057      1.584     3.12     879.4747      55.8079     2904.301        52     1.449     1.191  56.63   0
       354    172.1373    511.1504 307.8527230  +6.4694779      1897.25     2641.254     2897.002     79.36503     158.2899     316.6743      1.477     3.24     880.4092      55.8079     295.8781        13     1.053     0.781  34.40   0
       355    983.1528    510.5748 307.5159075  +6.4968970      1274.94     1789.831      1851.34      78.9874     158.4158     316.4854      1.458     3.20     866.8256      55.8079     209.2829        11     1.008     0.683  73.45   0
       356    911.8600    510.2531 307.5455293  +6.4946494     939.2203     1051.277       1392.2     79.36503     158.2899     316.6113      1.272     4.30     868.5656      55.8079     139.2047         9     0.961     0.641  63.02   0
       357    823.0891    510.2663 307.5823990  +6.4916775     1166.159     1506.635     859.0938     79.36503     158.5416     316.5799      1.358     3.52     871.5685      55.8079     161.4966        11     1.040     0.742 -21.84   0
       358    571.1138    509.0306 307.6870941  +6.4837527     2969.157     4081.056     4140.507     79.49051      158.164     316.5169      1.438     2.92     873.8782      55.8079     459.9734        18     1.102     0.859  71.07   0
       359    944.9269    506.3137 307.5319272  +6.4973802     5363.304     7085.602     7351.513     79.49051     158.6673     316.6113      1.379     2.65      867.494      55.8079     876.9985        24     1.145     0.992  64.31   0
       360    618.1181    504.6022 307.6677208  +6.4871563      7259.59     9932.759     10521.19     78.73464     157.9748     316.3279      1.423     2.74     873.5182      55.8079     1118.748        27     1.159     1.008  59.65   0
       361    519.4731    504.7623 307.7086855  +6.4837837     487.1535     979.1196     1136.752     79.23936     158.3529     316.6743      2.344     5.00     874.5073      55.8079     72.62189         6     1.463     0.484  64.25   0
       362    105.7052    504.9646 307.8805212  +6.4697955     1292.383      1814.34     1597.791     79.49051      158.227     316.7057      1.492     3.87     881.8984      55.8079     185.0851        12     1.116     0.752  77.48   0
       363    967.5740    498.5876 307.5227799  +6.5013264     3937.085     5387.851     5515.093      78.9874      158.164     316.5484      1.426     2.68     866.9235      55.8079     658.7941        22     1.278     0.855  64.87   0
       364    530.3270    495.8664 307.7044770  +6.4878206     8285.136      11378.4     11712.96     79.49051     158.4158     316.5799      1.441     2.79     874.0215      55.8079     1192.673        31     1.232     1.063  60.35   0
       365    406.1405    497.4341 307.7560019  +6.4830065     734.9667     995.7287     1860.302     79.23936     158.3529     316.5484      1.516     2.97     875.3082      55.8079     107.3791         7     0.831     0.604  77.88   0
       366    656.7741    497.5897 307.6519016  +6.4913464     518.0359     484.8412     521.3047      78.9874      158.164     316.4854      1.191     3.49     873.0562      55.8079     78.88184         5     0.796     0.442  19.05   0
       367    376.2038    496.0103 307.7684833  +6.4825892     2893.509     4002.951      4290.05     78.86112     158.0379     316.5169      1.470     3.11     875.5875      55.8079     472.4507        20     1.168     0.912  70.33   0
       368    746.0995    495.8298 307.6148606  +6.4950631     706.0986     859.6239     919.8019     79.36503     158.1009     316.6743      1.364     4.86     872.4135      55.8079     113.1087         8     0.938     0.746  77.18   0
       369    886.7990    491.7720 307.5565581  +6.5014428     3584.443     4833.359     4901.401     78.86112     158.1009     316.4224      1.450     2.81     868.8218      55.8079     561.1167        16     1.069     0.831  60.27   0
       370    539.5579    492.5166 307.7007560  +6.4895132     829.6977     1291.689     1559.373     79.36504     158.3529     316.5484      1.654     4.29     873.7516      55.8079     118.7527         8     1.060     0.494  86.91   0
       371    234.8886    490.9760 307.8273435  +6.4799184     729.2997     1013.901      998.416     79.36503      158.164     316.4854      1.431     4.05      878.207      55.8079     119.4166         6     0.784     0.597  42.03   0
       372    933.3585    485.2003 307.5374401  +6.5057115      1352.32     1899.724     2154.248     78.60796     158.0379     316.2649      1.431     4.63     866.9223      55.8079     238.3303        16     1.558     0.740  69.35   0
       373    894.1544    486.1720 307.5536910  +6.5040007     2523.934     3371.471     3494.992     78.86112     158.4158     316.5169      1.368     2.74     868.3405      55.8079     425.5053        18     1.046     0.920  70.56   0
       374    113.5104    485.5164 307.8779372  +6.4780878     799.0165     1068.416     1068.458     79.11348     158.6044     316.7057      1.268     3.33      881.341      55.8079     120.4289         6     0.886     0.455 -15.70   0
       375    272.1860    483.7687 307.8120966  +6.4841482      634.729     839.2518     924.7988      78.9874     158.1009     316.5484      1.493     3.55     876.3076      55.8079     113.7031         7     1.025     0.502  66.98   0
       376    718.1062    481.9922 307.6269523  +6.4998397     3498.604     4686.344     5331.274      78.9874     158.0379     316.3909      1.407     2.80     872.1232      55.8079     570.7726        21     1.098     0.955  83.26   0
       377    389.0619    480.2518 307.7636743  +6.4895272     4063.315     5595.941       6291.5     79.36503     158.2899     316.6113      1.461     2.78     874.7994      55.8079      607.568        22     1.167     0.969  53.57   0
       378     79.8478    481.0744 307.8920676  +6.4787881     2198.214     2924.866     3205.231     79.23936     158.4158     316.6113      1.422     3.24     882.0707      55.8079     299.9379        16     1.100     0.848  79.02   0
       379    429.3456    480.2889 307.7469422  +6.4908643     1142.473     1510.502     1499.163     79.36504      158.227     316.7372      1.523     4.17     874.4037      55.8079     169.4698        13     1.219     0.738  48.80   0
       380    616.8091    476.7832 307.6692003  +6.4985984     11173.15     15085.29     15730.23     79.11348     158.1009     316.4854      1.408     2.82     872.5848      55.8079     1711.564        31     1.181     1.065  65.32   0
       381    779.4900    473.4248 307.6017446  +6.5054308     18907.55     24305.48     24693.72     79.49051      158.164     316.4539      1.359     2.57     871.1992      55.8079     2873.158        37     1.205     1.031  65.99   2
       382    783.5016    468.8002 307.6002337  +6.5074744     1656.132       2492.5     2642.246     78.86112     157.9748     316.2334      1.558     3.56     870.9689      55.8079     247.0004        17     1.095     1.033  45.19   3
       383    299.2383    473.6208 307.8012038  +6.4892474     2918.953     3927.881       3927.5      78.9874     158.1009     316.3594      1.447     2.86     875.1386      55.8079     422.3417        20     1.257     0.877  73.69   0
       384    422.7627    473.2049 307.7499150  +6.4935682     774.9944      1118.59     796.7133     78.48106     158.1009     316.3909      1.473     5.00     874.0587      55.8079      121.528        11     1.241     0.817  74.48   0
       385    909.3011    471.0609 307.5479066  +6.5107459     633.0306     880.9478     712.1699     79.11348     158.2899     316.7372      1.381     3.72     867.2017      55.8079     98.63251         7     0.740     0.676  67.53   0
       386    808.3204    470.4570 307.5898696  +6.5076204     1527.465     1780.455     1920.714     79.36504     158.3529     316.6113      1.173     2.56     870.6522      55.8079     259.9025        12     0.978     0.724  57.59   0
       387    382.3583    470.1762 307.7667982  +6.4934621     1706.169     2437.062     3072.587      78.9874      158.164     316.3909      1.569     3.03     874.3286      55.8079     269.8431        15     1.097     0.836  74.99   0
       388    964.5837    468.2561 307.5250387  +6.5137501     2512.238     3289.828     3076.749     78.73464     158.2899     316.3594      1.365     2.93     865.9835      55.8079      383.636        18     1.121     0.909  57.02   0
       389    713.2468    467.5973 307.6294544  +6.5056205     663.3392     881.1365     597.0754     78.73464     158.0379     316.2334      1.514     4.14     871.4218      55.8079      114.199         6     0.762     0.643  36.06   0
       390    370.7887    466.3499 307.7717324  +6.4946533     753.4556     883.3203     817.1576     78.73464      158.227     316.3279      1.260     4.32     874.2248      55.8079     120.9561         8     1.047     0.589  56.54   0
       391    116.8614    465.1404 307.8772344  +6.4866132     4915.542     6688.868     7317.831     79.36503     158.3529     316.6428      1.435     2.92     880.6766      55.8079     753.2155        25     1.183     0.995  55.78   0
       392    755.0898    464.2982 307.6121858  +6.5083828     2669.982     3565.287     3144.988     79.36503     158.7928     316.6113      1.404     3.06      870.946      55.8079     413.8158        19     1.096     0.959  82.56   0
       393   1018.6387    463.1111 307.5027588  +6.5176786     4471.566     6832.825     6632.625     79.36503     158.2899     303.6934      1.640     3.91     865.0695      55.8079      611.282        26     1.423     0.936  36.21  16
       394    274.9499    462.1817 307.8116774  +6.4931538     1682.631     2174.105     2589.873     78.86112     158.4158     316.3909      1.404     3.22     875.4658      55.8079     274.2114        13     1.132     0.698  71.50   0
       395    352.8860    459.9984 307.7793821  +6.4966743     3384.308     4752.257     5063.738     78.60796     157.9117     316.3279      1.446     2.89     874.0552      55.8079     526.1676        22     1.182     0.973  65.85   0
       396    708.8464    457.8984 307.6316080  +6.5094777     1876.065     2685.986     2906.004     79.36503      158.164     316.8001      1.494     2.88     870.9013      55.8079     273.7255        14     1.054     0.776  72.04   0
       397    982.9934    456.8412 307.5177746  +6.5190778      662.541      923.924     1059.029     78.73464     158.0379     316.3279      1.389     2.43      865.195      55.8079     138.5881         6     0.853     0.457  35.79   0
       398    411.9786    456.0456 307.7549723  +6.5002908     492.8636     507.1964     216.2419      78.9874     158.3529     316.4539      1.240     3.78     873.2545      55.8079     81.86908         5     0.654     0.628  88.32   0
       399    240.9056    455.7888 307.8260326  +6.4946485     813.2781      1326.63     1279.797     79.11348     158.0379     316.3909      1.439     3.65     876.6208      55.8079     127.4167         6     0.895     0.469  32.62   0
       400    451.7523    451.9627 307.7385905  +6.5033116     501.0166      684.617     434.0139     79.23936     158.3529     316.5169      1.437     3.87     872.9821      55.8079      82.6698         5     0.847     0.508  36.14   0
       401    550.0261    450.3949 307.6978261  +6.5072553      1095.09     1331.271     1599.265     78.86112      158.164     316.4539      1.377     3.18     871.6784      55.8079     184.8267        11     1.000     0.763  57.46   0
       402    472.4516    448.8537 307.7300980  +6.5052898     1481.011     1953.243     1493.468     79.49051     158.2899     316.6428      1.439     3.36     872.8205      55.8079     226.2335        13     1.013     0.920 -88.74   0
       403    698.8007    449.5830 307.6360601  +6.5125747     590.9937     686.2202     706.3232      78.9874     157.9117     316.2964      1.195     3.46     870.5054      55.8079      84.3186         5     0.769     0.451  18.72   0
       404    835.0383    447.7230 307.5795354  +6.5179002     1659.275     2325.259     2503.258     79.23936     158.4158     316.6113      1.406     2.53     868.7493      55.8079      325.642        12     0.891     0.817  31.20   0
       405    820.6669    447.0869 307.5855260  +6.5176824     2245.611     2918.907     3134.115     79.49051     158.5416     316.6428      1.342     2.55     869.1659      55.8079     368.9318        13     0.917     0.874   0.38   0
       406    718.0227    445.0579 307.6282282  +6.5150864     16856.63        22589     23965.98      78.9874     158.3529     316.4224      1.400     2.77     870.1646      55.8079     2675.338        42     1.236     1.108  66.79   0
       407    639.3260    441.1348 307.6610470  +6.5140712     2822.404     3954.276     4338.707     79.49051     158.3529     316.6113      1.483     2.89       870.48      55.8079     466.6604        17     1.109     0.862  58.61   0
       408    620.3621    446.9031 307.6687297  +6.5110543     852.7125     1273.598     1889.443     79.36503      158.227     316.7687      1.822     5.40     871.0114      55.8079     133.2993        10     1.013     0.813  56.91   0
       409    633.7300    440.3564 307.6633976  +6.5142052     532.2354     725.3975     1641.623     79.23936     158.3529     316.6743      1.261     2.91     870.4848      55.8079     102.8347         5     0.713     0.465 -12.41   0
       410    614.3725    438.1859 307.6715108  +6.5144528     6219.354       8273.9     9376.116      78.9874      158.164     316.5169      1.449     3.15      870.618      55.8079     912.9776        21     1.160     0.913  72.33   3
       411    610.5316    435.6147 307.6731926  +6.5153857     16580.95     22748.48     23659.39     78.86112      158.227     316.5169      1.468     2.77     870.5527      55.8079     2381.559        38     1.288     1.066  68.96   3
       412    943.2284    435.0993 307.5350206  +6.5267271      4546.19     6080.255     6106.751     79.36503     158.1009     316.5799      1.360     2.73      864.946      55.8079     726.1364        22     1.100     0.940  65.26   0
       413    382.3908    430.9112 307.7681087  +6.5096747     31875.61        44428      46453.3      78.9874     158.0379     316.3909      1.465     2.82     872.1209      55.8079     4534.876        49     1.337     1.122  65.00   0
       414    419.2180    432.7484 307.7527509  +6.5101527     622.9882     716.6644     632.8846     78.86112     158.4158     316.3594      1.408     3.44     872.0466      55.8079     95.95392         5     0.967     0.353  45.72   0
       415    898.7403    430.6036 307.5536503  +6.5270974     1689.406     2474.024      3226.77     78.73464      158.227     316.3594      1.868     3.43     865.9995      55.8079     268.6611        15     1.170     0.761  64.37   2
       416    128.4410    430.3153 307.8736024  +6.5013812     2568.294     3576.007      3918.68     79.36504     158.2899     316.5799      1.509     3.12     879.4095      55.8079     367.5804        20     1.194     1.023  79.14   0
       417    504.2667    427.5679 307.7176007  +6.5151456     9409.293     9745.269     9298.046     79.23936     158.4158     316.5484      0.812     1.09     871.3272      55.8079     3545.432        11     0.784     0.485 -24.17   0
       418    912.0622    425.4586 307.5482894  +6.5296667     5828.971     7528.726     7530.543     79.49051     158.2899     316.6428      1.325     2.58     865.4104      55.8079     956.7603        24     1.148     0.907  62.51   0
       419    593.9406    426.5838 307.6803876  +6.5185584     684.2535     817.9078     806.4814     78.86112     158.2899     316.3594      1.361     3.95     870.2031      55.8079     105.8102         8     0.821     0.707 -78.82   0
       420     61.6258    425.8713 307.9015025  +6.5009656     1542.745     2416.945       2398.2      78.9874      158.227     316.5484      1.697     3.89     881.4419      55.8079     210.0472        17     1.168     1.001  55.29   0
       421    519.5781    425.9111 307.7112969  +6.5163432     2130.247     2451.582     2579.936     79.36503      158.164     316.5169      0.755     1.43     870.9066      55.8079     856.9392         8     0.890     0.350   8.62   0
       422    802.2318    424.4340 307.5939439  +6.5264190     529.3307     527.9782     390.4368     78.86112     158.1009     316.3594      1.200     4.69     868.7389      55.8079     87.66711         6     0.938     0.666 -80.21   0
       423    510.7653    425.8243 307.7149603  +6.5160835     2501.078       2588.6     2430.972     78.86112      158.164     316.3909      1.163     3.86     871.0858      55.8079     647.2197         9     1.120     0.381  -0.10   0
       424    967.6153    423.1127 307.5252928  +6.5324905     723.8876     1126.854     1330.534      78.9874     158.1009     316.4854      1.571     3.48     863.7727      55.8079     122.6123         7     0.833     0.755  50.72   0
       425    239.9571    421.4186 307.8275871  +6.5088070     15324.95      21083.9     21771.41     78.86112      158.227     316.3909      1.469     2.92      875.155      55.8079      2136.85        37     1.264     1.091  56.25   0
       426    734.6230    415.2328 307.6223354  +6.5279563     858.2194     1405.663     1442.109     78.86112      158.164     316.3909      1.650     4.92     868.5953      55.8079     120.7635         9     1.080     0.655  45.82   0
       427    703.0258    414.8077 307.6354741  +6.5270742     902.1345     1200.844      1289.25      78.9874      158.164     316.4539      1.329     4.33     868.6113      55.8079     127.7963        10     1.058     0.682  78.10   0
       428     75.4013    415.5599 307.8961299  +6.5056868     902.9272     1381.309     1454.354     78.48106     158.1009     316.3279      1.724     4.85     880.6378      55.8079     119.9584         8     0.895     0.745  43.90   0
       429    963.1836    413.6765 307.5274500  +6.5362387     1017.218     1217.548     1065.174     78.86112     158.1009     316.4854      1.231     2.46     863.4918      55.8079     177.3466         9     0.874     0.618  64.31   0
       430    352.7216    411.0507 307.7811013  +6.5168780     1490.184      2064.82     2001.329     79.36503     158.4158     316.6113      1.466     3.87     871.1635      55.8079     232.9863        17     1.199     0.979 -71.30   0
       431    185.9113    411.4496 307.8503709  +6.5111047       977.15     1297.341     1085.723     79.36503      158.164     316.7372      1.536     4.45     877.1323      55.8079     130.4431        11     1.093     0.769  88.53   0
       432    140.1915    410.0818 307.8694060  +6.5101305      5618.93     7760.247     7546.581      78.9874     157.9748     316.4539      1.435     2.93     878.7238      55.8079     852.4841        23     1.158     0.992  57.39   0
       433    245.0147    408.9887 307.8259062  +6.5141090     1507.336     2063.259     2135.909     79.11348     158.0379     316.5484      1.454     3.54     874.6324      55.8079     248.9895        15     1.059     1.014 -70.34   0
       434    437.3580    408.4952 307.7460339  +6.5207752     724.2609     886.1155     579.9689     79.36504     158.2899     316.7372      1.270     3.76     870.7133      55.8079     109.0713         8     0.914     0.692  46.23   0
       435    826.3041    406.6444 307.5845423  +6.5345690     979.4271     1051.743     405.7189     79.36504     158.2899     316.7687      1.243     3.21     867.2366      55.8079     182.1692         9     1.022     0.620  48.08   0
       436    162.2274    405.8388 307.8603972  +6.5126241     2613.047     4139.573     4616.852      78.9874      158.164     316.4539      1.794     3.86      878.238      55.8079     347.8208        22     1.354     0.952  81.59   0
       437    557.5703    405.1898 307.6962143  +6.5261725     1093.642     1370.012     1471.343     78.86112      158.164     316.4539      1.289     3.78     869.2418      55.8079     177.9095        11     0.956     0.896 -84.24   0
       438    385.5822    400.6015 307.7678051  +6.5222959     2224.396     3083.801     3404.075      78.9874     157.9117     316.3279      1.472     3.00     870.5278      55.8079     336.1992        15     1.046     0.844  54.92   0
       439    273.5386    401.0005 307.8143287  +6.5183662     905.5027     1071.037     1055.982     78.60796      158.164     316.2964      1.334     2.86     873.6013      55.8079     156.2542         8     0.791     0.692  11.15   0
       440      4.0650    400.5305 307.9262661  +6.5094878     782.1801     1130.693     762.3588     79.36503     156.7715     278.6016      1.462     3.69     883.0892      55.8079     143.8484         7     0.933     0.735  48.94  16
       441    974.4984    399.8164 307.5232147  +6.5423391     985.6061     1317.641     1411.319     79.36504     158.1009     316.4224      1.442     2.70     862.3865      55.8079     181.5532         7     0.897     0.482  79.84   0
       442    319.5777    398.2558 307.7952992  +6.5210470     778.5065     1171.028     1558.047      78.9874     158.3529     316.4224      1.978     4.81     871.8988      55.8079      98.1358         9     1.096     0.790 -82.71   0
       443    439.5340    394.3380 307.7456072  +6.5266934     8124.247     11127.13     11675.97     79.36504     158.3529     316.6113      1.472     2.73     869.8938      55.8079     1141.603        31     1.242     1.085  80.41   0
       444     35.8548    394.9973 307.9132502  +6.5128438     3427.151     5251.917     5610.865     78.73464      158.164     316.2964      1.607     3.11     881.5137      55.8079     469.7928        28     1.486     1.041 -62.43   0
       445    780.1578    391.6971 307.6042122  +6.5391973     14744.03     19483.82     20150.37     79.36503     158.2899     316.8316      1.372     2.74      867.533      55.8079     2334.855        37     1.237     1.025  64.63   0
       446    772.2295    393.2458 307.6074534  +6.5382926     2251.127     2984.376     3275.766     78.86112     158.4158     316.4854      1.325     2.69     867.6299      55.8079     354.3665        14     0.994     0.817  67.86   0
       447    343.5545    390.3308 307.7856078  +6.5251247     1126.862     1493.622     1959.965     79.36504     158.2899     316.6113      1.584     3.05     870.6741      55.8079     187.9476        11     0.893     0.881  33.73   0
       448   1023.4904    386.7221 307.5033031  +6.5493807     3235.933      3720.51     3709.108     71.15453     128.9344     241.1728      1.084     2.61     859.4631      55.8079     731.2756        12     0.980     0.637  84.50  24
       449    954.7828    383.6994 307.5319446  +6.5483354      771.001     808.0333     842.9908     79.36504      158.164     316.3909      1.221     3.85     862.4208      55.8079     116.7495         6     0.771     0.552  45.08   0
       450    188.6156    382.9128 307.8502118  +6.5229776     851.0746     1295.348     954.8412      78.9874     158.1009     316.4854      1.624     4.93     876.4301      55.8079     106.7927        10     1.068     0.823  61.66   0
       451    905.1956    381.9590 307.5526008  +6.5473978     678.3632     893.6932     1043.398     78.60796     158.0379     316.3594      1.379     3.86     864.2045      55.8079     120.0053         6     0.924     0.462  56.48   0
       452    527.9718    379.7662 307.7093644  +6.5356769     531.4315     619.5009     485.1083     78.86112     158.1009     316.3909      1.216     3.80     868.2716      55.8079     85.32037         5     0.840     0.493  48.94   0
       453    459.8458    378.4267 307.7377067  +6.5339445     2521.399      3336.46     2863.756     78.86112     158.4158     316.5169      1.413     3.04     868.9572      55.8079     358.6149        18     1.134     0.878  65.14   0
       454    487.7852    377.9920 307.7261163  +6.5350614     3398.111     4634.615     4522.767      78.9874     158.1009     316.4539      1.398     2.71     868.8391      55.8079     513.9468        20     1.124     0.928  61.36   0
       455    916.3317    377.6607 307.5481193  +6.5495445     987.1331         1251     1103.984     79.49051     158.2899     316.6113      1.413     3.22     863.7913      55.8079     160.0203        11     0.968     0.792  69.11   0
       456    845.5342    374.6347 307.5776291  +6.5484282     37384.23     51741.39     54585.21     79.23936     158.3529     316.6428      1.506     3.03     865.5159      55.8079     4980.746        58     1.423     1.121  75.90   0
       457    991.0158    374.8077 307.5171920  +6.5532162     574.5247     685.2764     938.2549      78.9874     158.1009     316.4539      1.369     2.84     860.1755      55.8079      129.545         6     0.876     0.457  39.95   0
       458    337.8589    370.5125 307.7886421  +6.5331157     884.0413     1255.387     1173.122     79.36503     158.4158     316.7057      1.558     3.77     870.1606      55.8079     158.1558         8     0.936     0.612 -60.20   0
       459     63.0433    370.7755 307.9027775  +6.5237603     745.0239     1013.356     481.9513      78.9874      158.227     316.4539      1.411     4.37      879.683      55.8079     108.8651         7     0.946     0.704  83.83   0
       460    617.1980    367.0200 307.6727314  +6.5439305     3023.928     4388.343     4676.365      78.9874     157.9748     316.3279      1.480     2.92     867.2106      55.8079     486.9137        24     1.229     1.007  41.38   0
       461     25.3949    367.3450 307.9185303  +6.5239079     1277.071      1640.73     1204.686     78.73464      158.164     316.2964      1.505     3.31     880.4775      55.8079      204.561        13     1.013     0.866  75.26   0
       462    148.5467    365.5054 307.8674425  +6.5288158     626.5684     791.7881     664.2621     79.23936      158.227     316.8631      1.335     3.67     877.8422      55.8079      93.3985         6     0.932     0.417  70.92   0
       463    701.9846    360.5856 307.6377292  +6.5494267     90601.05     120801.5     125634.1     79.11348     158.0379     316.5484      1.437     2.76     866.8458      55.8079     14187.91        80     1.354     1.178  58.53   0
       464    860.2043    362.1393 307.5719547  +6.5540777     1412.645      1741.09     2195.631     78.73464      158.227     316.3909      1.306     3.23      864.755      55.8079     217.9957        11     0.990     0.725  50.91   0
       465     81.2349    360.0542 307.8955844  +6.5287996      1493.02     2133.323     1897.168     79.23936     158.3529     316.6428      1.498     3.59      878.929      55.8079     213.2328        16     1.146     0.918  72.11   0
       466    564.4523    357.2241 307.6949704  +6.5462072     2989.423     4179.351     4300.435     78.86112     158.3529     316.5169      1.491     2.89     866.7704      55.8079     429.8248        20     1.189     0.948  71.18   0
       467    943.2893    357.5078 307.5375973  +6.5587657     967.8929     1274.558     746.1245     79.36504     158.8556     316.6743      1.338     3.25     861.9834      55.8079     166.1378         9     0.905     0.705  64.26   0
       468    391.2480    357.5614 307.7669032  +6.5402563      637.366     818.1484     733.0967     79.23936     158.4158     316.4539      1.562     4.22     868.3038      55.8079     106.2851         6     1.095     0.465  57.29   0
       469    101.7197    356.0522 307.8872115  +6.5311419     6824.711      9677.39     10138.96     79.36503     158.3529     316.6113      1.502     3.00     878.4378      55.8079     947.1473        32     1.260     1.071  67.11   0
       470    762.9664    355.5600 307.6125672  +6.5535426     607.6571     1025.292     1201.425     79.11348      158.227     316.4224      2.065     2.56     866.3375      55.8079     119.7784         6     0.765     0.490  -7.59   0
       471    547.7468    353.4370 307.7020370  +6.5472107     8133.332     10903.53     11508.08     79.23936     158.3529     316.6428      1.448     2.77     866.5663      55.8079     1134.902        27     1.215     0.978  53.95   0
       472    276.8077    351.1215 307.8146547  +6.5390697     3091.362     4057.486     3907.856      78.9874     157.8486     316.3909      1.389     3.02     871.7803      55.8079     421.4333        19     1.115     0.930  45.50   0
       473    410.6301    348.6232 307.7591538  +6.5445975     28809.42     40049.89     42027.22     78.86112      158.227     316.4539      1.486     2.84      867.519      55.8079     4043.078        52     1.321     1.181  55.82   0
       474    588.9758    347.9309 307.6850967  +6.5508662      793.196     1222.231     372.2506      78.9874      158.227     316.5484      1.450     3.25     866.2385      55.8079     132.0325         7     0.871     0.533  51.40   0
       475    518.2294    347.2934 307.7145047  +6.5487574     1426.975     1877.027      1874.99     79.49051     158.1009     316.5169      1.492     3.21     866.5896      55.8079     237.1115        12     1.036     0.825  62.39   0
       476    390.5257    346.7401 307.7675681  +6.5446999     1379.005     1878.769     2219.943     79.61579     158.3529     316.5799      1.477     3.35     867.9003      55.8079     166.7355        14     1.030     0.897  75.86   0
       477    676.7199    346.9321 307.6486828  +6.5542181      641.741     701.5225      759.103     79.49051     158.6044     316.6113      1.454     3.59     866.2191      55.8079     106.1763         6     0.840     0.715 -84.56   0
       478    489.9304    343.9150 307.7263733  +6.5492030      1409.24     1846.885     1552.481     79.49051     158.6044     316.6428      1.353     3.70     866.8072      55.8079     197.6012        11     0.877     0.869  50.81   0
       479    805.5602    341.5137 307.5953459  +6.5607668     1012.625     1401.711     819.3908     79.36504     158.3529     316.6113      1.524     3.47     865.1387      55.8079     136.4293        10     0.940     0.830  75.78   0
       480    387.6249    341.0760 307.7689640  +6.5469410     805.4562     1116.522     1574.732      78.9874     158.2899     316.5799      1.634     5.19     867.8168      55.8079     123.4835         9     1.002     0.805  60.01   0
       481    641.6938    341.1891 307.6634253  +6.5554162       697.33     545.3943     653.4368     79.11348     158.0379     316.3909      1.116     3.70     865.8036      55.8079     116.4286         7     0.861     0.590  36.99   0
       482    499.7534    339.0353 307.7224574  +6.5515472      9659.92     13150.94     13641.28      78.9874     158.2899     316.5169      1.428     2.76     866.3555      55.8079     1438.638        31     1.212     1.054  67.32   0
       483    768.8882    338.0360 307.6106961  +6.5609760     3559.245     4857.675     5414.792     79.36503      158.227     316.6113      1.429     3.00      865.406      55.8079     570.7513        21     1.299     0.893  43.08   0
       484    924.1884    337.6192 307.5461988  +6.5663395     1226.683     1627.752     1140.235      78.9874     158.1009     316.5169      1.373     4.06     862.3456      55.8079     186.8234        10     1.080     0.645  75.81   0
       485    716.2733    337.3456 307.6325751  +6.5595004     794.5248     961.0226     1089.464     79.23936      158.227     316.5484      1.470     4.10     865.6595      55.8079     128.1046         8     0.914     0.659  27.52   0
       486    326.0086    335.7861 307.7947360  +6.5470550      1124.89     1629.563     1500.639      78.9874     158.1009     316.5169      1.478     3.19     869.4207      55.8079      190.721         9     0.950     0.674  40.83   0
       487     85.1617    332.2657 307.8948933  +6.5404047     512.7844      588.472     462.8516     79.23936     158.2899     316.7057      1.172     3.93     878.2759      55.8079     101.9319         6     0.748     0.652 -80.75   0
       488    261.7004    329.9254 307.8216454  +6.5473129     684.0267     922.1203     911.2712     78.86112     158.4787     316.5169      1.543     5.74      871.804      55.8079     109.5929        10     1.203     0.923 -68.30   0
       489    162.0112    329.4785 307.8630677  +6.5441433      1224.32     1703.667     1707.263      78.9874     157.9748     316.5169      1.449     3.96     876.3241      55.8079     185.2781         8     0.828     0.694  79.71   0
       490    389.6109    323.1838 307.7687424  +6.5543949     8268.175      11495.8     11709.41     79.11348     158.0379     316.5169      1.468     2.83     867.3262      55.8079     1143.756        30     1.227     1.063  72.80   0
       491    245.4405    323.7057 307.8286092  +6.5493339     2486.295      3516.09      3828.87     79.49051     158.2899     316.7057      1.568     2.78     872.5265      55.8079     348.0007        20     1.107     0.999  -0.37   0
       492    743.0966    323.2734 307.6219058  +6.5662083     1099.574     1334.869     1888.294     79.11348     158.5416     316.5799      1.369     3.31     864.8563      55.8079     155.4247        11     0.982     0.730  69.65   0
       493    757.4896    319.1628 307.6160651  +6.5683871     61660.21     81746.11     84912.14     79.36504     158.2899     316.6428      1.394     2.66     864.5469      55.8079     9470.733        61     1.303     1.113  57.89   0
       494    429.0668    318.5863 307.7525083  +6.5576179     2586.615     3410.718     3939.298     78.86112      158.164     316.5484      1.411     2.89     866.3799      55.8079     373.4755        15     0.967     0.930 -73.06   0
       495    992.3259    316.2205 307.5186117  +6.5774499     1991.978     2590.906     2621.195      78.9874      158.227     316.5484      1.405     2.71     858.2448      55.8079     348.8141        15     1.041     0.841  46.60   0
       496    933.2631    315.4573 307.5431725  +6.5757929     2592.089      3222.73     3109.422     79.49051     158.2899     316.6428      1.275     2.56     861.3427      55.8079      421.918        16     0.993     0.892  66.28   0
       497    575.4196    316.0663 307.6918002  +6.5635680      1304.44      1937.17     1864.902      78.9874     158.3529     316.5169      1.582     3.55     864.1953      55.8079     181.7316        15     1.070     0.947 -78.36   0
       498    466.0516    314.7092 307.7372761  +6.5604601     1222.245     1625.164     1521.371     79.36503      158.164     316.7687      1.379     3.30     865.4595      55.8079     217.1207        10     1.006     0.640  60.18   0
       499    415.7139    314.1759 307.7582035  +6.5589906      2243.69     3060.238     3243.464     79.36503      158.164     316.4539      1.419     2.83      866.502      55.8079     338.0164        15     1.072     0.779  59.20   0
       500    295.3353    314.0070 307.8082118  +6.5550160     716.0081      1021.09     1055.672     78.86112     158.1009     316.3909      1.438     5.81      869.676      55.8079     108.8344        10     1.306     0.827  21.16   0
       501    837.0109    308.8326 307.5833787  +6.5753119     1329.486     1680.215     2076.032     78.86112     158.1009     316.4539      1.271     2.53     863.1938      55.8079     259.4755        10     0.852     0.729  88.69   0
       502    466.1381    308.8711 307.7374369  +6.5628734     803.9605     1186.834      1289.24     79.49051     158.3529     316.6743      1.600     4.49     865.1383      55.8079     107.9066         8     0.869     0.661  42.68   0
       503    969.4473    307.2432 307.5284167  +6.5803927     570.3475     1135.554     1586.922     79.36504     158.2899     316.5484      2.281     5.93     859.2893      55.8079     110.2171         8     1.276     0.775  71.22   0
       504    446.3918    305.5335 307.7457517  +6.5635886     1327.667     1601.152     1687.299     78.86112     158.1009     316.4539      1.360     3.34     865.5054      55.8079     177.4881        11     0.954     0.777  67.52   0
       505    192.0801    305.4446 307.8513903  +6.5550781     2613.582     3631.123     3904.545     79.36503     158.3529     316.6113      1.515     3.15     874.3875      55.8079     404.1401        17     1.134     0.881  49.16   0
       506    755.9192    303.7374 307.6172358  +6.5747034     6969.443     9335.566     9836.146     79.49051     158.4158     316.6113      1.404     2.72     863.7723      55.8079     1164.658        26     1.209     0.945  66.75   0
       507    227.6087    303.5118 307.8366980  +6.5570715     939.4816     1108.178     1093.388      78.9874     158.0379     316.3909      1.337     3.32     873.2243      55.8079     155.4754        11     1.017     0.792 -75.18   0
       508     88.3391    302.6204 307.8945762  +6.5527512     1316.243     2052.192     2617.594      78.9874     158.3529     316.5484      1.930     4.92     877.7042      55.8079     158.8594        13     1.116     0.856  81.62   0
       509    772.3980    301.6518 307.6104605  +6.5761158      2997.84     4033.434     4061.652     78.73464     157.9748     316.2018      1.391     2.78     863.6235      55.8079     437.8903        18     1.131     0.855  69.99   0
       510    346.5367    303.3080 307.7873049  +6.5611541     673.4957     1073.604     981.2292     79.36504     158.5416     316.6743      1.511     4.84     867.8637      55.8079     91.33527         7     1.071     0.619  17.15   0
       511    361.9767    296.4941 307.7811213  +6.5644861     1927.675     3504.589     3667.119     79.36503      158.164     316.4539      1.962     5.42     867.3256      55.8079     246.6506        23     1.549     1.007   6.25   0
       512     75.4920    296.5968 307.9001162  +6.5548052     1564.997     2248.016     1959.442      78.9874     158.0379     316.3594      1.608     3.77     877.6357      55.8079     234.8693        14     1.160     0.830  42.61   0
       513   1010.4901    292.6049 307.5118576  +6.5878067     6765.874     9170.686     9693.143     78.86112     158.0379     316.3594      1.427     2.72      857.076      55.8079     1062.239        28     1.197     0.995  64.43   0
       514    488.5307    292.4494 307.7286886  +6.5704049       2402.2     3213.741     3090.568     79.36504     158.2899     316.6428      1.444     2.89     863.6066      55.8079     325.2242        15     1.015     0.905  53.64   0
       515    251.1899    287.9795 307.8274275  +6.5642775     6214.787     8682.217     9273.434      78.9874     158.0379     316.4539      1.468     2.97     871.4848      55.8079     896.2272        26     1.225     1.010  45.35   0
       516    816.0185    287.0791 307.5928296  +6.5835916     731.6855     963.3525     1001.862      78.9874     158.0379     316.5484      1.310     4.43     862.6871      55.8079     120.8846         8     1.082     0.516  53.72   0
       517    770.6859    280.9534 307.6118671  +6.5846046     968.6774     1363.549     1522.939     79.36503     158.2899     316.6113      1.270     3.66     862.7985      55.8079     197.1218         7     1.031     0.604 -57.38   0
       518    385.4626    278.6881 307.7719662  +6.5726266     1875.537     2687.387     2621.032     79.23936     158.5416     316.6428      1.544     3.68     866.3146      55.8079     240.1073        19     1.272     0.935  58.64   0
       519    227.9004    280.3854 307.8373580  +6.5666295     703.1583     1036.832     204.3751     79.36503     158.1009     316.2649      1.541     4.18       872.86      55.8079     97.92902         6     0.801     0.622  47.55   0
       520    972.1334    277.7763 307.5282889  +6.5926489     1305.494     1559.655     1848.033      78.9874     158.3529     316.5484      1.273     2.97     858.4163      55.8079     206.8787         9     0.900     0.647  60.67   0
       521    192.1975    276.3257 307.8523254  +6.5671043     650.1422     812.1918     1221.389     78.86112     157.8486     316.4854      1.398     5.12     873.6541      55.8079     85.84064         7     0.900     0.825 -41.79   0
       522    307.3374    274.7828 307.8045503  +6.5716139     1409.718     1635.922     1062.801     78.86112     158.2899     316.4539      1.404     3.40     868.5225      55.8079     203.5536        14     1.093     0.838  66.05   0
       523    155.0331    274.6030 307.8678209  +6.5665646     1955.499     2807.659     3180.203     78.60796      158.164     316.3279      1.467     3.31     874.5526      55.8079      297.863        15     1.143     0.808  57.14   0
       524    564.7483    270.3098 307.6977735  +6.5821021     2397.999     3169.902     3159.427     79.36504      158.164     316.7372      1.417     3.31     861.9113      55.8079     321.4728        16     1.152     0.807  63.30   0
       525    907.9871    269.2628 307.5552223  +6.5940217     1840.611     2824.206     3042.566     78.86112      158.164     316.3909      1.633     5.07     860.4291      55.8079     310.1115        16     1.544     0.736  35.11   0
       526    728.3637    267.9124 307.6298866  +6.5885727      5698.09     7347.774     7612.411     79.36503      158.227     316.6113      1.346     2.66     862.5894      55.8079     900.4611        22     1.143     0.896  46.44   0
       527    669.2098    267.7747 307.6544646  +6.5866491     2535.645     3504.801     3802.946      78.9874      158.164     316.4854      1.457     3.04     862.2304      55.8079     412.6869        18     1.120     0.907  48.07   0
       528    966.3553    267.6508 307.5310288  +6.5966366     893.5788     1125.979     899.7474     79.49051     158.2899     316.6428      1.364     2.94     858.3109      55.8079     134.1259         8     0.873     0.656   9.10   0
       529    384.1020    261.9909 307.7730945  +6.5794747     916.0736       1388.9     1859.859     79.11348     157.9748     316.3909      1.609     4.61     865.8539      55.8079     113.3553        12     1.037     0.846  79.57   0
       530    924.2172    260.0966 307.5487874  +6.5983484     1290.968     1864.902     1652.498     79.23936      158.164     316.3909      1.447     3.17      859.605      55.8079     198.5745        10     0.939     0.698  33.94   0
       531    227.7845    253.0036 307.8383311  +6.5779305     2733.633     3808.039     3445.858      78.9874     157.9748     316.4539      1.454     3.24     872.1755      55.8079     411.3808        19     1.180     0.902  53.45   0
       532    870.5511    252.0882 307.5713505  +6.5998619     1979.521     2654.539      2459.53     79.36503      158.227     316.7057      1.359     2.57     861.0692      55.8079     353.0684        17     1.047     0.890  71.46   0
       533    761.0909    251.5738 307.6168402  +6.5964138       1894.1      2270.29     1933.431     79.49051     158.1009     316.4539      1.296     3.21     862.1812      55.8079     334.8282        12     1.110     0.689  70.12   0
       534    249.4757    246.9431 307.8295255  +6.5811624     777.4053      969.739     563.6833     79.36503     158.2899     316.5484      1.325     3.68     871.1706      55.8079     117.9701         8     0.810     0.700  19.56   0
       535    323.0263    244.9593 307.7990398  +6.5844544      642.051     1139.307     855.1613      78.9874      158.164     316.4224      1.778     5.95     867.8998      55.8079     110.6285         9     1.122     0.888  77.78   0
       536    461.8097    242.9557 307.7414563  +6.5899428     25131.09     35716.05     37405.25     78.86112      158.227     316.3279      1.500     2.95      862.088      55.8079     3681.346        52     1.389     1.160  62.68   0
       537    787.8580    242.1708 307.6060365  +6.6011916     15018.58     20246.92     22015.43      78.9874     158.4158     316.5169      1.400     2.73     861.6819      55.8079     2302.677        42     1.325     1.168  -5.76   0
       538    726.7308    237.5289 307.6315863  +6.6010628     870.3179     1235.537     649.7169     79.36504     158.4787     316.5799      1.549     3.22     862.0729      55.8079     125.7539         7     0.828     0.655 -77.06   0
       539    467.5873    237.7464 307.7392318  +6.5922875     1579.366     2276.468     2689.309     78.73464     158.2899     316.3279      1.556     3.08      861.572      55.8079     254.1876        13     1.059     0.772  27.82   0
       540    149.9339    236.1955 307.8712374  +6.5822499     2746.006     3932.847     4126.671     78.86112     158.1009     316.4224      1.517     2.96     873.8748      55.8079     367.6902        20     1.112     0.995  27.44   0
       541    124.6751    235.3100 307.8817596  +6.5817649     1092.573     1766.854     1781.277     79.36504     158.6044     316.6743      1.839     4.03     874.6523      55.8079     154.9484        10     1.007     0.832 -73.34   0
       542    780.0176    234.4533 307.6095528  +6.6041157     707.5264     1315.247     1961.115     78.86112     158.4158     316.3594      2.028     5.75     861.5563      55.8079     112.5396        10     1.616     0.784 -14.53   0
       543    176.8054    234.4144 307.8601355  +6.5838898     664.1612     829.2552      1051.22      78.9874     158.0379     316.4539      1.253     4.13     873.0573      55.8079      99.2052         6     0.770     0.633  42.88   0
       544    924.2264    232.6667 307.5497039  +6.6096741     1487.488     1812.761     2411.899      78.9874      158.227     316.5169      1.303     2.58     858.4127      55.8079       258.36        11     0.901     0.743  59.57   0
       545    585.9201    228.7757 307.6903767  +6.5999602     5185.516     7162.616     7261.469     79.11348      158.164     316.6113      1.450     2.92     860.6998      55.8079     825.1327        25     1.220     0.964  59.37   0
       546    548.5541    228.7900 307.7058987  +6.5987015      2346.24     3043.455     3163.226     78.86112      158.227     316.2964      1.437     3.10     860.4709      55.8079     304.2326        16     1.034     0.978  80.09   0
       547    306.0587    229.6599 307.8066046  +6.5902007     1296.646     1827.009     1510.867     79.36503     158.2899     316.6428      1.472     2.97     868.8318      55.8079     192.5966        11     0.907     0.794  37.52   0
       548    390.4410    227.7543 307.7716160  +6.5938228     1813.446     2723.884     2702.237     79.23936     158.3529     316.4539      1.578     3.06     864.6536      55.8079     271.0487        12     1.012     0.745  42.79   0
       549    946.6013    225.8200 307.5406382  +6.6132483     3033.981      4079.25     4065.877      78.9874     157.9748     316.3279      1.392     2.90     857.3378      55.8079     525.3996        19     1.112     0.898  60.12   0
       550    892.8990    225.3857 307.5629627  +6.6116337     13129.79     17232.82     18148.41     79.23936     158.1009     316.3594      1.360     2.64      859.498      55.8079     2171.009        31     1.145     1.015  59.86   0
       551    567.6843    225.1008 307.6980759  +6.6008662     925.3902     1428.404     1533.776     79.36503     158.8556     316.7057      1.597     3.86     860.4601      55.8079     121.6395        11     1.047     0.744  63.35   0
       552    320.3672    225.7808 307.8007917  +6.5922832      968.245      1375.65      1849.98     78.86112      158.164     316.4224      1.652     3.90     868.0068      55.8079      153.007        10     0.970     0.716  57.64   0
       553    979.5486    223.2606 307.5270364  +6.6154051     11343.81     14656.28     15157.69     79.36504     158.2899     316.6113      1.349     2.62     856.2591      55.8079     1804.293        29     1.166     0.953  50.11   0
       554    690.9264    223.1672 307.6469432  +6.6057938     3247.591     4578.706     5516.065     79.23936     158.3529     316.5799      1.571     2.77     861.4958      55.8079     510.1646        23     1.224     0.950  65.41   0
       555    211.9772    225.4240 307.8458291  +6.5887853     757.8264     1127.266     939.7823     78.86112      158.227     316.5799      1.349     2.00     871.8993      55.8079     165.0794         6     0.743     0.494  -0.31   0
       556    265.3642    222.7046 307.8237440  +6.5917040     1282.318     1759.707     1768.921     79.49051      158.227     316.7372      1.472     4.28      870.493      55.8079     164.9645        12     1.265     0.687  67.84   0
       557     19.0343    221.8092 307.9260981  +6.5837791     28220.57     39849.43     41497.64     78.86112      158.164     316.4539      1.481     2.92     876.9423      55.8079     4158.822        48     1.345     1.121  62.74   0
       558    499.6207    217.9728 307.7265909  +6.6015264     2250.233     3174.005     3433.427     78.86112      158.164     316.5799      1.481     3.01     860.2286      55.8079     309.0323        18     1.159     0.868  51.79   0
       559    831.6223    214.7668 307.5887758  +6.6139698     2293.925     3142.238     3481.095     78.86112      158.164     316.3909      1.461     2.94     860.3208      55.8079     352.7536        16     1.075     0.869  49.21   0
       560    883.7017    213.9164 307.5671686  +6.6160618     2319.666     3123.587      3345.18     79.36503     158.7301     316.6743      1.394     2.71     859.1486      55.8079     344.7888        15     1.062     0.787  60.48   0
       561    511.5212    214.0181 307.7217805  +6.6035584     2757.999     3926.169     3897.357      78.9874     158.0379     316.5484      1.504     2.88     860.1804      55.8079     404.0638        18     1.153     0.858  62.14   0
       562    743.0806    211.3159 307.6256752  +6.6124328     46086.17     61433.64      63712.8     79.23936     158.6044     316.6743      1.394     2.70     861.1606      55.8079     7108.479        56     1.305     1.104  56.88   0
       563    630.2626    214.3956 307.6724397  +6.6073834     509.5038     688.4357     704.4147     78.73464     158.1009     316.3909      1.185     3.44     860.7064      55.8079     107.7811         5     0.805     0.425  20.74   0
       564    346.1654    210.6563 307.7905853  +6.5993946     6169.413     12187.63     13347.07     79.23936     158.3529     316.6113      2.077     5.85     866.3903      55.8079     759.0151        45     1.929     1.156 -85.45   0
       565    976.9109    210.0991 307.5285735  +6.6207513     3252.091      4236.13     4287.708     79.36503     158.7928     316.5799      1.352     2.82     855.9205      55.8079     519.3051        21     1.054     0.931  42.24   0
       566    910.9638    208.3854 307.5560284  +6.6192563     8574.323     11401.83      11500.6      78.9874      158.164     316.3909      1.401     2.74     857.6599      55.8079     1360.194        29     1.221     0.977  64.54   0
       567    454.4958    207.4653 307.7456908  +6.6043503     5564.015     7795.982      8187.57     79.36504     158.4787     316.6428      1.535     2.96     861.1874      55.8079      743.306        30     1.267     1.062  74.64   0
       568   1015.2883    208.7936 307.5126736  +6.6225713      2049.97     2659.284     2581.313     78.86112     158.0379     316.3594      1.326     2.73      855.009      55.8079     320.0377        13     0.951     0.802  59.22   0
       569    229.2320    204.2834 307.8393757  +6.5980941      1057.67     1473.909      1308.22     79.36504      158.164     316.4854      1.413     2.99     871.1899      55.8079     173.7598        11     0.921     0.806  54.06   0
       570    111.8586    198.6401 307.8883236  +6.5964728     5468.661     7589.872     7671.128     79.36503     158.3529     316.6743      1.472     3.15     874.1391      55.8079     730.8646        25     1.210     0.975  69.20   0
       571    282.1775    195.4108 307.8176813  +6.6035381     37513.38     53269.58      55371.1      78.9874      158.164     316.4854      1.531     2.96     869.6824      55.8079     5403.125        62     1.412     1.199  58.97   0
       572    931.3683    197.9956 307.5479000  +6.6242278      851.386     1174.526     1450.101     78.73464      158.227     316.3909      1.266     3.62     856.3904      55.8079     161.9366         7     0.879     0.521  56.55   0
       573    257.4856    196.4036 307.8279051  +6.6022978     7526.223     10628.64     10917.37     78.86112     157.9748     316.3279      1.525     2.87     870.3556      55.8079     1078.002        31     1.308     1.037  56.30   0
       574    608.6671    196.8705 307.6820009  +6.6138955     794.2152      1278.72      1660.91     79.36503     158.4158     316.6113      2.083     4.16      860.192      55.8079     128.0307         8     1.001     0.622  87.70   0
       575    711.1451    194.6769 307.6395017  +6.6182337     1028.923     1304.972     1228.804     79.49051     158.3529     316.6113      1.347     3.29     860.4416      55.8079     159.0334        10     0.970     0.710  68.31   0
       576    406.2557    190.9199 307.7662886  +6.6095618     55648.22     78083.49     81158.76     79.49051     158.3529     316.6428      1.500     2.95      862.529      55.8079     8133.173        67     1.391     1.189  60.45   0
       577    162.1615    192.2164 307.8676449  +6.6008188     4499.751     6320.972     6305.669      78.9874      158.227     316.3909      1.494     3.11     872.4327      55.8079     654.4755        23     1.212     0.998  68.02   0
       578    423.5298    191.4290 307.7590954  +6.6099316     1576.636     2108.292      1854.93     79.11348     158.3529     316.5484      1.427     3.03     861.6145      55.8079     206.3569        15     1.024     0.888  62.04   0
       579    745.5400    187.2032 307.6254639  +6.6224707     37553.91     49865.27     51850.19     78.73464     158.1009     316.3279      1.397     2.62      859.958      55.8079     5745.732        54     1.321     1.074  64.03   0
       580    310.2568    188.6155 307.8062462  +6.6072877     20278.32     28802.38     29970.95     78.73464     158.2899     316.3594      1.520     2.89     868.2892      55.8079     2825.151        46     1.315     1.163  63.52   2
       581    317.6575    188.6714 307.8031699  +6.6075134     2455.199     3871.679     4951.207     79.49051     158.3529     316.5799      1.999     7.16       867.86      55.8079     366.8219        25     1.878     1.050 -84.30   2
       582    693.7263    189.2649 307.6469201  +6.6198850     1254.031     1491.219     1374.413     79.49051     158.3529     316.6113      1.281     2.89     860.2091      55.8079     187.3577        11     0.882     0.821 -84.43   0
       583    793.6343    187.6732 307.6054677  +6.6238858      1505.73     2019.456       1948.9     79.23936     158.2899     316.6113      1.420     3.56     859.5217      55.8079     251.1467        15     1.053     0.959 -10.17   0
       584     32.8256    187.3398 307.9215361  +6.5984750     719.0112     1117.002     644.3528      78.9874     158.3529     316.4854      1.415     3.89      877.009      55.8079     148.2396         9     1.013     0.793  61.08   0
       585    569.2419    185.5002 307.6987622  +6.6172685      617.386     995.9457     1547.903     79.36504      158.227     316.8316      1.822     4.53      859.863      55.8079     116.9423         7     1.376     0.425  69.14   0
       586     62.3531    184.2575 307.9093747  +6.6007428     10250.76     14445.18     14675.26     79.36504     158.3529     316.7372      1.500     2.91     875.7794      55.8079      1516.75        37     1.330     1.105  59.42   0
       587     96.2410    182.4128 307.8953601  +6.6026462     1818.046     2558.843     2409.455     78.73464      158.164     316.3594      1.478     3.16     874.2535      55.8079     271.2432        15     1.125     0.834  65.55   0
       588   1003.9388    181.6397 307.5182991  +6.6334039     1250.583     1402.397     1567.145     79.36503     158.3529     316.6428      1.132     2.44     854.6724      55.8079     242.5002        11     0.948     0.677  71.62   0
       589    730.4005    175.2521 307.6321552  +6.6268984     794.7744     1102.564     1223.072     78.60796     157.9117     316.1703      1.550     4.58     859.4891      55.8079     116.6121         8     0.971     0.614  75.95   0
       590    579.4308    171.6909 307.6949943  +6.6233115     1006.614     1487.473     782.2328     79.49051      158.164     316.5799      1.703     4.81     859.6582      55.8079     132.8158        14     1.135     0.925  85.25   0
       591   1004.9031    167.8824 307.5183597  +6.6391163     2375.745     3229.219      3833.39     79.23936     158.7301     316.6743      1.401     3.03     854.3593      55.8079     419.6652        17     1.175     0.844  77.42   0
       592    587.9286    165.7077 307.6916654  +6.6260667     1113.633     1405.922     1812.909     79.23936     158.5416     316.6428      1.369     3.37     859.5636      55.8079     183.3258        11     1.106     0.632  75.18   0
       593    281.1065    161.6567 307.8192659  +6.6174380     34190.82     48452.36      50874.2     79.23936     158.3529     316.8001      1.514     3.00     869.2682      55.8079     4726.958        55     1.353     1.203  61.24   0
       594    273.6182    164.8191 307.8222700  +6.6158805     636.1583     1204.015     1642.191     79.11348      158.227     316.5484      2.048     5.03      869.499      55.8079      92.3739         5     1.093     0.655  30.17   0
       595    596.4423    163.4568 307.6882042  +6.6272814     2389.174     3244.567     3053.274     79.23936     158.2899     316.6113      1.403     2.72     859.5126      55.8079     370.0123        16     1.038     0.854  57.10   0
       596    340.3805    163.4347 307.7945820  +6.6186965     1100.974     1602.126     1615.816     78.86112      158.164     316.3909      1.515     3.22     866.6078      55.8079     205.1373        11     1.117     0.665  31.30   0
       597     26.3466    160.3441 307.9251413  +6.6094019     5070.886     7241.034     8079.145     79.49051     158.3529     316.5799      1.589     3.05     877.6656      55.8079     715.1226        31     1.525     1.098 -75.79   0
       598    712.6962    158.3541 307.6400786  +6.6332825     9346.975     12246.75     12777.55     79.36504     158.2899     316.7687      1.378     2.81     858.8323      55.8079     1448.847        27     1.147     0.983  53.77   0
       599    190.2311    159.6118 307.8570866  +6.6152249     1044.966     1315.766     908.5493     78.86112     158.1009     316.5169      1.342     3.17     871.2385      55.8079     158.1144        11     1.085     0.627  51.27   0
       600    266.4891    156.9761 307.8254964  +6.6188788     828.8559     1152.356     1200.531     79.36503      158.164     316.4854      1.455     3.69     869.6536      55.8079      123.358        10     0.978     0.761  20.74   0
       601    123.5626    155.2878 307.8849279  +6.6147654      5367.61     7501.848     7481.154     79.36504      158.227     316.6113      1.519     3.07     872.6672      55.8079     747.6964        24     1.217     0.993  76.82   0
       602    419.6233    154.4024 307.7619668  +6.6250876     442.2348     431.8902     245.8934      78.9874     158.0379     316.4224      1.072     3.45     860.2521      55.8079     67.50714         5     1.066     0.323  69.16   0
       603    585.2355    153.6347 307.6931907  +6.6309611     760.7342      795.369     1233.356     79.11348     158.1009     316.3594      1.175     2.57     859.2357      55.8079      139.882         7     0.827     0.578  31.77   0
       604    651.3989    152.4308 307.6657438  +6.6336753     923.2492     1313.268     1448.694     78.73464      158.164     316.4224      1.548     3.90     859.0166      55.8079     116.5334        11     0.962     0.802 -70.26   0
       605    462.4619    152.5207 307.7442335  +6.6273027     1459.966     1682.121     1235.358     79.49051     158.4158     316.6113      1.208     2.66     859.8026      55.8079     220.8936        11     0.960     0.714  65.28   0
       606    394.2022    151.4467 307.7726273  +6.6254542     4177.547     6543.451      6658.54     78.73464     158.0379     316.2334      1.669     3.52     862.3273      55.8079     574.1643        31     1.465     1.131  79.17   0
       607    570.7247    150.9148 307.6993107  +6.6315976     812.3885     1115.596     872.4686     79.49051     158.6673     316.6743      1.542     5.69     859.1318      55.8079      108.605         9     1.209     0.755 -77.00   0
       608    113.0251    150.0793 307.8894815  +6.6165608     1971.371     2792.594     2602.172     79.11348     158.2269     316.6113      1.471     3.48     872.8839      55.8079     247.1002        17     1.245     0.834  67.73   0
       609    358.6519    150.3004 307.7874347  +6.6247332     3661.133     4979.464     5109.884     79.36504     158.3529     316.8316      1.484     3.21      865.447      55.8079     474.3942        20     1.159     0.944  68.89   0
       610    156.1438    150.7959 307.8715451  +6.6177171     527.2946     738.4955     464.3444     78.73464      158.164     316.2964      1.642     4.63     871.4656      55.8079     108.9246         5     1.209     0.504 -53.88   0
       611    749.0119    148.3233 307.6253284  +6.6386396     601.4101      669.085      624.713      78.9874     157.9748     316.4539      1.439     4.49     858.0317      55.8079     116.3605         6     0.974     0.589  58.04   0
       612    674.6398    148.2436 307.6562292  +6.6361826     951.8441      1052.26     806.8043     79.11348     158.3529     316.4854      1.267     5.31     858.7504      55.8079     130.8087        10     1.093     0.856  -8.08   0
       613    906.9629    148.0128 307.5597166  +6.6440494     410.7055     469.0906     503.6552     78.86112      158.164     316.3279      0.977     3.59     854.5601      55.8079     76.46777         5     0.632     0.604   0.78   0
       614   1005.3143    144.7129 307.5189656  +6.6486963     1680.828     2232.246     2013.268     79.11348     158.5416     316.6743      1.377     2.88     853.1919      55.8079     251.0803        12     0.967     0.798  69.31   0
       615    210.5511    139.2006 307.8493350  +6.6243358     6067.969     8352.339     8140.233     78.73464     157.9748     316.1703      1.477     3.08     870.6004      55.8079     854.2709        26     1.225     1.007  65.37   0
       616    672.2792    138.0851 307.6575517  +6.6402977     7146.593     9596.674     9723.099     79.23936     158.6673     316.7057      1.395     2.73     858.3577      55.8079     1156.188        30     1.183     1.037  52.24   0
       617     93.1769    139.0656 307.8980993  +6.6204392     2480.011     3617.358      3733.66      78.9874     158.3529     316.5169      1.530     3.24     873.3499      55.8079      390.663        19     1.264     0.867  65.66   0
       618    820.3970    138.0425 307.5960162  +6.6452724     1190.932     1518.561     1353.222     78.73464     157.9117     316.3279      1.317     3.38     856.3399      55.8079     194.7409        11     0.941     0.900  38.83   0
       619    624.4312    135.4152 307.6775202  +6.6397971     10642.82     14353.42     15246.66      78.9874     158.1009     316.5484      1.442     2.75     858.5048      55.8079      1659.83        32     1.213     1.038  61.26   2
       620    628.0367    126.8555 307.6763103  +6.6434520     59988.15     81813.52     85657.68     79.23936     158.3529     316.6428      1.438     2.89     858.1913      55.8079     9334.252        70     1.348     1.199  61.99   2
       621    259.2859    135.9786 307.8291980  +6.6273057     873.9261     1157.198     1421.991     79.36503     158.1009     316.5169      1.390     4.74     869.7462      55.8079     109.1691         9     1.011     0.631  38.42   0
       622    562.4245    134.8596 307.7032997  +6.6379480     744.5065     969.1339     1058.225      78.9874     158.3529     316.4539      1.348     4.35     858.5797      55.8079     106.1161         7     1.070     0.504 -45.31   0
       623     23.3309    134.0157 307.9272853  +6.6201700     969.9307      1458.22      1165.21     78.86112      158.227     316.5169      1.714     4.98     877.1693      55.8079     145.9778        13     1.305     0.749 -70.51   0
       624    351.6452    131.0480 307.7909953  +6.6324464       3950.1      6140.75     6880.169     79.36503      158.227     316.6113      1.709     3.42     866.0307      55.8079     529.3951        31     1.538     1.082 -64.88   0
       625    533.2771    130.5472 307.7155542  +6.6387510     1942.691     2464.168     2029.229     79.49051     158.3529     316.6113      1.363     2.97     858.5818      55.8079      283.016        17     1.125     0.853  41.06   0
       626    997.7702    130.1741 307.5225875  +6.6544473     885.9493     1025.614     1045.474     78.86112      158.164     316.4539      1.254     3.46     852.3694      55.8079     148.1879         7     0.861     0.592  59.36   0
       627    307.1289    120.5371 307.8098438  +6.6352897     4000.566     5740.464     6478.353     79.36503     158.3529     316.6743      1.572     3.12      868.238      55.8079     554.6211        26     1.251     1.029  64.73   0
       628    502.7122    117.8102 307.7286815  +6.6429844      544.256      827.184     859.6885      78.9874     158.0379     316.4539      1.600     4.37     858.6351      55.8079     75.25323         7     0.866     0.628 -58.90   0
       629      4.7296    103.5257 307.9360450  +6.6321307     743427.7      1470536      1577305     79.61579     158.4787     286.6419      2.081     3.90     877.4333      55.8079     60884.26       332     2.047     1.774  84.91  28
       630    706.9760    115.0303 307.6439120  +6.6509784     1172.199     1349.078      926.523     78.86112      158.227     316.4224      1.317     2.91     856.9677      55.8079      219.158         9     0.893     0.680  76.20   0
       631    678.5123    114.0644 307.6557701  +6.6504240     1595.933      2088.01     1806.722     79.36503     158.5416     316.6428      1.392     3.20      857.275      55.8079     276.0223        14     1.110     0.826  23.77   0
       632    692.3724    110.8250 307.6501206  +6.6522257     3739.645     5217.878     5619.647     78.86112      158.164     316.4854      1.458     2.78     856.9816      55.8079     605.5994        21     1.120     0.975  50.56   0
       633    434.1061    101.8057 307.7577236  +6.6472894     4675.418     6569.645     6413.833      78.9874     158.0379     316.3909      1.483     2.96     859.7797      55.8079      666.976        26     1.211     1.020  66.60   0
       634    888.6551     98.1986 307.5689949  +6.6640050     2463.721      3251.42     3421.928     78.73464     158.1009     316.2964      1.312     2.67     853.1412      55.8079     415.8511        15     1.011     0.804  51.56   0
       635    906.6772     97.2419 307.5615392  +6.6650022     4625.987     6102.817     6397.686     79.23936     158.3529     316.6743      1.379     2.69     852.9474      55.8079     720.5741        21     1.100     0.958  42.14   0
       636    598.7397     95.7882 307.6895278  +6.6552970     2005.261     2756.642     2451.165     78.73464      158.227     316.3279      1.440     3.43     857.2631      55.8079     281.7291        16     1.172     0.839  68.77   0
       637    586.7635     97.8050 307.6944356  +6.6540628      842.243     1161.945     1221.339     78.48106     158.1009     316.4224      1.404     3.86     857.3176      55.8079     130.0096         6     0.781     0.548  49.76   0
       638    244.3934     94.4630 307.8367873  +6.6439449     833.5248     1587.148     2141.877     78.73464      158.164     316.3909      2.133     6.14     869.7466      55.8079     121.2092        12     1.408     0.996  44.59   0
       639    397.6078     93.7660 307.7731581  +6.6493831     2249.988     3092.502     2717.076     78.86112      158.164     316.3909      1.441     3.24      861.872      55.8079     300.8976        17     1.156     0.876  42.95   0
       640    145.4721     90.5786 307.8780145  +6.6422190     3809.616      5118.23     5503.432      78.9874      158.227     316.5799      1.483     3.12      869.867      55.8079     501.0928        18     1.079     0.960  52.32   0
       641    293.6335     89.2684 307.8165062  +6.6477457     1502.911      2066.85     2684.628     79.23936     158.3529     316.6743      1.457     3.90     868.9074      55.8079     213.3828        13     1.162     0.782  83.48   0
       642     27.3197     88.2915 307.9271763  +6.6391819     14081.14     19916.03     21029.12     79.11348     158.6044     316.6428      1.504     2.92     875.5544      55.8079     2071.487        38     1.289     1.110  58.79   0
       643    567.1839     88.1945 307.7028938  +6.6573743     756.6335     1060.876       1446.4      78.9874     158.0379     316.4539      1.797     3.88      857.065      55.8079      134.088         9     0.970     0.759  44.37   0
       644    762.3597     87.2538 307.6218355  +6.6643004     870.3221     1339.607     1877.021     79.23936     158.3529     316.5799      2.134     3.55     854.9766      55.8079     161.2734         9     0.907     0.881  53.72   0
       645    947.9740     87.0538 307.5447230  +6.6705882     700.8528     756.2922     779.8948      78.9874     158.4787     316.4854      1.176     2.71     851.6589      55.8079      174.145         6     0.897     0.427  52.05   0
       646    156.5868     86.5034 307.8735348  +6.6442758     639.7098     908.0005     847.9578     79.23936     158.1009     316.3909      1.554     4.92     869.3593      55.8079     105.6955         6     1.208     0.568  41.07   0
       647     12.3731     87.1341 307.9334247  +6.6391558     483.8085      1120.04     3128.557      78.9874     158.2899     316.5169      3.206     3.48     876.3766      55.8079     75.58588         5     0.809     0.433  71.53   1
       648    829.0616     83.0969 307.5942619  +6.6682480     7097.917     9452.739     10154.03     79.11348     158.4158     316.6743      1.375     2.78     853.6001      55.8079     1172.336        26     1.173     0.966  60.90   0
       649    774.1782     83.3442 307.6170566  +6.6663101     3704.049     5051.199     4872.446      78.9874     158.3529     316.4224      1.419     2.81     854.6703      55.8079     565.5677        21     1.148     0.940  66.90   0
       650    419.2038     83.9448 307.7645172  +6.6541632     1159.146      1472.66     865.2235     78.73464      158.164     316.2964      1.394     3.79     860.1151      55.8079     177.1523        11     1.083     0.731  64.89   0
       651    920.6121     83.3386 307.5562161  +6.6712081     606.1001     916.9384     714.6427     78.86112      158.164     316.3594      1.634     3.74     852.3231      55.8079     111.7301         5     1.277     0.315  44.75   0
       652    896.1393     84.1840 307.5663558  +6.6700414     724.3884     979.4451     407.6347     78.86112     158.2899     316.3594      1.328     3.95     852.5684      55.8079     104.2845         6     0.796     0.560  47.17   0
       653    554.7612     87.7572 307.7080698  +6.6571383     918.2772     1234.667     1487.919     79.11348     158.3529     316.4854      1.598     3.28     857.0707      55.8079     165.0893         8     0.981     0.612  56.89   0
       654    536.1510     81.4793 307.7160131  +6.6591061     1398.309     1590.492     1611.447     79.36503     158.4158     316.6113      1.344     2.86     857.0974      55.8079      197.239        13     0.951     0.842  78.05   0
       655    656.3723     80.5453 307.6660962  +6.6635216     722.5952     987.4246     1108.896     79.11348     158.4158     316.4854      1.525     5.71     856.2593      55.8079     96.40405        10     1.206     0.763   5.04   0
       656     67.6012     80.0278 307.9107218  +6.6439515     3695.221     5270.922     5262.985     78.86112     158.1009     316.4224      1.510     3.29      872.762      55.8079     514.0077        22     1.231     1.008  82.19   0
       657     52.0947     80.7539 307.9171391  +6.6431291     1112.002     1418.963     1314.776     79.23936     158.2899     316.7372      1.448     5.29     873.7495      55.8079     173.1406        13     1.320     0.728  55.91   0
       658    428.9832     80.0228 307.7605865  +6.6561109     1060.479      1547.72     1964.862     79.11348      158.227     316.5484      1.582     3.10     859.7874      55.8079     148.8915         9     0.789     0.760  63.80   0
       659    591.2415     77.0262 307.6932747  +6.6627920     1371.588     1424.727     1053.591      78.9874     158.2899     316.4539      1.239     3.05     856.7705      55.8079     217.5479        10     0.916     0.729  34.46   0
       660    262.0402     76.7533 307.8300543  +6.6518502     552.8297     941.9079     1003.318     79.23936     158.3529     316.4224      1.665     5.11     869.4204      55.8079     76.03784         6     1.210     0.609  60.46   0
       661     10.0712     75.5452 307.9347734  +6.6438627     2842.361     3999.525      4545.95     79.23936     158.2899     316.5799      1.525     3.01     875.9671      55.8079     426.1022        20     1.186     0.940  54.66   0
       662    768.7419     70.8082 307.6197366  +6.6713040     2289.542     2869.844     2788.671     78.73464      158.227     316.3279      1.301     3.14     854.4407      55.8079     351.6503        14     1.029     0.777  60.45   0
       663     82.8645     71.5220 307.9046687  +6.6479776     860.6005     1124.082     998.4424     79.61579     158.4158     316.5799      1.384     4.25     871.4614      55.8079     133.8812         8     0.983     0.728  34.02   0
       664    409.4033     71.0347 307.7690244  +6.6591642     1168.785     1308.818     842.5815     78.48106      158.164     316.3594      1.295     3.17     860.8356      55.8079     181.7626        10     0.869     0.790 -88.67   0
       665    106.4247     69.6453 307.8949443  +6.6495462      1027.14     1506.743     1262.039     78.86112     158.3529     316.4854      1.425     3.74     870.3127      55.8079     166.9051         9     1.000     0.620  62.41   0
       666     95.4168     64.5070 307.8996913  +6.6512967     10485.15     14750.48     15006.71     79.11348      158.164     316.4539      1.538     2.90     870.3771      55.8079     1439.567        37     1.342     1.087  66.50   0
       667    424.4140     64.3677 307.7630128  +6.6624209     2749.845     3698.077     4089.878      78.9874     158.1009     316.5484      1.484     2.96      859.912      55.8079     388.9432        18     1.047     0.993  41.63   0
       668    245.8405     64.0546 307.8372134  +6.6565480     642.2795     878.2275     1038.591     79.23936     158.3529     316.6428      1.607     3.62     869.4508      55.8079     91.61176         6     0.909     0.460  56.24   0
       669    262.3065     58.9842 307.8305438  +6.6591953     1648.905     2742.319     4277.877     79.11348      158.164     316.4539      2.558     4.23     869.3186      55.8079      217.767        17     1.324     0.859  67.39   0
       670    638.1496     56.5985 307.6744732  +6.6727980     21264.92     28465.54     29968.35     78.73464     157.9748     316.2018      1.406     2.80      855.717      55.8079     3160.169        43     1.256     1.100  60.11   0
       671    947.4260     56.7171 307.5459685  +6.6830952     590.3313     965.0315     1352.465     79.23936     158.1009     316.5799      1.292     3.45      850.387      55.8079     101.0287         5     1.001     0.344  67.81   0
       672    537.9429     52.7032 307.7162380  +6.6710470     5855.249     7900.549     7988.029     79.23936     158.2899     316.8316      1.443     2.96     856.4531      55.8079     850.1105        25     1.167     0.987  61.98   0
       673    256.0295     52.8160 307.8333600  +6.6615308     2104.681     3134.557     4428.548      78.9874     158.1009     316.5484      1.811     2.91     869.3098      55.8079     305.2863        19     1.207     0.901  57.47   0
       674      5.5885     50.8999 307.9374703  +6.6538863     1356.496     1788.636     1389.305     79.11348     158.1009     296.0155      1.392     4.26     875.0145      55.8079     194.5199        11     1.098     0.731  61.92  16
       675    624.4121     46.3982 307.6805242  +6.6765492     3601.808     5278.875     6172.497      78.9874     158.0379     316.3909      1.689     2.99     855.6133      55.8079     506.7432        22     1.245     0.924  71.00   2
       676    443.4934     48.2394 307.7556298  +6.6697204     25961.65     35659.24     37000.55     79.49051     158.2899     316.7057      1.488     2.87     858.9534      55.8079      3650.42        47     1.320     1.131  58.95   0
       677    264.1671     48.6104 307.8301213  +6.6635408     10461.89     14525.92     15915.52     78.86112     158.1009     316.4539      1.487     2.94     869.2554      55.8079     1470.001        33     1.267     1.082  47.26   0
       678    921.4367     48.3822 307.5570466  +6.6856684     2351.514     3054.994      2424.01     78.86112      158.164     316.3909      1.301     2.69     851.0705      55.8079     356.3694        16     1.066     0.843  44.96   0
       679    528.8320     48.5044 307.7201649  +6.6724749     682.6396     982.5148     1384.903     79.49051      158.227     316.7057      1.347     4.36     856.4893      55.8079     102.6396         7     0.894     0.605  75.95   0
       680    323.9706     49.0596 307.8052600  +6.6653663      1217.08     1688.128     2042.693     79.11348     158.3529     316.5799      1.491     4.36     866.7993      55.8079     164.8723        10     1.054     0.717  45.02   0
       681     29.4379     48.1544 307.9276552  +6.6558240     2611.851     3603.075     3570.713     79.11348     158.2899     316.5169      1.475     2.98      873.475      55.8079     374.0979        17     1.062     0.908  79.78   0
       682    557.1002     48.1725 307.7084313  +6.6735601     699.0662     1100.025     817.3534     79.36503     158.1009     316.5169      1.648     4.45     856.1911      55.8079     100.6191         9     0.953     0.710  14.96   0
       683    251.8954     45.2345 307.8353337  +6.6645218     3360.036     4815.595     5184.752     79.49051      158.227     316.7057      1.516     3.10     869.2646      55.8079     444.7537        23     1.182     1.052  81.22   0
       684    305.2271     43.3450 307.8132402  +6.6670955     1258.316     1634.387     1761.595      78.9874     158.4158     316.4539      1.418     3.90     868.0512      55.8079     198.7716        13     1.196     0.759  35.60   0
       685    941.9899     38.6750 307.5488325  +6.6903629     1240.282     1465.196     1133.195      78.9874     157.9748     316.4224      1.341     4.38     849.9041      55.8079     176.4495        12     1.233     0.686  52.77   0
       686    693.4354     37.9286 307.6521309  +6.6823583     2201.644     2841.222     2956.424     79.23936     158.3529     316.6113      1.374     3.35     854.2313      55.8079     314.9247        15     1.160     0.783  67.89   0
       687     98.1135     38.2046 307.8994609  +6.6622466     684.6792     912.6224     536.7736     78.86112     158.0379     316.2964      1.368     2.76     868.8041      55.8079     121.7411         6     0.737     0.559  59.26   0
       688    204.6348     33.6942 307.8553586  +6.6676960     770.5108     948.5992      511.456     79.49051      158.227     316.7057      1.339     5.14     868.9869      55.8079     113.3997         8     1.311     0.571  39.97   0
       689    258.8370     32.6568 307.8328746  +6.6699481     769.9846     1330.627     2186.489     79.36503     158.3529     316.6113      1.839     3.71     869.1716      55.8079     132.8303         7     0.918     0.562  52.36   0
       690    181.6197     30.6098 307.8650247  +6.6681947     12194.67      17017.3     17315.13      78.9874     158.0379     316.4854      1.509     2.99     868.7206      55.8079       1704.8        35     1.296     1.065  57.91   0
       691    927.2203     28.4715 307.5553118  +6.6940823     4696.913     5808.924     5759.802      78.9874      158.227     316.5799      1.328     2.81     850.3157      55.8079     713.7337        21     1.158     0.883  55.04   0
       692    525.7491     28.7614 307.7221110  +6.6805227     3317.213     4474.586     4593.743     79.11348     158.2899     316.5799      1.443     2.98     856.0604      55.8079     505.3098        19     1.167     0.872  66.02   0
       693    463.9019     27.3571 307.7478547  +6.6790271     2023.225     2791.055     2662.999     79.36503      158.227     316.8316      1.477     3.41     857.4755      55.8079     283.5493        15     1.143     0.824  71.25   0
       694    728.0191     26.8649 307.6381337  +6.6880841     2115.865     2800.416     2898.368      78.9874     158.3529     316.4539      1.375     2.55     853.4812      55.8079     404.0636        14     0.980     0.877  13.95   0
       695    991.9596     24.5769 307.5285429  +6.6978523       2208.7     3203.519     3166.417      78.9874      158.164     316.3909      1.525     3.42     845.9705      55.8079     359.3009        22     1.295     0.956  73.89   0
       696    976.2268   1020.2031 307.5017097  +6.2862448     672.7955     951.6593     867.0602     78.86112     158.1009     287.3711      1.425     3.95      880.593      55.8079     120.1871         6     0.943     0.554  25.16  16
       697    631.6833     20.5317 307.6783737  +6.6874723     4314.026     5916.137     6121.964     79.61579     158.6044     316.6428      1.462     2.93     854.6925      55.8079     638.5297        21     1.163     0.955  54.12   0
       698    333.5499     20.1447 307.8022563  +6.6776262     990.2323     1456.009     2732.041     79.36503     158.3529     316.6428      1.754     3.71     865.6337      55.8079     162.7032         8     0.891     0.653  40.14   0
       699    387.4205     18.8939 307.7799165  +6.6799529     827.0294     1177.143     1204.271     79.23936      158.164     316.4539      1.476     2.90     862.0567      55.8079     143.5397        10     0.994     0.612  30.39   0
       700    616.1768   1016.2344 307.6513241  +6.2758469     593.6246      1133.05     1924.942     78.86112     158.1009     316.3909      2.118     4.34     886.9694      55.8079      89.7392         5     0.880     0.608  34.68   0
       701    518.3429   1013.9105 307.6920187  +6.2735284     1347.366     1842.082     2178.933     79.23936     158.2899     316.7372      1.464     3.57      889.327      55.8079     173.0869        12     1.005     0.838  89.68   0
       702    678.7017     15.6706 307.6590014  +6.6910545     1041.747     1507.313      1568.14     79.23936     158.5416     316.6113      1.566     4.35     853.5699      55.8079     146.4681        11     1.093     0.709  36.03   0
       703    298.3381   1011.2811 307.7834422  +6.2672313     16901.62     23668.23     25989.43     79.49051     158.3529     316.5799      1.553     3.00     891.2247      55.8079     2329.096        56     1.546     1.282 -40.76   0
       704    752.6191   1012.0796 307.5948176  +6.2821287     8901.585     12852.58      13581.8      78.9874     158.0379     316.5484      1.526     2.87     885.4838      55.8079     1314.204        35     1.346     1.081  61.97   0
       705    548.1006   1012.5964 307.6797088  +6.2750683     4800.975     6893.321     7257.023     79.11348     158.1009     316.2649      1.495     2.96     889.1121      55.8079     684.1335        25     1.254     0.982  73.45   0
       706    422.9929   1011.8694 307.7316723  +6.2711734     1076.484     1522.654     1328.401     78.86112     157.9748     316.5169      1.355     3.92     889.7161      55.8079     181.1871        10     1.104     0.710  75.28   0
       707    813.7775   1011.4719 307.5694469  +6.2844244     1178.368     1553.396     1965.528      78.9874      158.164     316.6113      1.491     3.70     882.6873      55.8079     176.8223        11     1.134     0.688  78.16   0
       708    913.9787   1005.5773 307.5280436  +6.2902057     9089.296     13831.64     14425.71     79.11348      158.164     316.5799      1.646     3.27      882.902      55.8079     1195.385        42     1.399     1.257  65.20   0
       709    269.4036   1008.9228 307.7955337  +6.2672328     1206.307     1572.685     1880.279     78.86112     157.8486     316.4224      1.439     3.37     890.9307      55.8079     173.6312        11     0.904     0.844  -6.80   0
       710     73.1977   1008.3794 307.8770040  +6.2608579     497.5487     719.5152     464.1873      78.9874     158.0379     316.3594      1.767     4.90     889.5446      55.8079     68.31976         5     1.088     0.625  64.99   0
       711    545.3153   1004.8417 307.6811260  +6.2781768     9328.005     12926.44     13469.39     79.36503      158.227     316.5799      1.473     2.88     888.9992      55.8079     1359.082        30     1.239     1.024  64.03   0
       712    887.5845   1001.7365 307.5391306  +6.2909101     12810.75     19566.36     20502.71     78.86112      158.227     316.4539      1.649     3.13     882.6766      55.8079     1683.209        43     1.401     1.242  45.85   0
       713    600.1171   1002.1348 307.6584654  +6.2811305     1449.635     2124.629     2259.059     79.49051     158.6044     316.6743      1.622     3.70      887.046      55.8079     248.8661        16     1.327     0.850  88.06   0
       714   1009.2900   1001.0753 307.4886231  +6.2952457     4874.414     7505.004     7873.746     79.36503     158.6044     316.6743      1.633     3.39     878.3138      55.8079     622.7358        29     1.313     1.141  53.20   0
       715    536.4113   1002.7098 307.6848943  +6.2787586     557.5342     721.0008         1725     79.11348     158.0379     316.4224      1.274     3.37     888.9905      55.8079     89.90863         5     0.740     0.445 -69.27   0
       716    531.6924   1000.6445 307.6869229  +6.2794532     4804.444     6562.875     7388.283     79.36504     158.2899     316.7372      1.476     2.84     888.9613      55.8079     701.8987        22     1.150     0.988  84.41   0
       717    641.4173   1000.0437 307.6413892  +6.2833769      1577.75     2063.942     2171.206     78.86112      158.227     316.3909      1.387     3.36     886.7941      55.8079     217.6447        14     1.025     0.922 -77.25   0
       718    904.6933    999.9135 307.5320885  +6.2922342     421.3024     377.8761     553.2994     79.36503     158.7928     316.7057      1.260     4.76     882.6703      55.8079     94.18732         5     1.111     0.577 -20.44   0
       719     66.1382    999.5804 307.8802319  +6.2642530     934.4847     1351.854     1236.457      78.9874     158.3529     316.4854      1.390     3.93     889.7025      55.8079      133.932         9     0.931     0.664  72.36   0
       720    484.8155    997.1299 307.7065025  +6.2793327     2570.508     3702.087     4277.295     78.86112     158.2899     316.5169      1.517     2.95     889.1672      55.8079     347.0833        20     1.106     0.966  63.96   0
       721    919.3125    989.2789 307.5263753  +6.2971133     46188.46     69426.49     72968.93     79.11348     158.6044     316.7372      1.639     3.13     882.3041      55.8079     6271.649        70     1.471     1.288  61.23   0
