#   1 NUMBER                 Running object number                                     
#   2 X_IMAGE                Object position along x                                    [pixel]
#   3 Y_IMAGE                Object position along y                                    [pixel]
#   4 ALPHA_J2000            Right ascension of barycenter (J2000)                      [deg]
#   5 DELTA_J2000            Declination of barycenter (J2000)                          [deg]
#   6 FLUX_APER              Flux vector within fixed circular aperture(s)              [count]
#   9 FLUXERR_APER           RMS error vector for aperture flux(es)                     [count]
#  12 FLUX_RADIUS            Fraction-of-light radii                                    [pixel]
#  13 FWHM_IMAGE             FWHM assuming a gaussian core                              [pixel]
#  14 BACKGROUND             Background at centroid position                            [count]
#  15 THRESHOLD              Detection threshold above background                       [count]
#  16 FLUX_MAX               Peak flux above background                                 [count]
#  17 ISOAREA_IMAGE          Isophotal area above Analysis threshold                    [pixel**2]
#  18 A_IMAGE                Profile RMS along major axis                               [pixel]
#  19 B_IMAGE                Profile RMS along minor axis                               [pixel]
#  20 THETA_IMAGE            Position angle (CCW/x)                                     [deg]
#  21 FLAGS                  Extraction flags                                          
         1     87.1637     27.4731 307.9006495  +6.6511765      4060.81     12276.96     14377.19      91.6127     183.0799     366.0507      2.675     7.08     1206.018     64.52238      562.682        62     2.122     1.807 -87.02   0
         2    628.4054     20.2016 307.6754774  +6.6722351     7454.995     14268.13      17300.4     91.02917     182.7157     365.7958      2.129     8.23     1177.803     64.52238      798.856        41     2.487     1.039  81.49   3
         3    631.5103     19.4760 307.6742089  +6.6726382     7393.988     13618.43     14765.27       91.758     183.3708     366.0871      1.980     5.96     1177.706     64.52238     834.7589        34     1.910     1.061 -89.90   3
         4    528.2930     15.9658 307.7173183  +6.6706537     2259.093     4672.575     5919.407     91.90307     182.9343     366.1234      2.397     8.16     1181.398     64.52238     268.8916        32     2.218     1.238  83.28   2
         5    531.6812     15.3733 307.7159273  +6.6710114     1635.331     3338.527     4229.332      91.6127     182.8615     366.0871      2.158     5.87     1181.323     64.52238     259.1897        14     1.607     0.848  80.39   3
         6    255.7523     11.4772 307.8309822  +6.6634208     3799.026     11884.07     15114.96      91.6127     183.1527     366.0143      2.843     7.53     1203.339     64.52238     457.8788        60     2.127     1.900 -54.57  18
         7    435.1710     10.7920 307.7562794  +6.6696895     8628.812     28882.95     35005.65      91.3214     182.8615     365.7958      2.787     7.74     1186.616     64.52238     1047.664        82     2.155     1.996 -84.49  16
         8    912.2951     11.9371 307.5575147  +6.6850788     990.3421     1703.748     2591.654      91.6127     183.2254     366.0871      1.896     7.46     1170.109     64.52238     137.3729        13     2.410     0.647  79.80  18
         9    914.6678     10.6522 307.5565699  +6.6856885     852.1941     1596.506     2213.184      91.6127     183.0071     365.9779      2.309     9.08      1170.06     64.52238     117.0342        12     1.755     1.312 -80.66  18
        10    616.1181      9.3151 307.6809650  +6.6763250      1570.31     4593.632     6431.367     91.46716     183.4434     366.1234      3.099    10.14     1177.552     64.52238      171.257        43     2.177     1.628  69.74  16
        11     22.1730     10.9619 307.9282801  +6.6558245     1145.686     2608.937     1591.915      91.3214     182.8615     365.8687      2.241     8.30     1209.885     64.52238     147.4827        21     1.580     1.277 -49.69   0
        12    242.9029     10.0000 307.8363842  +6.6636021     1239.221     2536.832     3944.773     91.17541     182.6428     365.5772      2.504     5.39     1203.258     64.52238     186.5773        16     1.398     0.916  15.54   3
        13    245.6696      8.3296 307.8352889  +6.6643847     1172.277     2801.526     5071.587       91.758     183.2254     365.6501      5.727    10.38     1203.284     64.52238     138.9976        22     2.534     1.184  41.28  19
        14    684.2388      1.7356 307.6528495  +6.6817224      756.144     1257.789     1189.913     85.28678     152.2509     282.9584      1.729     4.68     1176.161     64.52238     122.3491         5     1.328     0.469  34.37  26
        15    704.1962    998.3199 307.6107342  +6.2705562     1205.766     2118.604     2681.475     91.17541     182.5698      365.723      1.951     4.37     1233.443     64.52238     159.6139        15     1.237     0.911 -30.16   1
        16    708.8730   1022.2362 307.6079773  +6.2608283     664.6951     1016.957     1482.221      91.6127     167.7383     301.2028      1.572     4.64     1233.818     64.52238     91.88513         7     1.064     0.573 -71.80  24
        17     64.5687   1020.0046 307.8761832  +6.2402841     6003.933     11100.78     11434.32     91.02917     182.9343     334.8407      1.970     4.13     1235.698     64.52238     675.3358        43     1.619     1.396 -80.99  24
        18    743.9025    994.1871 307.5943492  +6.2735826     1218.211     2227.377     2459.385      91.6127     182.7886     365.7594      2.042     5.74     1232.463     64.52238     151.4741        19     1.400     1.083  86.22   0
        19    951.4087    988.8780 307.5081677  +6.2826588     6670.619     10322.71     10644.99      91.3214     182.4969     365.8687      1.687     3.48     1231.568     64.52238     867.8748        34     1.413     1.167 -87.65   0
        20    711.2040    987.1771 307.6081953  +6.2753936     2048.708     4208.787     6114.939      91.3214     182.7886     365.8687      2.621     5.38     1233.014     64.52238      236.582        29     1.489     1.331 -14.88   2
        21    236.2933    988.9098 307.8057803  +6.2588680     1011.558     1887.526     2304.059       91.758     183.6611     366.0871      2.133     4.36     1236.927     64.52238     140.0746        10     1.056     0.814 -84.58   0
        22    434.2560    986.8933 307.7234640  +6.2663004     618.2347     1171.968     1769.927      91.6127     183.0799      366.269      2.209     5.41     1236.349     64.52238     94.05713         5     1.132     0.729 -82.21   0
        23    358.2969    984.7823 307.7551475  +6.2646421     1313.176     2770.066     2533.194      91.6127     182.8615     365.7958      2.021     6.98     1237.192     64.52238     143.6984        18     1.376     1.089  51.62   0
        24    727.2105    985.2012 307.6016006  +6.2767417     925.1268     1795.898     2320.802      91.3214     182.7157     365.8322      2.259     5.98     1232.558     64.52238     129.3481        11     1.216     0.826 -21.16   0
        25    540.2626    974.8077 307.6797574  +6.2748231     3067.206     6385.319     7765.847     91.02917     182.8615     365.8322      2.265     5.20     1235.391     64.52238     312.8499        36     1.659     1.379 -82.78   3
        26    537.4592    966.9323 307.6811915  +6.2779842     5967.198     12149.42     13386.88     91.90307     183.0071     366.0507      2.145     4.74     1235.244     64.52238     630.3049        47     1.701     1.505 -87.64   3
        27    744.6707    974.0503 307.5947117  +6.2819295     6368.673     11741.27     12688.67       91.758     183.0071     366.0871      1.969     4.35     1232.108     64.52238     723.6305        39     1.541     1.327 -76.88   0
        28    290.5427    973.6879 307.7837219  +6.2669679     10802.31     22314.82     24800.44       91.758     182.9343     366.1962      2.173     4.79     1236.997     64.52238     1055.968        64     1.886     1.624 -59.84   0
        29    806.1072    973.8618 307.5691489  +6.2840465     999.1788     1889.034     2220.972       91.758     183.0799     366.1234      1.954     7.01     1231.987     64.52238     116.9415        15     1.552     0.888  79.17   0
        30    413.9966    973.8935 307.7323372  +6.2709976     733.3951      1410.42     1409.667     91.46716     182.7157      365.723      1.723     4.81     1236.197     64.52238     96.63281         7     1.279     0.512 -84.25   0
        31    905.9410    967.4786 307.5278147  +6.2899952     8159.016     13278.57     13307.88     91.90307     183.0799     365.9779      1.747     3.54     1230.773     64.52238     985.1661        37     1.452     1.223 -62.60   0
        32    879.5572    963.6798 307.5389241  +6.2906904     11436.09     19560.65     21369.83       91.758     183.0799     366.0143      1.876     3.79     1230.624     64.52238     1365.047        48     1.511     1.392 -80.93   0
        33   1001.3068    963.0712 307.4882726  +6.2949762     4817.625     7495.104     7397.782      91.6127     183.1527     366.0871      1.680     3.43     1229.138     64.52238     646.3243        27     1.275     1.134 -78.71   0
        34    593.6605    963.7241 307.6579103  +6.2811792     907.4404     2000.156     2002.217     92.04792     183.0799     366.0143      2.214     6.42     1234.715     64.52238     132.8354         9     1.475     0.785 -27.43   2
        35    523.8475    962.8868 307.6869937  +6.2792031     2962.524     6165.769     7324.437       91.758     182.9343     366.0871      2.252     4.69     1235.239     64.52238     325.1812        35     1.497     1.443 -29.65   0
        36    632.9343    961.9377 307.6416257  +6.2832231     954.8278     1719.325     1410.539       91.758     183.0799     366.0507      1.798     6.42     1234.062     64.52238     142.2855        12     1.452     0.858  80.43   0
        37    476.8647    959.1667 307.7066734  +6.2791767     1505.499      3218.66     2914.261     91.61269     183.0799     366.0143      2.096     7.21     1235.416     64.52238     162.5807        21     1.400     1.309  45.03   0
        38    911.3478    951.1765 307.5261158  +6.2969112     39310.59     66662.66     70350.42     91.17541     183.0799     365.9051      1.818     3.83      1229.66     64.52238      4915.75        67     1.604     1.355 -76.76   0
        39    219.1185    949.3760 307.8142740  +6.2746314     1151.247     2293.062     2628.458     91.46716     182.7886     365.9779      2.196     7.81     1235.364     64.52238     132.7439        19     1.424     1.200  22.77   0
        40    809.1687    944.9788 307.5688526  +6.2960838     1923.737     3406.685     3852.832     91.17541     182.8615     365.9051      1.903     4.37     1231.033     64.52238     227.7285        19     1.268     1.035 -54.09   0
        41    757.4296    942.8943 307.5904571  +6.2952281     5180.503     9772.896     10831.55     91.90307     182.7886     365.9415      2.013     4.38     1231.481     64.52238     599.8965        40     1.599     1.394 -77.89   0
        42    227.3972    942.4684 307.8110639  +6.2777621     926.6921     2105.228      1855.09     91.02917     182.6428     365.7958      2.144     8.23     1235.287     64.52238     123.6025        15     1.579     1.198  49.28   0
        43     52.2911    940.4793 307.8840049  +6.2727354     1787.731     3652.503     3969.758     91.46717     183.2981     366.1234      2.133     5.41     1233.589     64.52238     222.1965        26     1.570     1.166  86.71   0
        44    945.6836    937.9146 307.5122736  +6.3035296     6299.073     10253.32     10056.19     91.46716     183.2981     366.1598      1.753     3.64     1228.608     64.52238     789.8003        35     1.437     1.259 -82.15   0
        45    919.3496    929.8517 307.5235067  +6.3059888      1872.97     3208.575     3417.692     91.90307     182.9343     365.9779      1.844     4.18     1228.175     64.52238     248.5524        20     1.297     1.050 -32.12   0
        46    640.2325    925.7031 307.6398172  +6.2984393     3259.054     6497.194     6479.218     91.90308     182.9343     366.1598      2.019     4.75     1232.685     64.52238     390.2744        35     1.566     1.367 -71.36   0
        47    252.6196    926.0088 307.8011274  +6.2854053     2951.615     6419.924     6383.896      91.3214     182.7886     365.8322      2.206     5.20     1235.246     64.52238     338.4312        37     1.650     1.434  75.01   0
        48    780.0000    926.0551 307.5816336  +6.3029360     826.3584     1541.308     1671.423     90.88271     182.6428     365.6501      1.817     3.33     1230.865     64.52238     126.2229         6     0.916     0.470  56.05   2
        49    989.7881    924.5900 307.4943673  +6.3104970      827.997     1220.767     1984.885     91.46717     182.8615     366.0143      1.744     5.04     1227.709     64.52238     99.61487         6     1.094     0.656  85.99   0
        50    463.3324    924.6460 307.7134782  +6.2929914     712.4832     1180.332     687.1183       91.758     183.0071     366.0871      1.778     4.98     1234.632     64.52238     86.38232         6     1.076     0.723  77.52   0
        51     21.4136    923.6690 307.8974286  +6.2786495     1668.827     3700.965      4317.87     91.17541     182.9343     365.9051      2.206     6.10     1233.279     64.52238     212.3483        26     1.533     1.262 -67.86   0
        52    871.9308    920.6624 307.5435538  +6.3082143     678.5593     1189.451     1111.237       91.758     183.0799     366.1234      1.786     4.33     1228.176     64.52238     107.7321         5     1.101     0.485 -63.14   0
        53    564.7011    918.2283 307.6715069  +6.2990168     1017.558     2160.915     2218.143       91.758     182.7886     366.0143      2.135     8.67     1233.763     64.52238     130.1592        20     1.765     1.190 -68.76   0
        54    995.8221    917.8862 307.4920824  +6.3134672     842.7678     1498.615     1521.381       91.758     182.8615     365.9051      2.159     5.75     1227.049     64.52238     101.1803        10     1.393     0.669 -63.58   0
        55    943.1680    918.8574 307.5139650  +6.3113216     784.6454      1358.77     1241.508     91.61269     183.0799     365.9779      1.887     5.21     1227.561     64.52238     108.5919         8     1.196     0.642 -76.41   0
        56    603.9327    914.8387 307.6552937  +6.3017222      871.408     1710.284     2136.307      91.6127     183.0071     366.1234      2.131     5.94     1232.757     64.52238     106.2792        11     1.385     0.717 -43.25   0
        57    283.9420    912.7137 307.7885442  +6.2919442     1060.631     2178.376     2800.285       91.758     183.0799     366.2326      2.119     7.60     1235.551     64.52238     141.9889        16     1.617     1.001 -55.07   0
        58    750.4624    908.4590 307.5945235  +6.3092269     717.1387     1168.982     1128.904       91.758     183.0071     366.0871      1.941     5.17     1230.266     64.52238     91.75708         7     1.033     0.733  -5.23   0
        59    888.3240    904.8607 307.5372654  +6.3152878     6006.346      10305.1     10628.91     92.04791     183.0799     366.0143      1.841     4.02     1227.659     64.52238     711.8529        37     1.464     1.295 -86.12   0
        60    326.1036    900.8103 307.7714021  +6.2982690     5833.121     13241.81     14616.76     91.46716     182.6428     365.7958      2.244     5.29     1235.163     64.52238      620.993        49     1.731     1.569  84.97   0
        61    424.6325    902.1188 307.7303504  +6.3010117     1406.384     3015.519     3137.404      91.6127     183.0799     366.0143      2.187     6.18     1234.589     64.52238     178.9216        22     1.407     1.193 -43.61   0
        62    246.2499    899.7111 307.8046737  +6.2960598     4563.858     10206.82     11002.71       91.758     182.8615     366.1962      2.199     5.20     1234.692     64.52238     487.2894        46     1.713     1.583 -59.12   0
        63    574.7992    893.1193 307.6681563  +6.3097287     764.3196     1413.833     1113.376     90.88271     182.4238     365.7594      1.769     4.47     1232.792     64.52238     122.7672         7     1.043     0.544 -16.15   0
        64    904.3293    889.7197 307.5311159  +6.3220754     972.7778      1312.39     883.8878     92.04792     183.4434     366.0871      1.581     6.40     1227.002     64.52238     139.0793        12     1.231     0.934  24.45   0
        65    740.4914    883.4379 307.5995213  +6.3192357     1348.485     2332.416     1860.859     91.90308     183.0071     366.0871      1.865     6.88     1229.181     64.52238     150.1216        16     1.241     1.071  44.18   0
        66    971.4661    878.7349 307.5035433  +6.3288397     1163.659     1947.047     2393.712       91.758     183.0799     366.0871      1.937     4.02     1224.467     64.52238     177.9471        10     0.973     0.898  35.30   0
        67    658.9894    876.3033 307.6336858  +6.3194767     1726.911     3313.757     3683.953     91.46716     182.6428     365.8322      2.043     7.38     1229.897     64.52238     178.1814        22     1.441     1.213 -33.88   0
        68    525.4767    878.1418 307.6891932  +6.3142772     724.6734     1397.858     1338.894     91.90308     183.0799     365.9779      1.915     4.61     1233.575     64.52238      113.672         6     1.310     0.461  23.32   0
        69     73.4959    872.3530 307.8775040  +6.3015957     1368.164     2682.451     2761.858      91.6127     182.9343     366.2326      1.906     6.00     1233.035     64.52238     176.4335        21     1.528     1.141  64.00   0
        70     55.9025    873.1586 307.8847986  +6.3006747     1898.552     4170.057     5149.095       91.758     182.9343     366.3053      2.335     5.39     1233.068     64.52238     221.7065        28     1.603     1.258  81.19   0
        71    199.6546    871.8681 307.8250146  +6.3060103     1255.388     2959.579     3048.368       91.758     183.0071     365.9779      2.302     8.28     1233.551     64.52238     144.0219        22     1.597     1.200 -65.21   0
        72    937.8289    872.5129 307.5177546  +6.3302964     717.5182     1126.963     1712.071     91.90308     182.7886     365.9051      1.671     4.36     1225.504     64.52238      98.7041         6     1.119     0.484   7.07   0
        73    653.6766    865.7350 307.6362555  +6.3236674     4680.089     10258.07     11191.46     91.90308     183.0799     366.0143      2.189     5.14     1229.507     64.52238      513.795        40     1.654     1.465 -71.28   0
        74     14.6237    864.3951 307.9022771  +6.3029157     838.7715     1423.057     1143.752     91.17541     182.7886     365.8687      1.795     3.08     1233.065     64.52238     140.3812         7     0.892     0.551 -56.15   0
        75    891.2621    861.8143 307.5374990  +6.3331740     2183.059     4135.253     4212.596     91.17541     182.9343     365.8322      1.969     5.22     1226.304     64.52238     256.4177        25     1.474     1.145 -75.46   0
        76     27.5099    862.8466 307.8969669  +6.3039865     810.2423     1333.512     1194.815       91.758     182.9343     366.1962      1.895     5.32     1232.995     64.52238     107.9379         7     1.103     0.723  50.02   0
        77    336.8309    858.9700 307.7683609  +6.3159165     9470.073     22794.48     25676.67     91.17541     182.7886     365.7594      2.352     5.64     1233.854     64.52238      970.431        60     1.819     1.672  89.00   0
        78     72.0544    861.1998 307.8784843  +6.3061563     820.0964     1804.552      2049.71     90.88271     182.6428     365.6137      2.228     5.06     1232.845     64.52238     114.8472         6     1.302     0.557  -1.51   2
        79    100.6632    849.6215 307.8669724  +6.3118969     1092.358     2082.869      1469.55      91.3214     183.0799     365.9051      1.959     7.30     1232.441     64.52238     153.3416        14     1.469     1.057 -24.53   0
        80    852.4248    843.1759 307.5542952  +6.3395884     1623.333     2972.011     2620.177     91.17541     182.8615     365.9415      1.886     5.76     1225.383     64.52238     205.6497        21     1.518     1.081  76.33   0
        81     83.8703    843.2689 307.8741782  +6.3139608     1653.087     3649.897     4362.975       91.758     183.2254     366.0143      2.376     6.35     1232.145     64.52238     229.6417        28     1.603     1.527 -64.72   0
        82    881.5474    843.6075 307.5421587  +6.3403758     1580.435     2813.109     2776.313     91.17541     182.8615     365.6866      1.974     4.75     1224.862     64.52238     220.9595        18     1.178     1.139 -66.47   0
        83    815.6213    842.5756 307.5696344  +6.3386156     2277.113     4580.714     4766.409      91.3214     182.8615     366.0507      2.008     5.66     1225.765     64.52238     253.0724        27     1.451     1.334 -89.03   0
        84    551.8076    834.1128 307.6797289  +6.3333478     192737.3     464122.6     514962.6      91.3214     182.7157     365.7594      2.340     5.54     1230.764     64.52238     19189.98       163     2.001     1.811 -79.44   0
        85    396.1772    836.7728 307.7444152  +6.3270671     4435.637     10652.61     11616.82      91.1754     182.8615     365.9779      2.313     5.67     1232.436     64.52238     458.1841        47     1.750     1.587 -79.28   0
        86    339.3113    835.2633 307.7681351  +6.3257956     6986.756     17556.24      20015.2      91.6127     183.2981     366.0871      2.419     5.92     1233.136     64.52238     746.3984        56     1.831     1.685 -82.02   0
        87    657.6027    831.4662 307.6357836  +6.3379592     2172.113     4747.872     5639.119     91.02917     182.7157     365.7958      2.288     6.01     1226.696     64.52238     226.4885        33     1.653     1.401 -68.80   0
        88    890.0401    830.0005 307.5390841  +6.3462804     4044.646     7897.904     8616.992       90.736     182.7886      365.723      2.040     4.56     1223.323     64.52238     462.9453        35     1.529     1.310 -77.01   0
        89    729.4648    826.8401 307.6060289  +6.3422583     670.2997     900.0121     711.5902       91.758     183.0071     366.1962      1.536     4.81     1225.349     64.52238     101.4653         6     1.061     0.617  22.85   0
        90    632.4272    825.3420 307.6464702  +6.3396532     2096.729     4683.616      6099.63      91.3214     183.1527     365.9051      2.566     6.32     1226.719     64.52238     220.6405        33     1.599     1.446 -37.57   0
        91   1022.9970    824.2594 307.4839355  +6.3530583     4028.482     5845.429     5811.363     87.90213     156.9048     287.7669      1.521     4.05     1219.349     64.52238     555.6605        20     1.407     0.812 -83.60  24
        92    820.6440    824.1709 307.5681670  +6.3463879      1173.45     2303.914     2109.341      91.3214     183.1527     365.9415      2.030     6.20     1224.133     64.52238     163.1122        16     1.313     1.014 -46.42   0
        93    625.1390    820.4376 307.6496702  +6.3414377     1330.385     3369.786      4345.41       91.758     183.1527     366.0507      2.620     8.84     1226.441     64.52238     154.7422        28     1.887     1.340 -84.96   0
        94    320.5457    818.8066 307.7765056  +6.3319704     648.1756     1453.765     1293.959     91.17541     182.7886      365.723      2.127     5.29     1233.125     64.52238     102.7458         7     1.410     0.561 -71.45   0
        95    908.9631    817.9108 307.5316165  +6.3519038      2451.91     4702.057     4767.792       91.758     183.0071     366.0507      1.989     4.79     1221.621     64.52238     276.5448        27     1.410     1.255 -64.57   0
        96    367.3077    814.1812 307.7571996  +6.3354407     1586.331      3870.94     4761.366      91.6127     182.7886     365.9051      2.486     8.25     1231.931     64.52238     187.9318        30     1.738     1.386 -39.40   0
        97    503.3472    803.5161 307.7009386  +6.3443790     1682.351     4049.166     3834.374       91.758     183.0799     366.1962      2.324     6.93     1229.602     64.52238     186.4222        31     1.569     1.410 -46.72   0
        98    227.7552    803.2261 307.8156572  +6.3353132     629.4594     1815.588     2718.695     91.17541     183.1527     365.9415      3.163     4.60     1232.753     64.52238     99.85657         6     1.069     0.563 -56.53   0
        99    846.9247    802.7007 307.5579547  +6.3561322     616.7399     1582.261     1889.003     91.17541     183.2254     365.9415      2.581     6.69     1221.908     64.52238     108.4211         8     1.483     0.846  27.00   2
       100    550.9974    799.9515 307.6812259  +6.3474376     3426.837     8663.251     11361.48     91.02917     182.7157     365.5772      2.860     9.47     1228.415     64.52238     348.5684        59     2.590     1.755  -6.22   0
       101    885.8246    797.8682 307.5419261  +6.3594193     1196.839      2322.48     2744.546      91.3214     182.9343     365.9415      2.209     5.66     1220.626     64.52238     162.8481        16     1.511     1.007 -77.70   0
       102    468.2804    797.9715 307.7157230  +6.3455028     812.5615     1597.057     1665.383      91.6127     182.8615     366.0143      2.220     6.26     1229.631     64.52238     117.1914         8     1.315     0.992  43.14   0
       103    520.9008    793.8281 307.6939612  +6.3489667     11003.27     27502.48     30285.29       91.758     182.7886     366.0143      2.386     5.82      1228.55     64.52238     1048.531        65     1.911     1.710 -67.16   0
       104    934.3024    791.9644 307.5219468  +6.3634661     3074.998     5560.999     6207.178       91.758     182.9343     366.2326      1.961     4.61      1219.09     64.52238     370.3518        28     1.497     1.205 -75.07   0
       105    313.7141    782.9382 307.7805697  +6.3465646     1781.682     4541.976      5133.79     91.90307     183.2981     366.0507      2.373     7.69      1231.94     64.52238     215.8287        32     1.639     1.507  73.15   0
       106     32.4387    783.9790 307.8976070  +6.3367413     973.6065     1718.525     1643.531      91.3214     182.8615     365.7594      1.894     5.52     1229.813     64.52238     151.7573         9     1.232     0.696 -17.55   0
       107    778.9803    778.2366 307.5870652  +6.3639874     35680.27     77612.06     84622.56      91.3214     182.8615     365.7958      2.198     5.07      1221.13     64.52238     3799.004        82     1.829     1.633 -74.36   0
       108     14.1367    780.7260 307.9053356  +6.3374735     1395.462     3016.299     3294.504     92.04791     183.0799     366.0143      2.154     7.04      1229.56     64.52238     152.3362        23     1.512     1.245  41.10   0
       109    235.8370    755.0639 307.8139338  +6.3554850     782952.3      2516250      2987718      91.6127     183.0799     366.1234      2.796     5.29     1230.881     64.52238     63513.85       581     2.751     2.207  89.09   4
       110    700.9603    769.3401 307.6198430  +6.3650730      53034.9       123398     136804.1       91.758     183.0799     366.1598      2.315     5.39     1222.071     64.52238     5275.496        96     1.912     1.737 -73.75   3
       111    904.2067    773.3157 307.5351053  +6.3701750     6716.284      12689.1      13797.7      91.3214     182.7157     365.8687      2.006     4.48     1219.319     64.52238     692.3315        42     1.626     1.359 -72.94   0
       112    345.9516    770.4969 307.7675748  +6.3527807     10544.02     28228.19     32038.88       91.758     183.0071     366.2326      2.488     6.21     1230.812     64.52238     1158.172        71     1.966     1.806  83.12   0
       113    407.8269    768.2775 307.7418954  +6.3557600     11434.65     30292.31     33804.81      91.6127     183.0799     366.0143      2.459     6.03      1228.65     64.52238      1110.63        71     1.954     1.791 -85.27   0
       114    944.5508    766.8132 307.5185315  +6.3741994     1539.166       2774.9      2859.29     91.02917     183.0071      365.723      1.941     4.91     1218.389     64.52238     185.9828        18     1.265     1.068 -71.99   0
       115    901.0901    764.8271 307.5366898  +6.3735796     5036.115     9722.956     10617.69     91.90307     182.7886     365.9051      2.037     4.78     1219.157     64.52238     512.6461        37     1.549     1.337 -86.27   0
       116    641.7227    764.1675 307.6446763  +6.3652421     3445.112     8721.785      9510.77      91.6127     183.0799     365.9779      2.401     6.09     1223.093     64.52238     362.2198        47     1.779     1.658 -67.41   0
       117    430.8073    762.1738 307.7325375  +6.3590478     945.7856     2349.792     2136.742      91.1754     182.9343     365.8322      2.316     9.07     1227.727     64.52238     105.1519        19     1.611     1.426  61.89   0
       118    675.3848    754.8145 307.6309816  +6.3702259      1103.35     1875.877      2108.01     91.46716     182.7157     365.9779      1.874     7.10     1222.206     64.52238     152.5901        16     1.747     0.808  87.10   3
       119    678.2106    752.9935 307.6298670  +6.3710723     1201.794     1808.002     1946.938     91.17541     182.8615     365.9415      1.670     5.08     1222.027     64.52238     178.4011        14     1.369     0.797  80.36   3
       120    122.1937    754.5145 307.8612544  +6.3519171     755.1865     1363.992     1011.236     91.17541     182.7157     365.7958      1.974     6.47     1230.566     64.52238     126.7413         8     1.344     0.874  45.35   0
       121    410.7193    750.9485 307.7412807  +6.3630173     27222.31     72937.12     83195.07       91.758     183.0799     366.0507      2.505     6.22     1227.525     64.52238     2693.295        96     2.032     1.867 -80.83   0
       122    439.9486    743.9514 307.7293519  +6.3668825     701.0548     1243.709     2307.625     91.90308     182.9343     366.0507      2.813     6.46     1226.407     64.52238     113.8723         8     1.327     0.883  25.47   3
       123    442.5793    740.9492 307.7283589  +6.3682107     1050.198     2484.282     3068.676      91.1754     183.1527     365.9051      2.400     7.74     1226.154     64.52238     140.5453        19     1.807     0.927  34.90   3
       124    446.6612    747.8375 307.7264257  +6.3655002     2044.915     3643.921     5165.537       91.758     183.1527     366.0507      2.416     7.41     1226.545     64.52238     252.9258        21     2.030     0.871  85.52   3
       125    444.0000    747.9575 307.7275293  +6.3653619     1845.136     4034.237     5917.815     90.88271     182.6428     365.5772      2.732     7.66     1226.598     64.52238     215.9114        21     2.032     0.809  87.74   3
       126    773.4858    746.3828 307.5904316  +6.3769684     7428.003     16245.12     17694.59      91.3214     182.7886     365.9779      2.220     5.22     1218.961     64.52238     708.6774        50     1.748     1.540 -68.06   0
       127    795.8786    740.2346 307.5813185  +6.3802524     963.0377     2259.387     2481.484      91.6127     183.1527     366.0871      2.307     8.27     1218.065     64.52238     133.6151        14     1.486     1.287 -12.15   0
       128    131.5744    738.7991 307.8578857  +6.3587245     5880.208     15756.05     18820.67      91.3214     182.7157     365.7958      2.558     6.14     1230.403     64.52238     696.8257        58     1.903     1.752  84.77   1
       129      4.1890    741.8260 307.9108039  +6.3532151     574.6671     1079.457      590.923      91.3214     181.6921     323.7558      1.870     5.65     1228.634     64.52238     73.11853         6     1.363     0.660   8.20  16
       130    139.7737    738.8478 307.8544712  +6.3589783     1594.084      4112.68     4681.079      91.3214     183.1527     365.9415      2.524     6.99     1230.465     64.52238     216.1278        32     1.706     1.469  77.91   1
       131    124.0280    735.7496 307.8611308  +6.3597325     1542.016      4190.53     6079.155      91.3214     183.2254     365.9415      3.163     7.81     1230.227     64.52238     201.8768        38     2.035     1.430  81.51   1
       132    919.0591    734.8196 307.5302252  +6.3865758     4595.323     9242.092     9603.726      91.3214     182.9343     365.8322      2.083     4.90     1217.752     64.52238     535.5508        39     1.648     1.349 -66.80   0
       133    968.3475    734.4202 307.5097212  +6.3883742     1037.797     1822.031     2219.929     91.17541     183.0799     365.8322      1.801     5.82     1217.262     64.52238     150.0757        11     1.211     0.789 -22.25   0
       134    707.1314    772.7859 307.6171574  +6.3638540     13004.87     30942.79     35552.08      91.1754     182.9343     365.9415      2.342     5.48     1222.117     64.52238     1332.942        61     1.854     1.641 -65.29   3
       135    563.2624    732.0314 307.6784267  +6.3759130     867.9956     1563.776     2200.345     91.46716     183.1527     366.0143      2.343     5.34       1222.3     64.52238     111.8647         9     1.201     0.671 -63.95   3
       136    560.3442    731.5564 307.6796576  +6.3760122     1193.507     2435.428     3058.638       91.758     183.0799     366.0507      2.150     6.83     1222.311     64.52238      174.339        17     1.786     0.880 -86.87   2
       137    675.9691    732.3523 307.6315001  +6.3795277     739.3765     1788.921     1812.552      91.3214     183.0799     365.9415      2.367     5.96     1221.008     64.52238     112.6102         7     1.317     0.759 -46.49   2
       138    528.3816    749.8864 307.6923398  +6.3673740     3702.321     9282.136     10119.82      91.3214     182.7886     365.9051      2.345     5.80     1224.375     64.52238     427.8579        44     1.776     1.593 -85.85   0
       139    913.0712    726.8377 307.5329879  +6.3896758     2280.038     4526.906     5064.811      91.6127     183.0799     366.1234      2.024     5.12      1217.12     64.52238     265.2782        31     1.644     1.241 -74.93   0
       140    124.8554    728.5798 307.8610309  +6.3627229     881.4167      1885.33     2881.549     91.17541     183.0799     365.8322      2.266     6.22     1229.661     64.52238     129.8344        10     1.587     0.685   2.65   0
       141    942.6833    726.1799 307.5206833  +6.3909291     2149.076     4295.825     4250.834      91.3214     182.7157     365.9779      1.997     5.03     1216.651     64.52238      248.641        29     1.564     1.234 -58.56   0
       142    973.4774    725.9145 307.5078733  +6.3920591     1435.993     2686.425      2974.08       91.758     183.4434     366.1598      1.957     6.61     1216.479     64.52238     219.4448        20     1.517     1.045 -62.49   0
       143    812.8508    723.9449 307.5748052  +6.3875473     612.9813     1230.895      1719.02       91.758     183.0799     366.0871      2.399     6.50     1217.056     64.52238     117.4149         7     1.440     0.824  25.02   0
       144    238.9710    721.4630 307.8137738  +6.3694746     1232.771      2935.65     4284.617     91.46716     183.0799     365.9779      3.332     7.45     1228.777     64.52238     152.1466        27     1.517     1.482 -76.36   0
       145    930.3136    716.2460 307.5261686  +6.3946243     724.5919     1262.974     901.3702       91.758     182.9343     366.0507      1.815     4.73     1215.814     64.52238     110.8367         7     1.080     0.589 -67.07   0
       146    957.5403    714.0698 307.5149082  +6.3964259     1940.634     3277.072     3364.941     91.90307     183.0799     366.0507      1.844     4.28     1215.443     64.52238     254.4707        19     1.232     1.078 -45.50   0
       147    998.8239    707.7322 307.4979368  +6.4004126     1361.434     2354.956      2023.59      91.3214     183.0071     365.9779      1.842     4.27     1214.585     64.52238     191.7076        14     1.238     0.822 -62.98   0
       148    800.3659    705.8477 307.5806154  +6.3946116     850.1726     1822.405     1851.365      91.3214     183.0799     365.9779      2.090     5.19     1215.791     64.52238     132.9352         9     1.165     1.107 -85.17   0
       149    887.1712    703.0848 307.5445734  +6.3986329     1032.787      2165.21      2594.71       91.758     182.7157     365.8687      2.311     7.83     1215.224     64.52238     129.0767        16     1.514     1.134  51.47   0
       150    843.7711    695.0200 307.5629133  +6.4005263     967.4799     2027.342     2225.319      91.3214     182.8615     365.9779      2.137     6.82     1214.823     64.52238     138.4944        13     1.401     1.034 -45.04   0
       151     43.8710    693.5449 307.8959350  +6.3744932     1376.602     3238.952     4081.433      91.6127     183.0071     366.0143      2.720     7.01     1227.415     64.52238     197.1967        21     1.658     1.089  50.49   2
       152    654.4255    681.8904 307.6421799  +6.3996647     2919.498      5385.77     6300.702     91.90307     182.7886     365.8687      2.042     6.58      1217.41     64.52238     307.5873        22     1.886     0.789 -83.44   3
       153    657.3821    682.2043 307.6409384  +6.3996333     2660.114     4680.976     5641.178      91.3214     182.6428     365.8687      2.003     5.44       1217.3     64.52238     298.2726        23     1.669     0.940 -89.79   3
       154    601.5460    681.9512 307.6641905  +6.3978816     655.7087     1386.052     1647.842       91.758     183.0799     366.1234      2.238     4.92     1219.314     64.52238     80.98572         5     1.222     0.560  38.92   0
       155    119.3914    677.8824 307.8650341  +6.3834899     1920.528     4998.373      5523.27      91.3214     182.6428     365.8687      2.541     8.13     1225.521     64.52238     223.2251        26     1.715     1.211  36.90   2
       156    992.6871    677.2535 307.5015220  +6.4128046     2010.136     3619.145     3585.495       91.758     182.9343     366.2326      1.892     4.82      1211.64     64.52238     234.3499        23     1.434     1.079 -73.49   0
       157    628.2097    679.1198 307.6531870  +6.3999382     735.2336     1380.006     895.5745      91.3214     182.6428     365.9051      1.604     3.56     1218.152     64.52238     132.9501         5     0.848     0.430 -72.02   3
       158    630.4449    676.8234 307.6523345  +6.4009615     825.6786     1638.321     1891.795     91.17541     183.0799     365.9051      1.745     6.01     1217.936     64.52238     119.6433        10     1.869     0.544  46.89   2
       159    772.5492    674.3865 307.5932610  +6.4066895     11835.18     27885.82     31002.02     91.02917     183.0799     365.7594      2.324     5.56     1214.639     64.52238     1158.803        60     1.818     1.658 -74.39   0
       160    902.4514    674.0408 307.5391954  +6.4111419     2579.835     5518.698     5965.604       91.758     183.0799     366.0143      2.244     5.54     1212.223     64.52238     285.4789        36     1.743     1.413 -69.79   0
       161    247.5235    668.6945 307.8120112  +6.3915656     2821.776     5835.001     7180.716     91.46717     183.2254     366.0507      2.352     6.59     1224.562     64.52238     355.4579        29     1.882     1.080 -70.03   3
       162    244.4273    667.2224 307.8133501  +6.3920706     1981.449       3633.8     4664.808     91.17541     182.8615     365.9779      2.220     6.74     1224.413     64.52238     259.3954        17     1.872     0.681 -75.29   3
       163    651.6887    667.4437 307.6438093  +6.4055438     3185.582       5503.4     6195.855       91.758     183.0071     366.0871      1.887     6.39     1216.361     64.52238     371.7019        24     1.768     0.938 -87.29   3
       164    655.0000    667.0001 307.6424459  +6.4058371     2598.294     4358.728     4653.759     90.88271     182.4969     365.6866      1.771     5.31      1216.25     64.52238     372.8535        22     1.765     0.795 -88.16   3
       165    912.2899    659.5975 307.5355884  +6.4174368     859.6691     1569.402     2063.663     91.02917     182.7157     365.7594      1.901     5.12     1211.318     64.52238     132.2361         7     1.110     0.668  81.38   0
       166    724.7505    655.8723 307.6137868  +6.4127531      2012.74      5165.21     5873.295       91.758     183.1527     366.0871      2.413     7.57     1214.522     64.52238     190.6549        37     1.806     1.548 -45.77   0
       167    991.0526    652.0403 307.5030550  +6.4231698     6861.996     12951.05     14344.68      91.6127     183.1527     366.0507      2.054     4.32     1210.224     64.52238     886.7356        48     1.673     1.443 -68.38   0
       168    929.1819    652.7108 307.5287893  +6.4208427     1624.979     3273.264     3242.728     91.46716     182.7886     365.9415      1.960     5.96     1210.707     64.52238     232.6213        23     1.481     1.225 -50.98   0
       169     68.6208    647.4979 307.8872043  +6.3943485     12452.52     34309.77      39519.8      91.6127     182.8615     365.7594      2.565     6.51     1224.409     64.52238     1555.053        75     2.063     1.820  80.79   0
       170    528.3143    648.4998 307.6958116  +6.4092688     643.2186     1730.373     2020.824       91.758     183.6611     366.1598      2.317     7.14     1219.364     64.52238     102.8361        10     1.981     0.721 -73.30   2
       171    531.6678    648.1298 307.6944281  +6.4095333     801.3025     1503.544     1923.647       91.758     183.2254     366.0143      1.655     2.88     1219.272     64.52238     159.8827         5     0.756     0.423 -70.63   3
       172    500.3250    644.4671 307.7076002  +6.4100036     613.6653     1118.987      1122.82     91.90308     183.2254     366.0143      1.573     4.04      1219.78     64.52238     96.09424         6     0.995     0.468  89.34   0
       173     10.2303    652.2852 307.9113463  +6.3904175     1057.312     2455.272     3300.155       91.758     182.8615     365.9051      2.570     8.08     1226.325     64.52238     128.6776        16     1.603     1.138 -11.06  16
       174    712.8689    639.1107 307.6193014  +6.4192851     1498.795     2945.002     3348.526     91.90307     183.2981     366.0507      2.142     7.44     1213.427     64.52238     220.2739        19     1.772     0.874 -82.68   3
       175    715.9885    639.0667 307.6180042  +6.4194069     1532.813     2603.559     2955.971     91.17541     182.8615     365.9051      1.916     5.11     1213.385     64.52238     215.9479        17     1.404     0.893 -76.14   3
       176    736.4118    637.7379 307.6095470  +6.4206344     2150.504     5557.273     6056.889     91.17541     182.8615     365.7958      2.374     7.72     1213.027     64.52238     239.3156        35     1.650     1.551 -49.28   0
       177    566.3068    635.9019 307.6804235  +6.4157389     1216.243      2348.81     2949.501       91.758     183.7336     365.9779      1.996     6.08     1216.985     64.52238      177.229        14     1.951     0.532 -87.61   2
       178    569.4965    634.7894 307.6791335  +6.4163047     1484.881     2536.631      3168.06     91.46717     182.6428     365.7958      2.158     7.80     1216.766     64.52238     175.6964        18     1.812     0.940 -82.32   2
       179    406.0116    636.2070 307.7471424  +6.4102758     663.3334     1203.567     1459.898      91.3214     182.8615     365.9415      1.965     4.55     1221.145     64.52238     92.02454         5     1.192     0.494  69.56   0
       180    229.1768    635.0258 307.8207953  +6.4048662     851.2012     2329.189     3866.423     91.17541     182.9343     365.9779      3.935     7.74     1222.213     64.52238     151.8936        15     1.628     1.272 -32.99   0
       181   1009.0456    633.4716 307.4961921  +6.4314393     3718.176     7152.441     7456.943       91.758     183.0799     366.0507      2.038     4.85     1209.206     64.52238     380.9625        36     1.673     1.352 -71.36   0
       182    974.7377    632.3601 307.5105125  +6.4307622     5957.308     11721.35      12668.3       91.758     183.0799     366.0871      2.105     4.48     1209.283     64.52238     679.8236        43     1.719     1.371 -72.69   0
       183    421.8337    626.5392 307.7408846  +6.4147981     1188.419      2446.05     2784.994     91.46716     183.1527     365.9779      2.342     8.70     1220.284     64.52238     150.8799        21     2.203     1.059 -76.45   3
       184    418.2918    626.4035 307.7423637  +6.4147361     1055.194      1761.72      2561.33      91.3214     182.7157     365.7958      1.936     7.09     1220.255     64.52238      163.002        14     1.578     0.893 -87.38   3
       185    133.4023    626.3943 307.8609579  +6.4052343     11020.58     31801.05     36196.83     91.02917     182.7157     365.7958      2.584     6.58     1222.205     64.52238      1505.74        73     2.047     1.832 -87.48   0
       186    801.4131    625.8646 307.5828891  +6.4276990     734.4044     1475.822       1540.2     91.17541     182.8615     365.9415      2.303     5.37     1210.727     64.52238     146.8092         6     1.270     0.641 -28.05   0
       187    969.6080    615.3596 307.5132230  +6.4376176     4847.685     10216.92      11789.4     91.02917     182.8615     365.6866      2.202     4.87     1208.394     64.52238     567.1748        41     1.661     1.430  70.20   0
       188   1023.5292    610.5975 307.4909357  +6.4413716     43824.16     62186.21     64610.16     81.45168      147.721     277.6832      1.422     4.46     1208.164     64.52238      8530.51        37     1.731     0.688 -88.67  24
       189    563.2419    610.9440 307.6825470  +6.4259505     21948.82     63314.05     74119.08      91.6127     183.0071     366.0507      2.615     6.82     1214.843     64.52238     2299.031        92     2.094     1.902 -72.17   0
       190    171.3865    607.1701 307.8458015  +6.4144473     1301.269     3994.557     5206.999      91.3214     182.8615     365.9779      3.165     9.37     1220.972     64.52238     182.8958        32     2.059     1.441  43.63   2
       191     65.1812    602.4996 307.8901716  +6.4128280     657.5508     1306.693     1758.976       91.758     182.9343     365.7958      1.930     3.60     1221.945     64.52238     95.62817         5     1.004     0.373 -83.98   0
       192    460.5460    594.7993 307.7258480  +6.4292037     26432.59     81628.62     96086.07     91.02917     182.7157     365.5772      2.693     7.06     1217.559     64.52238     2732.148       101     2.148     1.980 -75.28   0
       193      5.4913    597.0407 307.9152053  +6.4130873     1091.242      2324.66     2409.179       91.758     183.0071     341.4203      2.182     6.69     1223.391     64.52238     138.2819        15     1.381     1.119 -72.52  18
       194    133.3797    591.7545 307.8621486  +6.4195477     676.4397      1011.98     738.5707      91.3214     182.9343     365.8322      1.739     7.19     1220.469     64.52238     106.2637         7     1.468     0.985  77.65   2
       195    136.5435    589.5020 307.8609084  +6.4205843     859.8683     1457.519      1750.41      91.6127     183.0799     366.3053      1.742     5.83     1220.368     64.52238     149.2499         9     1.491     0.642  70.36   2
       196    307.4373    583.9821 307.7899551  +6.4285706      880.767     2272.243     3714.437      91.3214     182.9343     365.7594      3.463     7.31     1217.713     64.52238     120.6075        11     1.627     0.919  59.09   2
       197    732.5797    578.1727 307.6131617  +6.4451221     2573.383      7066.18     8013.911     91.17541     182.7886     365.9415      2.533     7.62      1209.86     64.52238     259.2925        39     1.808     1.549 -78.76   0
       198    786.0201    573.3690 307.5910761  +6.4488816     7427.618     18724.89     21218.35      91.1754     182.8615     365.8687      2.386     5.74      1208.44     64.52238     757.4535        55     1.855     1.641 -74.55   0
       199    610.6062    571.6428 307.6641632  +6.4437669     1188.383     3504.655     4405.307     91.17541     182.7157      365.723      2.746     9.51     1211.156     64.52238     151.8982        26     1.967     1.284 -49.00   2
       200    528.7061    572.6031 307.6982268  +6.4406453     704.6743     1723.301      2241.25     91.46717     182.7157      365.723      2.819     8.90     1213.796     64.52238     92.92395         9     1.658     1.334  41.10   0
       201    926.8351    567.0744 307.5326640  +6.4561539     807.7454     1965.127     1914.913     91.61269     183.1527     366.0143      2.501     6.61     1205.449     64.52238     149.8311         9     1.411     0.869  67.93   0
       202    861.8614    556.6689 307.5600669  +6.4582995     1625.673     3923.873     4872.335     91.90307     183.0799     366.0871      2.500     8.31     1206.083     64.52238     173.1815        27     1.593     1.339 -66.80   0
       203    820.6619    553.9336 307.5773123  +6.4580630     1222.873     3015.759     3565.811       91.758     183.0071     366.0507      2.412     8.25     1206.784     64.52238     148.5709        22     1.628     1.472  66.62   0
       204    249.7301    550.0035 307.8151359  +6.4406861     3386.394     8879.229     10102.17     91.02917     182.6428     365.8687      2.553     6.98     1215.673     64.52238     382.1588        45     2.102     1.504 -47.38   2
       205    247.5094    547.4912 307.8161459  +6.4416501      2288.65     3174.472     2929.128       91.758     183.6611     366.1598      1.548     4.41     1215.453     64.52238     256.3037        12     1.110     0.837 -61.01   3
       206    800.4573    545.4694 307.5860109  +6.4608903     82797.91       162531     180072.8     91.90308     183.0071     366.0143      2.105     5.80     1206.856     64.52238     8455.647       116     2.246     1.668 -70.77   3
       207    803.0000    544.9968 307.5849683  +6.4611699     61747.21     103709.5     111195.6     90.88271     182.4969      365.723      1.795     4.46     1206.775     64.52238     7477.325        42     1.878     1.007  89.86   3
       208    183.2154    543.9506 307.8430324  +6.4409665     24361.27     76193.84     91861.46     91.02917     183.1527      365.723      2.726     7.03     1217.077     64.52238     3152.266       104     2.211     2.001 -85.55   0
       209    107.2884    540.3212 307.8747646  +6.4399294     2746.614     8104.066     9797.923     91.46717     183.3708     366.1962      2.672     6.69     1218.702     64.52238     384.8284        51     1.928     1.759 -67.08   0
       210    971.3867    536.3945 307.5151535  +6.4703088     745.4846     1234.417     1023.429      91.3214     182.7886     365.9051      1.324     3.39     1203.375     64.52238     118.3696         5     0.977     0.340 -67.64   0
       211    836.6911    532.6447 307.5713599  +6.4673924     2207.113     3836.562     4388.154       91.758     183.0071     366.1962      1.922     6.57     1205.492     64.52238     264.7908        22     1.718     0.971  84.83   3
       212    839.6071    531.8082 307.5701742  +6.4678348     1780.781     2992.773     3456.991     91.02917     182.8615     365.9051      1.749     6.05     1205.383     64.52238     223.8507        16     1.663     0.649 -87.29   3
       213    356.5600    531.0615 307.7713064  +6.4520773     6730.955     21574.88     25765.75       91.758     183.0799     366.1234      2.743     7.16     1213.484     64.52238     749.2952        73     2.151     1.925  83.15   0
       214    160.2486    530.2546 307.8530605  +6.4458589     771.6783     1841.203     2250.319       91.758     183.0799     366.1234      2.633     4.49     1216.982     64.52238     127.5525         5     0.780     0.736  63.93   0
       215    521.5658    525.8217 307.7027889  +6.4597395     2436.386      5475.48     6052.833     91.17541     182.8615     365.7594      2.238     7.94     1210.702     64.52238     257.7262        29     2.138     0.973 -89.17   3
       216    524.5213    525.5397 307.7015680  +6.4599544     2698.406     4573.519     5231.638     91.90308     183.0799     366.0143      1.890     6.41     1210.646     64.52238     305.5312        22     1.857     0.835 -86.31   3
       217    791.9703    525.8174 307.5902103  +6.4687296     2868.551      7438.03     8057.569      91.3214     182.8615     365.9779      2.395     6.22     1206.335     64.52238     307.3367        44     1.732     1.657 -61.27   0
       218    383.9721    522.9272 307.7601710  +6.4563525     551.1862     861.1392     2257.462     91.46716     183.0071     365.9779      1.410     3.76     1212.033     64.52238      92.0802         5     1.020     0.397  59.18   0
       219    171.5050    519.3525 307.8487461  +6.4507400     3151.156     6485.112     8727.935      91.6127     182.9343     366.1962      2.753     8.29     1215.821     64.52238     369.4119        42     2.274     1.699 -47.70   2
       220    168.6752    517.6652 307.8499817  +6.4513427     1876.699     3112.627       3894.2     91.90308     183.0799     366.0143      1.791     5.66     1215.834     64.52238     239.8127        15     1.531     0.801 -49.25   3
       221     41.7590    517.8787 307.9028103  +6.4470121     2249.744     6372.632     7566.729      91.6127     183.0799     366.0507      2.601     6.55     1218.796     64.52238     303.6719        43     1.771     1.705 -74.50   0
       222    566.6823    518.9736 307.6842382  +6.4640709     1140.061     3174.957     3900.737     91.61269     182.7886     366.0143      2.747     7.63     1209.464     64.52238     151.8123        17     1.673     0.974  69.62   0
       223    265.1765    515.5930 307.8098776  +6.4554211     33352.48       110168     133298.7     91.17541     182.8615     365.8687      2.787     7.54      1212.98     64.52238     4322.929       115     2.235     2.056 -83.25   0
       224    788.0718    507.6511 307.5924490  +6.4761073     8325.813     21773.02     24435.16       91.758     183.0799     366.0871      2.466     6.10     1205.672     64.52238     845.7723        64     1.978     1.725 -73.52   0
       225    490.4832    507.5145 307.7163517  +6.4662700        15028     29441.93     33084.02     91.46717     183.2981     366.1598      2.089     5.45     1209.854     64.52238     1558.172        39     1.727     1.272  46.93   3
       226    492.6852    505.2382 307.7155123  +6.4672840     16915.82      39849.7     46639.22       91.758     183.0799     366.0507      2.436     7.03     1209.575     64.52238     1648.005        65     2.365     1.371  40.19   3
       227    204.3565    503.1438 307.8356222  +6.4585351     835.8392     2467.551     2823.298      91.6127     183.0799     366.0507      3.041     9.22     1214.113     64.52238     108.7075        16     1.855     1.280 -12.25   0
       228    653.5172    501.4200 307.6486815  +6.4742125     1168.271     2250.577     3156.769      91.3214     182.7157     365.9779      2.230     5.06     1206.654     64.52238     138.7113        10     1.200     0.602 -79.45   3
       229    650.4994    501.0514 307.6499504  +6.4742646     1200.916     2571.539     3779.947       91.758     183.0799     366.3053      2.444     7.99     1206.763     64.52238     138.1093        20     1.905     0.938 -87.87   2
       230    389.5785    496.7388 307.7587280  +6.4673614      748.332     2229.925      3116.83      91.3214     183.0799     365.9415      2.890     8.02     1209.545     64.52238     140.7209        11     1.867     0.963  -9.63   0
       231    322.4334    496.2932 307.7866976  +6.4653067     1556.342      3361.43     4600.619     91.90308     182.9343     366.1234      2.486     8.66      1210.14     64.52238     193.7305        28     2.115     1.354 -51.31   2
       232    319.5139    494.4927 307.7879743  +6.4659533       1294.6     2526.159     3252.276      91.6127     183.5886     366.1598      2.299     5.98     1209.939     64.52238     157.3245        14     1.408     0.837 -65.50   3
       233    136.2769    494.0639 307.8642744  +6.4600129     10798.63     33245.99     39555.22     92.04791     183.0799     366.0143      2.721     6.97     1215.652     64.52238      1458.62        85     2.171     1.954 -82.50   0
       234    500.0389    493.4157 307.7128525  +6.4724143     925.5082     2307.827     2773.301      91.3214     182.8615     365.7958      3.143     8.28      1208.56     64.52238     135.6239        14     1.724     1.112 -84.37   2
       235    863.4636    493.8111 307.5615285  +6.4843284     963.4944     2055.042      1692.38     91.17541     182.8615     365.9051      2.075     7.78      1203.54     64.52238     111.1182        15     1.440     1.176 -62.28   0
       236    100.5262    494.2844 307.8791504  +6.4587270     903.9796     1686.951      1730.54     91.90308     183.4434     366.0871      2.109     7.10     1217.611     64.52238     132.8645        12     1.740     0.811  48.71   3
       237    103.0364    491.8520 307.8781884  +6.4598160     1196.969     2501.808     2696.122      91.6127     183.0799     366.0507      2.209     8.36     1217.443     64.52238     142.0177        20     1.881     1.038  45.95   2
       238    960.5529    488.5228 307.5212837  +6.4897327     2881.386     4707.913      5261.35      91.6127     183.1527     366.0143      1.820     4.84     1200.597     64.52238      355.899        23     1.661     0.863 -88.88   3
       239    963.2274    487.7292 307.5201970  +6.4901493     2119.332     3415.964     3651.774     91.46717     183.0071     365.9779      1.661     4.56     1200.424     64.52238     259.4619        13     1.471     0.586 -84.52   3
       240    533.6155    481.5636 307.6992760  +6.4784298     648.9824     1481.212     1890.039      91.3214     182.8615     365.8322      2.501     6.22     1207.524     64.52238      110.573         9     1.336     0.814 -79.22   0
       241      2.0769    478.5321 307.9206738  +6.4619434     11919.12     19722.35     21313.86     89.25571     157.9204     289.3367      1.798     5.44     1219.177     64.52238     1531.622        35     1.904     0.924 -87.12  24
       242    431.7427    476.7437 307.7418537  +6.4770291     13714.04      23559.4     24956.46     91.90308     183.1527     366.1234      1.819     5.63     1207.384     64.52238     1421.572        24     1.539     0.945  36.08   3
       243    434.3802    474.1848 307.7408427  +6.4781745     17174.59     38320.96     45982.96     91.46716     182.7886     365.9415      2.375     7.73      1207.12     64.52238     1983.514        69     2.307     1.561  40.52   3
       244    639.9798    475.0857 307.6552115  +6.4846449     5210.337     11745.76     13741.79      91.3214     182.7886     366.0143      2.335     7.40     1205.445     64.52238     515.5015        44     2.102     1.418 -84.03   3
       245    643.0000    474.4550 307.6539754  +6.4850059     4273.128     6566.817     7144.026     90.88271     182.6428     365.6501      1.692     4.53     1205.282     64.52238     551.8707        17     1.727     0.736 -89.78   3
       246    198.4214    472.7411 307.8391295  +6.4709002     7510.468     25048.96     30843.51      91.3214     183.0071     365.8687      2.827     7.34     1212.497     64.52238     843.3889        78     2.195     2.006  82.74   0
       247    974.5454    472.7909 307.5159900  +6.4966975     771.2184     1394.719      1456.85     91.02917     183.0071      365.723      2.049     7.27     1198.742     64.52238     91.87244         9     1.248     1.186 -26.52   0
       248    562.8444    471.1917 307.6874590  +6.4836885     1111.465     3559.373     3580.621      91.1754     182.9343      365.723      2.540    10.16      1206.24     64.52238     142.5386        28     1.759     1.635 -17.54   2
       249    166.2338    473.7393 307.8524959  +6.4694126     677.2208     1231.301     2176.464     91.46717     183.1527     365.9779      1.677     3.35     1212.856     64.52238      122.369         5     0.918     0.353  45.75   0
       250    936.6252    468.1677 307.5319351  +6.4973514     2814.954     6660.964     7172.203     91.17541     182.8615     365.8687      2.309     5.94     1200.687     64.52238     321.6495        37     1.747     1.425 -71.03   0
       251    611.7866    466.5151 307.6672407  +6.4872492     2393.945     3764.278     4221.641      91.3214     182.9343     365.8687      1.751     5.59     1205.469     64.52238     335.4541        17     1.685     0.696  81.38   3
       252    608.9822    465.9918 307.6684261  +6.4873721     2455.875     5948.758     7413.006      91.3214     182.7886     365.8687      2.576    10.00     1205.445     64.52238     276.2109        35     2.447     1.140  83.14   3
       253    958.3500    460.2623 307.5231571  +6.5013383     1969.935     3572.109     3432.616       91.758     183.0071     366.1234      1.855     5.08     1198.919     64.52238      264.812        20     1.549     0.896  89.04   3
       254    961.0000    460.0256 307.5220617  +6.5015239     1233.116      1663.13     1897.576     91.17541     182.6428     365.7958      1.504     4.80     1198.748     64.52238     186.8401        11     1.326     0.661 -85.57   3
       255    520.5109    459.5194 307.7054811  +6.4871031     2730.265     4433.322     5056.911     91.46717     183.2981     366.1598      1.811     5.49     1205.308     64.52238      310.985        19     1.616     0.805  65.15   3
       256    523.6675    457.5603 307.7042334  +6.4880177     2970.086     6076.652     7847.264      91.6127     183.0071     366.1598      2.295     8.60     1205.087     64.52238     328.3088        33     2.063     1.230  52.26   3
       257    369.9937    458.9514 307.7681677  +6.4823235     1089.282     2404.048     3386.663     91.17541     182.8615     365.6137      2.999     8.05     1206.938     64.52238      134.891        14     1.789     1.014 -38.88   2
       258    366.6959    456.3741 307.7696284  +6.4832786     877.2408     1608.177     2106.037     91.90308     182.7886     365.9051      1.863     3.51     1206.804     64.52238     148.4943         5     0.758     0.470  25.74   3
       259    878.6096    453.7059 307.5565804  +6.5014041     1865.667     4320.467      5102.05      91.3214     182.6428     365.8322      2.333     7.90     1201.132     64.52238     194.2656        27     1.494     1.349 -62.25   0
       260    885.5933    447.9696 307.5538669  +6.5040062     1155.625     2590.243      3121.48     91.02917     182.8615     365.7958      2.299     8.72     1200.599     64.52238     166.3767        21     1.679     1.266  83.49   0
       261    924.6400    446.9452 307.5376436  +6.5057242     846.0206     1670.965     1684.981     91.61269     183.1527     366.0143      2.035     4.57     1199.691     64.52238     145.7434         8     1.241     0.618 -82.64   0
       262    380.9765    443.0165 307.7641373  +6.4892745     1411.114     4538.329     5944.578     91.46716     182.9343     365.9415      2.964     9.80     1205.617     64.52238     183.3359        44     2.034     1.752  77.76   0
       263    709.9147    444.3671 307.6271358  +6.4996635     1422.502     3804.862     4132.468       91.758     182.8615     366.0143      2.487     7.35     1202.387     64.52238     170.9729        31     1.694     1.553  89.75   0
       264     72.3912    444.4462 307.8925644  +6.4783806     715.7567     1690.225     2004.346     91.17541     182.9343     365.6501      2.411     6.09     1215.425     64.52238     91.85046        10     1.500     0.696 -26.05   2
       265     70.5643    441.9848 307.8934090  +6.4793366     719.3524     1411.124      1825.74      91.3214     182.8615     365.8322      2.175     5.94     1215.329     64.52238     114.8615         7     1.269     0.782 -21.74   2
       266    607.4175    439.3528 307.6699820  +6.4983284      4058.91      9086.57     11145.99     91.17541     183.0071     365.7958      2.376     7.26     1202.875     64.52238      386.839        37     2.152     1.105  89.63   3
       267    610.3902    438.9423 307.6687583  +6.4985969     3431.878      6067.61     6672.305     91.02917     183.0071      365.723      1.877     5.61     1202.859     64.52238     391.4711        22     1.706     0.866 -88.19   3
       268    771.3350    435.4977 307.6018632  +6.5053687     8017.723     21956.56     26641.96       91.758     183.1527     366.0871      2.609     6.47     1201.432     64.52238     812.0917        72     2.134     1.784 -69.84   0
       269    955.5888    431.2034 307.5252900  +6.5132553     1074.548     2368.026      2231.75      91.3214     182.7157     365.9051      2.222     7.21     1197.111     64.52238     136.1437        14     1.354     1.075 -74.56   2
       270    291.8426    436.9983 307.8014528  +6.4887887     995.2531     2941.177     3269.708     91.02917     182.7157     365.6866      2.655     8.69      1206.58     64.52238     132.0419        19     2.005     1.052 -25.74   2
       271    109.4184    428.3260 307.8776990  +6.4862799     1843.655     5772.567     7449.051     91.17541     182.9343     365.9415      2.831     8.41     1212.549     64.52238     251.8937        33     2.049     1.349 -55.67   2
       272    746.0563    424.5137 307.6127609  +6.5090683      840.752     2137.793     2958.662       91.758     183.0799     366.2326      3.106     9.29      1200.91     64.52238     140.8247        14     2.048     1.177  22.29   2
       273   1010.4012    424.9640 307.5026783  +6.5176497     2525.178     6066.067     6459.297       90.736     182.8615     365.8322      2.378     5.79     1194.191     64.52238     264.5237        38     1.658     1.527  77.89   0
       274    347.0047    422.4616 307.7789811  +6.4966358     1275.414     2271.725     3026.857     91.02917     182.7886     365.7594      2.027     7.92     1205.109     64.52238     176.6611        20     2.157     0.813 -69.62   2
       275    343.1159    422.0486 307.7806143  +6.4966768     1035.313     2250.225     2213.555       91.758     183.0799     366.0871      2.140     8.01     1205.165     64.52238     149.8549        14     1.978     0.907 -80.17   3
       276    268.5229    424.5971 307.8115843  +6.4931351     793.7935     1590.408     2226.331     91.17541     182.4969     365.8322      1.822     3.79     1206.827     64.52238     104.5648         6     1.032     0.400  71.64   0
       277    812.2050    409.0320 307.5857429  +6.5176622     1004.853     2618.667     2414.366     91.02917     182.9343     365.7958      2.291     9.30     1199.129     64.52238     141.1583        22     1.628     1.484  22.91   0
       278    708.6909    407.6070 307.6288923  +6.5148136     6382.627      13550.1     16407.58      91.3214     182.7157     365.7958      2.277     6.49     1199.727     64.52238     670.3392        41     2.219     1.122  83.00   3
       279    711.6155    406.7793 307.6277026  +6.5152528     5198.865     9150.767     10727.55      91.3214     182.7157     365.9051      1.922     4.86     1199.619     64.52238     592.1469        24     1.603     0.908 -89.79   3
       280    628.8298    405.7462 307.6622077  +6.5129281     782.2106     1632.899     2755.892     91.46716     183.1527     365.9779      3.563     4.56     1199.693     64.52238     122.2419         5     0.787     0.751 -18.94   0
       281    632.4599    403.4988 307.6607725  +6.5139775     912.9927     2217.908     3303.073     91.46717     183.0071     366.1962      2.972     6.19       1199.4     64.52238     130.1184        10     1.237     0.883 -62.68   2
       282    603.2353    398.5815 307.6731078  +6.5150376     6531.634     20496.65     29254.08     91.17541     182.8615     365.7958      3.143     8.23     1199.001     64.52238     739.7861        96     2.693     2.049  42.22   0
       283    934.9587    397.0593 307.5350356  +6.5266815     2290.919     5326.427      6174.09       91.758     183.0799     366.1234      2.376     5.98     1195.604     64.52238     249.2471        35     1.663     1.482 -47.53   0
       284    374.3082    393.4055 307.7686021  +6.5095531     10849.26     36867.15     44731.34      91.3214     182.7157     365.7958      2.817     7.81     1201.958     64.52238     1310.669        90     2.221     2.042 -82.99   0
       285    121.5840    394.1414 307.8738003  +6.5008124     961.8647     2367.164     3630.045     91.02917     183.0071     365.7594      2.803     7.12     1210.474     64.52238     111.7977        14     1.643     0.866 -33.40   2
       286    889.4474    391.6823 307.5541681  +6.5273945     829.2321     2141.695     2789.343       91.758     183.0799     366.0871      2.886     7.89     1196.585     64.52238     107.3646        10     1.711     1.017  88.06   2
       287    903.6686    387.6678 307.5483824  +6.5295251     2985.397     6725.223     6750.318       91.758     183.2254     366.0507      2.269     5.58     1195.906     64.52238     308.3762        39     1.748     1.470 -84.55   0
       288    232.5065    384.7830 307.8279366  +6.5083852     5569.941     14434.75     16813.52     91.46717     182.8615     365.9051      2.526     8.10     1206.306     64.52238     720.6637        52     2.220     1.577 -39.61   3
       289    230.5950    382.2026 307.8288204  +6.5093876     3853.206     5857.803     6452.413     91.02917     182.6428     365.8322      1.694     4.07     1206.291     64.52238     419.0984        17     1.254     0.937 -80.28   3
       290     55.9157    388.0658 307.9013485  +6.5011273     747.5378     1593.012     2096.791     91.90308     183.3708     366.1234      2.184     3.62     1213.286     64.52238     103.3164         5     0.989     0.382 -31.36   0
       291    953.9638    375.9772 307.5278355  +6.5360234     648.6006     1033.637     1344.913      91.3214     182.7886     365.7958      1.815     3.76     1192.766     64.52238     99.77576         5     1.016     0.400 -60.50   0
       292    132.2922    372.7668 307.8700712  +6.5100029     2048.353     6411.694     8081.818     91.90308     182.9343     366.0871      2.835     7.32     1209.459     64.52238     305.3273        46     1.916     1.741  89.50   0
       293    155.9094    368.5902 307.8603805  +6.5125180      1229.97      2759.87     4192.051     91.46716     182.7157     365.7958      3.058     5.45     1208.538     64.52238     168.5583        14     1.344     0.822 -80.21   2
       294    379.0428    364.3774 307.7676187  +6.5217063     745.9691     1935.806     2594.354      91.1754     182.9343     365.8687      2.607     6.72     1199.141     64.52238     112.3054        12     1.793     0.707 -52.63   2
       295    429.8607    358.4783 307.7466601  +6.5258379      2567.44     4546.078     5631.346     91.90308     183.1527     366.0143      1.994     5.89     1196.221     64.52238      271.236        20     1.653     0.833  54.43   3
       296    432.3830    356.3110 307.7456836  +6.5268175     2985.889     7049.229     8861.244     91.46717     182.7886     365.9051      2.538     7.70     1196.005     64.52238      324.451        35     2.022     1.257  47.77   3
       297     28.6980    357.3945 307.9137278  +6.5128908     1543.058     3997.281     5009.934     91.46717     182.7157     365.6866      2.730     7.64     1213.257     64.52238     186.4011        32     1.855     1.432  24.81   2
       298    770.6401    354.0030 307.6049154  +6.5390227     5644.757     11410.59      14328.7     90.88271     182.7157     365.7594      2.140     6.32     1194.503     64.52238     629.3483        36     2.021     1.010  88.08   3
       299    774.0000    354.0087 307.6035161  +6.5391319     4353.415     7399.435     8677.611     90.88271     182.6428     365.7958      1.755     5.96      1194.49     64.52238     580.2891        24     1.800     0.820 -89.13   3
       300    762.7878    356.6909 307.6080939  +6.5376512      985.939     2234.859     2869.181     91.46717     182.7886     365.8322      2.753     7.26     1194.811     64.52238     129.3453        12     1.453     1.016 -21.50   3
       301   1015.7101    348.7813 307.5030443  +6.5493078     2572.475     5171.377     5617.877     91.46717     182.7886     365.9415      2.090     5.10     1185.757     64.52238     313.5454        33     1.585     1.382 -73.73  16
       302    452.5195    342.5190 307.7377682  +6.5331877     865.2719     2229.435     2501.181     91.90308     183.3708     366.2326      2.514     7.85     1194.889     64.52238     108.7389        13     1.964     0.878 -15.36   0
       303    478.8508    338.8397 307.7269293  +6.5355852      1121.07     3339.083     4422.333       91.758     183.0799     366.0507      3.022     5.73      1194.13     64.52238     183.7931        16     1.246     1.052 -87.33   2
       304    837.2335    336.8022 307.5777687  +6.5483413     17180.19      44588.4     51377.36     90.88271     182.8615     365.8322      2.495     6.07     1192.859     64.52238     1802.514        81     2.076     1.764 -84.52   0
       305    607.7036    330.4545 307.6735608  +6.5433390     1046.114     2175.746     2886.807      91.6127     183.0799     366.3417      2.408     7.85      1192.29     64.52238     154.4891        15     1.806     0.956  89.28   3
       306    611.2256    328.9916 307.6721439  +6.5440606     1038.136     1791.733     2230.336      91.3214     182.8615     365.8687      1.719     5.47     1192.198     64.52238     133.1411        11     1.178     0.756  51.32   3
       307    692.4316    323.0650 307.6385308  +6.5492096     32554.08     69306.73     79523.73     91.46716     183.0799     365.9779      2.242     6.78      1191.92     64.52238     3668.531        68     2.326     1.175 -88.61   3
       308    695.5300    322.9811 307.6372435  +6.5493472     28422.67     52001.44     57855.94      91.3214     182.9343     365.9779      1.964     5.47     1191.945     64.52238     3338.355        47     1.945     1.028 -78.86   3
       309     74.0468    324.2278 307.8959789  +6.5281130     681.3806     1462.347     2269.281      91.3214     183.1527     365.9415      2.297     4.87     1210.975     64.52238     104.1073         7     1.254     0.537 -83.71   0
       310    557.3718    319.0352 307.6949068  +6.5463833     903.7021     2637.333     3586.932      91.3214     182.7886     365.8322      2.941     9.56     1191.362     64.52238     143.7189        17     1.689     1.573  36.53   2
       311     93.7368    318.8471 307.8879643  +6.5309949     2438.239     7885.996     9494.091      91.6127     182.9343     366.1234      2.797     7.54     1210.035     64.52238     322.1782        53     2.057     1.812 -89.99   0
       312    538.1716    316.1201 307.7030008  +6.5469489     2764.295     6256.016     7380.257     91.61269     183.0071     366.0143      2.354     7.63     1191.186     64.52238     300.4661        35     2.073     1.188  88.90   3
       313    541.4471    315.7708 307.7016488  +6.5472023     2553.264     4329.463     5018.697      91.3214     183.1527     365.9415      1.851     4.96     1191.157     64.52238     315.4209        19     1.618     0.749 -86.53   3
       314    269.8591    313.2010 307.8148234  +6.5392118     959.7868     2653.803     3314.523     91.02917     182.7886     365.6866      2.931     8.67     1200.734     64.52238     137.0659        19     1.750     1.201  61.01   2
       315    402.4460    311.1442 307.7596857  +6.5444842      9535.64      32830.3     40122.27       91.758     183.0799     366.1234      2.862     7.71     1194.827     64.52238     1089.553        85     2.240     2.031 -82.63   0
       316    490.0107    302.8492 307.7235062  +6.5508295     3143.586      6364.82     8316.166     91.17541     182.9343     365.6866      2.293     9.73     1190.342     64.52238     321.4741        33     2.359     1.118  85.65   3
       317    493.7610    301.2527 307.7219988  +6.5516141     2812.619     5213.723     5675.971      91.6127     183.0799     366.0507      2.003     6.72     1190.112     64.52238     391.4567        26     1.829     0.982  82.09   3
       318    760.2355    299.8363 307.6110846  +6.5610611     1376.664      4153.72     4984.895     91.46716     182.8615     365.7594      2.739     8.97     1190.367     64.52238     159.5734        34     1.805     1.657  58.37   0
       319    383.3794    285.7618 307.7684888  +6.5543374     2940.532     6651.751     9604.865      91.3214     182.7886     365.7594      2.881    10.18     1194.263     64.52238     339.4349        45     2.396     1.757  51.89   2
       320    379.3234    287.6647 307.7701130  +6.5534159     1986.808     3567.001     4183.667     91.90308     183.0799     366.0507      2.063     6.29     1194.479     64.52238     261.1854        17     1.700     0.766  65.76   3
       321    235.9896    287.8024 307.8297918  +6.5485766     685.8491     1176.444     1329.251      91.3214     182.7157     365.8687      1.934     3.90     1200.759     64.52238     82.69336         5     0.836     0.520 -56.23   3
       322    239.2389    285.5714 307.8285149  +6.5496070     875.6332     1248.571     1866.456     91.17541     182.7886     365.9051      1.596     5.41     1200.642     64.52238      139.256         9     1.242     0.665  77.67   2
       323    747.9120    281.9748 307.6168221  +6.5680330     23248.79     48139.02     56023.25     91.90308     182.8615     365.9051      2.246     7.32     1189.146     64.52238     2529.861        64     2.277     1.301  81.41   3
       324    751.0000    281.0400 307.6155678  +6.5685218     18915.42     31706.94     34386.61     90.58906     182.6428     365.5772      1.754     4.93     1189.093     64.52238     2387.731        29     1.666     0.908  85.53   3
       325    421.4856    282.0110 307.7527490  +6.5571576     780.4192     2558.198     3204.281      91.3214     182.7886     365.8687      3.171     7.07     1192.643     64.52238     155.7748        11     1.992     0.703 -21.51   2
       326    983.5905    278.3082 307.5188036  +6.5773665     1174.554     2501.579     2716.142      91.3214     182.6428     365.7594      2.078     7.74     1183.736     64.52238     137.1071        19     1.718     0.976 -52.75   0
       327    924.6623    277.2393 307.5433793  +6.5758551     1396.089     3062.994     3489.566       91.758     183.0799     366.1234      2.340     7.41     1186.741     64.52238     155.8087        21     1.404     1.336  68.97   0
       328    408.5997    277.6949 307.7582616  +6.5585117     882.9412     2155.398     2718.014     91.17541     182.6428     365.5772      2.311     6.02     1192.933     64.52238     151.7614        10     1.572     0.649 -49.55   0
       329    406.2565    274.7391 307.7593379  +6.5596550     639.5087     1487.246     2507.908     91.90308     183.0799     366.0871      2.150     3.74     1192.855     64.52238     99.13562         5     1.048     0.383 -56.41   2
       330    185.2482    268.8593 307.8515661  +6.5547097     934.1975     2273.908      3084.15       91.758     183.0799     366.1234      2.895     8.18     1203.891     64.52238     140.6633        14     2.086     0.897 -13.52   2
       331    746.4031    266.2549 307.6179836  +6.5744789     2724.966     5867.827     6926.086     91.02917     182.8615     365.6866      2.336     6.92     1188.298     64.52238      296.157        28     2.027     0.957  82.19   3
       332    749.4531    265.7816 307.6167295  +6.5747758     2453.756     4059.161     4863.001     91.17541     183.1527     365.7958      1.880     5.10     1188.298     64.52238     294.6129        22     1.647     0.855  79.13   3
       333    762.7754    264.0030 307.6112421  +6.5759533     1152.906     2804.743     3554.559      91.3214     182.7157     365.8322      2.477     6.80     1188.193     64.52238     143.7623        16     1.675     0.775  73.37   2
       334    765.8358    263.6415 307.6099799  +6.5762043     926.5446     1693.349     2510.675     91.46716     183.0799     365.8687      2.120     5.09     1188.193     64.52238     121.0693         9     1.214     0.603  75.96   3
       335    353.9476    259.1466 307.7816505  +6.5643543     954.4499     2668.153     3657.277     92.04791     182.9343     366.0871      2.867     8.40     1194.359     64.52238     121.6355        18     1.762     1.120 -63.95   0
       336   1002.1420    254.5793 307.5118809  +6.5877869     3833.021     8283.061     8894.304      91.3214     182.9343     365.8322      2.178     4.93     1181.417     64.52238     451.0199        42     1.755     1.445  89.58   0
       337    481.1682    256.0757 307.7287788  +6.5698634     815.5911     2317.964     2412.155     91.61269     183.1527     366.0143      2.507     6.97     1186.743     64.52238     116.3877        11     1.862     0.731  -6.13   2
       338    241.9430    252.5507 307.8285145  +6.5633423       2052.1     4206.499     5475.088       91.758     183.0799     366.1598      2.224     8.28     1200.097     64.52238     250.4652        23     2.179     0.880  65.95   3
       339    244.7095    250.4861 307.8274329  +6.5642878     2316.341     4691.023     6141.521     91.46717     183.5886     366.1962      2.375     7.53     1199.871     64.52238     287.9528        27     1.977     1.102  59.64   3
       340    377.4652    243.3376 307.7723957  +6.5716712      731.135     1302.037     1806.988       91.758     183.0799     366.0507      2.038     5.26     1192.542     64.52238     96.75427         7     1.433     0.545  18.82   0
       341    148.7884    237.4816 307.8678182  +6.5664574     952.4459     1850.737     2739.886      91.3214     182.7886     365.8687      2.042     6.03     1206.313     64.52238      119.618        10     1.474     0.693 -53.01   2
       342    145.3517    238.6702 307.8692087  +6.5658514     612.9134     1462.376     2242.447       91.758     183.0071     366.0871      2.774     4.27     1206.566     64.52238     96.52246         5     0.988     0.527 -55.66   3
       343    554.9337    233.2385 307.6988375  +6.5817565     912.3834     1987.016     2632.153      91.6127     183.0071     366.1598      2.634     5.93     1184.299     64.52238     142.2159        12     1.330     0.956  73.50   2
       344    558.5311    233.0403 307.6973462  +6.5819581     874.1394     1461.268     2047.126      91.6127     183.0799     366.1598      1.855     3.78     1184.339     64.52238     135.8888         6     0.826     0.497  85.85   3
       345    899.7050    231.6611 307.5553158  +6.5938625     1029.695      2540.63     2991.625      91.6127     183.1527     366.1234      2.494     7.87     1184.535     64.52238     142.5499        16     1.438     1.206  66.14   0
       346    721.8046    229.8438 307.6294623  +6.5887083     1748.617     3098.347     4312.691     91.02917     182.6428     365.6866      2.074     5.16     1186.033     64.52238     214.6125        17     1.459     0.854  84.02   3
       347    662.1034    230.1036 307.6543152  +6.5866168     915.0782     2091.927     2508.434       91.758     183.7336     365.8687      2.331     6.57     1184.829     64.52238     121.1935        10     1.551     0.782  62.77   2
       348    659.3555    231.0738 307.6554266  +6.5861245     873.1523     1649.147      2516.55      91.6127     183.1527     366.0871      2.447     6.22     1184.883     64.52238     129.6545        11     1.467     0.741  88.94   2
       349    718.9903    230.2236 307.6306214  +6.5884578     2078.772     4848.007     6064.266      91.3214     182.8615     365.9051      2.586     8.61     1185.962     64.52238     217.3755        30     2.112     1.121  77.65   3
       350    219.8041    216.3272 307.8389683  +6.5775715     634.1865     2735.407     2881.576      91.3214     182.5698     365.8687      2.760    10.87     1201.744     64.52238      121.932        20     1.939     1.697  21.79   0
       351    861.6773    215.0373 307.5717154  +6.5994708     1042.488     2273.265     2908.528     91.61269     183.1527     366.0507      2.454     7.26     1183.992     64.52238     137.3762        16     1.473     1.116  75.06   0
       352    753.7141    212.0818 307.6167764  +6.5971083     700.2472     1864.165     2259.809     91.46716     183.3708     366.1598      2.885    10.69     1185.528     64.52238     108.5193        12     2.625     1.214 -79.98   2
       353    453.6374    205.4463 307.7419653  +6.5898680     8197.927     29121.29     36874.11     91.46717     183.0071     365.9051      2.929     8.13     1185.426     64.52238     997.9799        89     2.346     2.056 -59.51   0
       354    778.2969    204.7362 307.6067881  +6.6009602     5994.786     12656.26     15615.18      91.6127     183.2254     366.0871      2.316     6.54     1185.134     64.52238     645.3843        43     2.172     1.148  87.84   3
       355    781.1956    204.4119 307.6055920  +6.6011904     5107.409     9576.534     10855.93      91.3214     182.7886     365.9051      1.986     5.59     1185.074     64.52238     547.8225        25     1.722     0.925 -78.25   3
       356    141.9559    199.7445 307.8719509  +6.5818228     952.5424     2961.637     3676.453       91.758     183.0799     366.0871      2.838    10.60     1206.381     64.52238     135.1509        27     2.015     1.554 -43.09   0
       357    915.8678    194.6552 307.5498380  +6.6096909     946.3838      1876.24     1930.233       91.758     182.9343     365.9779      2.114     6.88     1181.635     64.52238     112.6066        12     1.359     1.035 -55.45   0
       358    575.9068    191.7587 307.6915131  +6.5995953      1731.56     3721.158     4515.924     91.90307     183.0071     366.1598      2.257     9.60     1183.113     64.52238     176.3271        30     2.270     1.133  83.36   3
       359    579.3315    191.4287 307.6900981  +6.5998457     1727.421     2804.117     3148.615     91.46717     183.0799     365.9779      1.790     5.70     1183.143     64.52238     205.8062        17     1.601     0.816  89.02   3
       360    540.7751    192.3378 307.7061237  +6.5981868     866.1151     2360.116     2541.843      91.3214     183.0071     365.9779      2.652     7.42     1182.596     64.52238     147.1884        12     1.915     0.804 -21.69   0
       361    884.5558    187.5234 307.5631197  +6.6115996     6098.827     15049.59     16761.62      91.6127     183.1527     366.0871      2.394     5.93     1181.932     64.52238     666.9543        55     1.888     1.642 -88.53   0
       362    938.1867    188.1863 307.5407622  +6.6131041     1674.118     3669.364     3112.951      91.6127     182.7157     365.9779      2.123     6.98       1180.4     64.52238     165.9819        27     1.599     1.263  67.63   0
       363     10.9278    184.7610 307.9270242  +6.5836316     10820.03     33373.59     40154.65      91.6127     183.0799     366.1234      2.717     6.91     1214.249     64.52238     1409.083        79     2.163     1.888 -78.61  16
       364    971.0510    185.2622 307.5271745  +6.6154017     6196.669     13824.78     14597.14       91.758     183.0071     366.0507      2.241     5.24      1179.01     64.52238     740.2308        48     1.741     1.533  86.38   0
       365    681.1838    186.4797 307.6478502  +6.6052781     1234.396     2284.101     4014.862      91.3214     182.7886     365.8687      2.817     6.72     1183.891     64.52238     163.1442        14     1.585     0.800  77.79   3
       366    683.9787    185.0565 307.6467345  +6.6059591     1202.694     2642.293     3977.114      91.3214     183.0799     365.8322      2.738     8.00     1183.897     64.52238     143.4818        18     1.803     0.993  85.12   2
       367    491.9205    178.9224 307.7269250  +6.6021038     753.0701      2072.86      2863.59     92.04791     183.3708     366.2326      2.867     7.70     1182.651     64.52238     109.7456        10     1.636     1.015  25.49   2
       368    503.5061    177.2597 307.7221567  +6.6031767     1093.308     3081.536     3623.739      91.6127     183.0799     366.1234      2.684     8.49     1182.463     64.52238     145.7029        20     1.877     1.073 -49.93   2
       369    821.6022    176.0179 307.5897271  +6.6142654     863.4227     2169.218       3187.3      91.3214     182.5698     365.7594      3.161     7.10     1182.972     64.52238      119.014        14     1.541     0.917 -89.68   2
       370    337.7912    173.3902 307.7912987  +6.5992524     2948.553     9285.595     13298.25     91.17541     182.8615     365.9415      3.198     8.06     1193.754     64.52238     301.7075        69     2.388     1.920 -80.28   0
       371    876.4426    176.7537 307.5668634  +6.6157810     997.0671     1663.744         2278       91.758     183.0799     365.9779      1.953     5.30     1181.533     64.52238     154.9678         9     1.275     0.623 -66.29   3
       372    873.7736    176.0642 307.5679982  +6.6159774     963.9703     1646.772     2137.533      91.3214     183.0071     365.9415      1.853     5.85     1181.542     64.52238     133.7235        10     1.285     0.750 -75.60   2
       373    734.7341    173.5843 307.6259866  +6.6123864     18116.04     52155.69     60596.22     91.17541     182.9343     365.9779      2.600     6.66     1183.901     64.52238     1899.008        85     2.078     1.895 -77.54   0
       374    968.2552    171.7867 307.5287949  +6.6208777     1771.868     4111.934     4023.566     91.02917     183.0071     365.7594      2.235     6.62     1178.296     64.52238     204.0004        29     1.668     1.243  65.28   0
       375    901.5453    170.8178 307.5566101  +6.6190666     3982.396     7342.025     8510.642     91.17541     183.0799     365.7594      2.023     5.71      1180.25     64.52238     462.2273        32     1.944     1.148 -84.36   3
       376    904.3168    171.0021 307.5554496  +6.6190823     2224.374      3629.87      4254.37     91.02917     182.6428     365.6866      1.682     5.97     1180.178     64.52238     347.0925        14     1.791     0.560 -69.11   3
       377    445.0049    171.8466 307.7467033  +6.6034648     1677.935     2889.677     3450.771     91.02917     182.8615     365.6866      1.859     7.36     1184.111     64.52238     194.5314        20     1.810     0.839  61.25   3
       378    448.2761    170.0235 307.7454031  +6.6043271     1898.698     3852.736      4495.49      91.3214     182.9343     366.0143      2.198     9.50     1183.864     64.52238     239.3685        27     2.192     1.150  46.17   3
       379   1006.4586    171.2120 307.5129039  +6.6223810     1095.768     2092.056     1920.375     91.02917     183.0071      365.723      1.981     5.52     1177.212     64.52238     153.1012        16     1.337     1.185  61.53   0
       380    101.6855    163.3275 307.8899632  +6.5955247     1513.499      2096.44      2215.93     91.90308     183.4434     366.0871      1.499     4.67     1208.673     64.52238     202.9877        13     1.168     0.778  64.53   3
       381    105.2630    161.8442 307.8885241  +6.5962573     2135.809     4404.523     5935.797       91.758     183.0071     366.1234      2.460     9.53     1208.454     64.52238     216.8611        34     2.190     1.342  54.67   2
       382    273.9229    158.1700 307.8184143  +6.6034105     12700.88     43466.04     53955.14     91.61269     183.1527     366.0507      2.865     7.78     1200.245     64.52238     1609.646        93     2.279     2.048 -75.72   0
       383    921.4354    161.7382 307.5486340  +6.6234782     509.1376     1100.051     1791.865       91.758     183.0799     366.0143      2.312     4.52     1178.838     64.52238     119.3634         5     1.174     0.494  87.54   0
       384    249.1800    159.2545 307.8286812  +6.6021363     2424.153     8318.894     9534.918     91.17541     183.0799     365.8322      2.821     7.99     1201.847     64.52238     311.5222        59     2.120     1.932 -76.95   0
       385    397.9840    153.5496 307.7669075  +6.6094585     18104.53      63184.1     77474.55      91.1754     183.1527      365.723      2.860     8.23     1186.741     64.52238     2297.438       103     2.280     2.078 -77.74   0
       386    154.0861    155.1266 307.8684222  +6.6006653     1702.087     5306.276     6624.361     91.90308     183.4434     366.0507      2.861     8.03     1204.954     64.52238     233.6388        45     1.891     1.747 -62.55   0
       387    302.1995    151.3658 307.8068707  +6.6071660     6764.413     22839.25     29541.16       90.736     182.8615     365.7958      2.915     7.88     1198.109     64.52238     856.5605        89     2.316     2.117 -26.04   2
       388    735.9335    149.8754 307.6262914  +6.6222237     14861.87     32399.79     37085.03     91.90308     183.1527     366.0143      2.255     6.74     1182.747     64.52238     1648.321        58     2.136     1.394  87.49   3
       389    739.0000    149.4913 307.6250274  +6.6224843     11116.77     18423.64     20553.65     90.88271     182.4969     365.7958      1.766     4.93     1182.668     64.52238     1459.494        25     1.903     0.837 -87.70   3
       390     54.2888    147.2759 307.9102485  +6.6005722     3969.394     11899.54      13544.6       91.758     183.4434     366.1598      2.694     6.89     1211.407     64.52238      496.954        58     2.041     1.810 -81.65   0
       391    995.6927    143.7084 307.5183182  +6.6333900     705.5617     1421.168     2149.441       91.758     183.6611     366.0507      2.559     7.44     1176.088     64.52238     95.53296        10     1.323     1.171   9.88   0
       392    996.5423    129.7989 307.5184351  +6.6391661     1551.937     3266.592     3928.241     91.02917     182.6428     365.6866      2.326     6.08     1175.308     64.52238     202.9198        24     1.630     1.166 -64.24   0
       393    272.8427    124.4271 307.8200143  +6.6173179     11562.15     39289.13      49401.8      91.3214     183.0799     365.9051      2.891     7.98     1201.531     64.52238     1469.552        94     2.258     2.091 -80.34   0
       394     18.2359    123.2840 307.9260815  +6.6092796     2147.778     6137.697     7396.686       91.758     183.0799     366.0143      2.683     7.27      1213.54     64.52238      341.163        43     1.798     1.761 -58.06   0
       395    703.3203    121.6840 307.6408305  +6.6327898     3625.144     7063.795     8228.528      91.6127     183.4434     366.1598      2.124     6.63     1181.499     64.52238     380.6871        25     1.809     0.981  65.08   3
       396    706.3198    120.6797 307.6396153  +6.6333045     2989.374     5410.057     7272.533     92.04792     183.3708     366.2326      2.202     9.09     1181.426     64.52238      370.868        28     2.337     0.986  51.00   3
       397    115.2965    118.3819 307.8858295  +6.6145523     2165.042     6548.845     7910.898      91.6127     182.8615     365.7958      2.704     7.82     1206.724     64.52238     271.4097        48     2.064     1.723 -78.43   0
       398    388.0000    114.0610 307.7724097  +6.6254434     1314.173     2445.265     3336.823     90.88271     182.7886     365.6501      2.062     6.78     1187.668     64.52238     216.7101        13     1.663     0.776 -80.31   3
       399    384.9431    112.3186 307.7737421  +6.6260615     1397.899      3061.49     4506.767     91.90307     183.0799     366.0507      2.664     7.28     1188.109     64.52238      174.877        19     1.392     1.173 -40.77   3
       400    350.4107    113.2101 307.7880930  +6.6245414     1167.569     3972.998     4815.429      91.3214     182.8615     366.0143      2.865    10.25     1193.335     64.52238     148.9672        31     1.914     1.734 -31.93   0
       401    385.0334    115.6566 307.7735909  +6.6246851     1341.062     2514.216     3580.933     91.61269     183.0799     366.0507      2.452     4.16     1188.128     64.52238     157.5309        11     1.034     0.846 -60.00   3
       402    996.8569    106.9322 307.5190780  +6.6486260     1045.865     1911.418     1717.932     91.90307     183.0071     366.0143      1.929     6.19      1174.06     64.52238     153.9785        13     1.212     1.179  38.41   0
       403    203.0009    102.8861 307.8498343  +6.6238867     2375.885     5887.072     6633.403     90.88271     182.4969      365.723      2.421     7.87     1203.732     64.52238     280.2286        38     1.896     1.537 -46.49   2
       404    200.3622     99.9797 307.8510323  +6.6249996     1541.975     2214.239     3252.524      91.3214     182.7886     365.7594      1.574     4.12     1203.774     64.52238     215.0806        10     1.227     0.654 -34.46   3
       405     86.6169    102.5748 307.8983126  +6.6201250     923.9683     1815.141     2582.833     91.46717     182.9343     365.9779      2.196     6.61     1207.937     64.52238      134.563        12     2.057     0.597 -66.60   0
       406    662.7507    101.0982 307.6584255  +6.6399480     2748.094     6070.566     6457.994       91.758     183.0071      366.269      2.273     6.72      1180.92     64.52238     293.0624        34     1.963     1.244  86.64   3
       407    666.1499    100.6875 307.6570238  +6.6402307     2255.142     3517.812     4356.843       91.758     182.8615     366.1962      1.649     5.19     1180.911     64.52238     322.1227        14     1.753     0.594  84.88   3
       408    616.1356     97.9847 307.6779454  +6.6396844     4110.483     12359.33     14419.16     91.17541     182.9343     365.9051      2.637     7.24     1180.954     64.52238     436.1128        54     1.996     1.789  86.63   3
       409    619.6413     89.3315 307.6767793  +6.6433768     22986.88     69933.45     83812.81      91.6127     183.0071     366.1598      2.704     6.95     1180.595     64.52238     2360.313       102     2.200     1.968 -86.67   3
       410    586.7538    126.3658 307.6892178  +6.6269789     680.1271     1733.988     2713.374      91.3214     183.0071     365.9779      2.807     4.43     1181.713     64.52238     93.21106         5     0.967     0.576  49.96   0
       411    344.4576     94.0329 307.7912254  +6.6322674     1634.992     3621.773     4601.894      91.6127     183.1527     365.9779      2.420    10.24     1194.526     64.52238     201.3756        31     2.323     1.259 -42.20   2
       412    341.7702     91.8085 307.7924204  +6.6330969      1247.98     2128.686      2786.72      91.1754     182.8615     365.7958      1.900     5.42     1194.827     64.52238     155.7776        12     1.244     0.764 -74.07   3
       413    526.5163     93.0728 307.7154365  +6.6387316     742.8398     1816.673     1594.145     91.90307     183.4434     366.0871      2.256     6.02     1181.213     64.52238      106.958         9     1.477     0.689 -64.80   0
       414    297.2702     81.5258 307.8113034  +6.6358611     1040.001     2335.488     3423.541     91.90308     183.2254     366.0143      3.023     6.88     1201.304     64.52238     131.3883        12     1.518     0.874  74.82   3
       415    297.3251     85.6409 307.8111403  +6.6341625     1091.626     1981.009     2947.262      91.6127     183.0799     366.0871      2.051     4.86     1201.245     64.52238     148.9081         8     1.327     0.505  56.23   3
       416    300.5003     83.6701 307.8098851  +6.6350828     1456.482     2680.659     3965.713      91.6127     183.2254     366.0871      2.197     7.55     1200.708     64.52238     161.4808        21     1.860     0.901 -76.31   3
       417      2.3091     65.7961 307.9346786  +6.6325013     18915.12     37938.27     50273.91     90.44188     161.0115     293.2242      2.612     6.75     1213.341     64.52238     3767.469       128     3.228     1.897 -85.84  24
       418    684.1298     73.3032 307.6504652  +6.6521446     1414.411     4275.454     4374.657      91.6127     183.2981     366.0507      2.529     9.37      1179.46     64.52238     187.9016        33     1.730     1.670 -88.92   0
       419    427.8652     64.9533 307.7574788  +6.6470651     1581.236     3011.442     3890.559       91.758     183.0071     366.0507      2.287     9.94     1184.352     64.52238     236.7788        24     2.157     1.276  66.85   3
       420    424.0699     65.4130 307.7590438  +6.6467486     1415.495     2722.436     3134.132      91.1754     182.7886     365.9051      2.179     6.78     1184.539     64.52238     179.8898        17     1.442     0.972  75.92   3
       421    897.9412     59.5748 307.5618794  +6.6649171     2272.378     5173.084     5370.633      91.3214     183.0799     365.8687      2.326     5.97     1173.124     64.52238     221.6838        35     1.683     1.471  87.10   0
       422    880.2695     60.2256 307.5692176  +6.6640620     1209.146      2901.17     3547.587      91.3214     182.9343     365.9779      2.597     7.86     1173.345     64.52238     160.1493        23     1.731     1.314 -76.55   0
       423    590.9432     59.2251 307.6897544  +6.6548630      781.513     2044.655     2382.323      91.3214     183.0799     365.8322      2.459     8.34     1179.957     64.52238     100.5309        14     1.711     1.135 -46.33   0
       424    389.7310     56.3465 307.7736538  +6.6493503     911.1508     2283.662     2409.842      91.6127     183.0071     365.9415      2.683     6.94     1188.881     64.52238     105.5297        12     1.368     0.987  -4.29   2
       425    137.2608     53.5700 307.8788948  +6.6420681     1380.341     4001.851     4361.905     91.46717     183.0799     366.0143      2.590     9.52     1204.474     64.52238     147.7064        36     1.910     1.664 -64.78   0
       426     19.1620     51.2805 307.9281563  +6.6390635     5515.176     16633.68     20457.78      91.6127     183.1527     366.0143      2.756     6.76     1211.528     64.52238     679.3588        70     2.153     1.849 -76.38   0
       427    820.6396     45.4070 307.5945558  +6.6682069     3285.695     8325.451     9468.132     91.02917     182.7157      365.723      2.449     5.93     1173.534     64.52238     379.2568        48     1.843     1.654  84.89   0
       428    764.4429     46.7359 307.6179168  +6.6657918     1379.469     2433.123     3199.522       91.758     183.0071     366.0871      2.334     7.38     1176.101     64.52238     190.9542        15     1.563     0.975 -71.03   3
       429    767.3256     46.3649 307.6167287  +6.6660408      1210.51     1697.681     2079.906      91.6127     183.1527     366.0143      1.578     4.98     1175.881     64.52238     176.0316        12     1.302     0.669 -63.70   3
       430    764.3322     43.6346 307.6180681  +6.6670696     944.5053     1535.793     1744.823      91.6127     183.1527     366.1598      1.178     3.82     1175.903     64.52238     173.9357         5     1.085     0.385  29.15   3
       431     59.6743     43.2743 307.9115582  +6.6437276      1585.16     4234.231     4362.866     92.04792     183.3708     366.1598      2.419     8.27     1208.331     64.52238     171.2533        33     1.668     1.586  72.07   0
       432    583.7280     40.6890 307.6933894  +6.6622826     542.9009     1332.439     1671.173       91.758     183.3708     366.0871      2.736     5.47     1179.717     64.52238     104.3164         6     1.273     0.664 -33.48   0
       433      2.8486     38.3158 307.9353932  +6.6438746     1306.246     2800.241      3367.44       91.758     168.9255     302.8788      2.411     8.91     1212.179     64.52238     146.8485        26     1.832     1.210 -61.58  24
       434    758.8444     33.1967 307.6207079  +6.6712007     905.3671     2292.213     3336.184     91.02917     182.6428     365.6501      3.071     9.44     1175.477     64.52238      128.089        15     1.890     1.314  -4.02   2
       435    793.7128   1019.1536 307.5727737  +6.2649186     12537.26     20932.87     21472.15       91.758     182.9343     345.6088      1.787     3.72     1233.211     64.52238     1451.045        45     1.492     1.313 -74.15  16
       436    417.2202     27.3186 307.7631933  +6.6622619     1012.781     2084.613     2307.098     91.46717     182.7157     365.9779      2.166     7.29     1187.271     64.52238     121.5544        13     1.410     1.055 -42.38   3
       437    414.2265     25.9976 307.7644851  +6.6627080     775.2885     1443.151     2202.282     91.17541     182.7157     365.8322      2.050     5.22     1187.641     64.52238      139.157        10     2.022     0.380 -74.89   2
       438    577.2421   1010.0995 307.6631697  +6.2614691     120879.2       231343     252017.6       91.758     182.9343     366.3053      2.043     4.35     1236.212     64.52238     12367.32       101     1.785     1.566 -80.38   3
       439    578.9260   1002.9801 307.6627105  +6.2644671     55403.62     108520.2     116590.2      91.3214     183.0071     365.9779      2.047     4.56     1236.012     64.52238     5616.289        79     1.642     1.599  83.45   3
       440    211.3341   1013.3318 307.8153355  +6.2479432     2758.261     5281.458     5399.292       91.758     183.1527     366.0871      2.026     4.80     1237.125     64.52238     308.8573        30     1.568     1.257 -85.21   0
       441    394.3374   1013.1926 307.7391829  +6.2541030     662.8945     800.7966     1164.122     91.02917     182.8615     365.8322      1.513     4.61     1237.214     64.52238     120.0645         5     0.976     0.693   8.14   0
       442    246.9590     17.4324 307.8344415  +6.6606663     723.4972     1631.463      3051.62      91.3214     182.9343     365.9051      2.763     4.11     1203.261     64.52238     114.6224         5     0.960     0.563 -76.48   0
       443    788.0219   1006.9949 307.5755538  +6.2697543     5647.592     9997.254     10430.97      91.3214     182.7886     365.8322      1.858     3.96     1232.877     64.52238     681.3523        36     1.530     1.240 -64.06   0
       444    885.9955   1003.8590 307.5348851  +6.2742999     1394.451     2143.061     1968.786     91.02917     182.9343     365.7958      1.624     5.40     1233.292     64.52238     186.1785        14     1.264     0.969  53.90   0
       445    208.7993   1002.8358 307.8167478  +6.2521959     1467.514     3369.144     3662.794       90.736     182.8615     365.8322      2.301     7.32     1236.754     64.52238     179.9615        26     1.641     1.259  86.39   0
       446    973.8253   1002.1218 307.4983904  +6.2779284     539.6651     817.9882     665.7233     91.46716     183.0071     366.0143      1.557     4.34     1231.432     64.52238     108.5305         5     0.850     0.631 -58.61   0
       447    711.9413    999.4685 307.6074719  +6.2703388     5968.311     10851.75     11955.93     91.90307     183.0071     366.0507      1.987     4.24     1233.239     64.52238     629.1284        42     1.521     1.423 -70.30   0
       448    426.8971    999.7871 307.7260884  +6.2607271      2874.64     5992.232     6688.666      91.6127     182.7886     365.7594      2.189     5.06     1236.607     64.52238     314.6064        33     1.568     1.366 -82.87   0
       449    568.0516    998.5409 307.6673867  +6.2659399     2987.595     6044.685     7127.684       91.758     183.0799     366.0507      2.168     5.29     1235.873     64.52238     307.2422        32     1.577     1.314 -72.03   0
       450    744.0908   1000.4448 307.5940589  +6.2710028     667.3933     1302.239     1863.603       91.758     183.0071     366.1962      2.166     3.34     1232.569     64.52238     131.6096         5     0.858     0.525 -47.59   0
