#   1 NUMBER                 Running object number                                     
#   2 X_IMAGE                Object position along x                                    [pixel]
#   3 Y_IMAGE                Object position along y                                    [pixel]
#   4 ALPHA_J2000            Right ascension of barycenter (J2000)                      [deg]
#   5 DELTA_J2000            Declination of barycenter (J2000)                          [deg]
#   6 FLUX_APER              Flux vector within fixed circular aperture(s)              [count]
#   9 FLUXERR_APER           RMS error vector for aperture flux(es)                     [count]
#  12 FLUX_RADIUS            Fraction-of-light radii                                    [pixel]
#  13 FWHM_IMAGE             FWHM assuming a gaussian core                              [pixel]
#  14 BACKGROUND             Background at centroid position                            [count]
#  15 THRESHOLD              Detection threshold above background                       [count]
#  16 FLUX_MAX               Peak flux above background                                 [count]
#  17 ISOAREA_IMAGE          Isophotal area above Analysis threshold                    [pixel**2]
#  18 A_IMAGE                Profile RMS along major axis                               [pixel]
#  19 B_IMAGE                Profile RMS along minor axis                               [pixel]
#  20 THETA_IMAGE            Position angle (CCW/x)                                     [deg]
#  21 FLAGS                  Extraction flags                                          
         1      2.9166     86.2290 307.9356071  +6.6323984     705333.3      1280550      1350272     78.11015     144.2022     258.5398      1.942    10.50     837.5622     54.92549     62453.74       275     2.099     1.465 -69.58  28
         2    690.9440     20.3285 307.6519705  +6.6825598     1652.533     2638.984     2659.668     77.98647     155.7871     311.5742      1.694     4.89     819.6465     54.92549     267.0707        17     1.619     0.720 -45.45   0
         3    179.0077     13.5476 307.8648897  +6.6682935     10660.99     16427.65     17037.15     77.61421     155.6631     311.3263      1.622     4.34     830.1617     54.92549       1517.2        37     1.668     0.912 -39.94   0
         4    924.6282     11.0552 307.5551866  +6.6941477     3843.897     6104.241     6540.825     77.86257      155.911     311.4503      1.657     4.29     819.3503     54.92549     526.4468        27     1.641     0.882 -39.85   0
         5    523.3431     11.5272 307.7218984  +6.6806162     2849.047     4416.028      4122.31     78.11015     155.7871     311.5742      1.612     4.25     820.8427     54.92549     448.2676        21     1.511     0.809 -39.69   0
         6    725.2834      9.9023 307.6380505  +6.6880055     2093.203     3309.504     3737.436     78.11015     156.2203     311.6672      1.756     4.44     819.3901     54.92549      315.839        21     1.627     0.778 -39.20  16
         7    461.3540      9.9381 307.7477063  +6.6792071     1900.767     2897.459     3457.315     77.98647     155.7251     311.6362      1.606     4.87     823.5617     54.92549     257.3102        16     1.462     0.739 -39.11   0
         8    989.2852      7.4687 307.5284412  +6.6977720     1805.657     3030.578     4054.393     78.23365     156.0967     307.3944      1.948     4.03     815.0612     54.92549     258.8147        19     1.319     0.935 -30.71  16
         9    708.7487      3.8855 307.6451209  +6.6899399     7357.102     11462.08     12432.32     78.11015       152.91     271.9694      1.661     4.15     819.1107     54.92549     1042.111        38     1.695     0.997 -35.29  24
        10    629.0234      3.2282 307.6782674  +6.6875600     3671.897     5718.623     6252.092     77.61421     147.6423     262.9457      1.612     3.92     819.0164     54.92549     553.6452        26     1.546     0.875 -36.98  24
        11    330.9683      2.7522 307.8021177  +6.6778254      1074.93     1610.418     1884.976     77.86258     142.5187     256.2143      1.572     4.70     829.2642     54.92549      181.321        11     1.311     0.680 -47.69  24
        12    384.5803      1.7235 307.7798780  +6.6800387     707.0876     714.5699     814.3978     72.20144     129.2326     240.7115      1.348     4.64       827.81     54.92549     123.7004         8     1.168     0.523 -22.99  24
        13    428.1334      1.0954 307.7618040  +6.6817503     1526.325     1704.795     1820.296     64.87721     120.2555      230.551      1.007     2.91     826.1685     54.92549     513.0983         7     1.039     0.288  -3.21  24
        14     29.2195      1.1284 307.9275355  +6.6684099     1454.444     1900.246     1634.849     64.72824     120.4961     231.0529      1.009     2.61     829.3356     54.92549     501.3396         9     1.149     0.334  -1.17  24
        15    750.7549    994.8418 307.5946854  +6.2822253     6797.623     12168.21     13666.56     77.98647     155.8491     311.4503      1.957     4.33     851.4046     54.92549     812.3184        43     1.809     1.173 -45.24   0
        16    892.0078   1023.7690 307.5350823  +6.2749697     620.6358     957.8285     1111.615     66.34854     122.0879     232.5107      1.567     4.23     848.6002     54.92549     144.9372         7     1.298     0.392  -7.13  24
        17    585.1722   1022.9728 307.6624904  +6.2651089     52568.05     78435.96     82423.59     75.21384     133.7117     245.3983      1.581     5.08     854.5034     54.92549     7811.435        62     1.736     1.068 -18.42  24
        18    214.9455   1022.8509 307.8161867  +6.2528237     1745.489     2754.832     2504.224     76.36026     135.3621     247.2794      1.710     5.36     853.4706     54.92549     259.7299        20     1.565     0.897 -32.87  24
        19    516.3317    996.8843 307.6919384  +6.2735890     1075.491     1697.555     1663.593     78.35695     156.0967     311.6362      1.654     5.26      854.194     54.92549     158.4055        13     1.364     0.762 -37.24   0
        20    296.4461    994.3115 307.7833074  +6.2673251     14034.24     23345.66     25613.72     78.11015     155.7252     311.6672      1.851     4.38     852.7299     54.92549     1698.369        52     1.999     1.068 -37.01   0
        21    546.2035    995.5919 307.6795803  +6.2751166     3645.541     6480.576     7967.606     77.48973     155.5391     311.4813      1.954     4.37     854.0836     54.92549      478.707        32     1.677     1.067 -38.92   0
        22    420.7606    994.9382 307.7316790  +6.2712101     934.8276     1451.956     1671.157     78.11015     155.8491     311.6672      1.609     4.29     853.8577     54.92549     158.2442        12     1.328     0.727 -42.69   0
        23    811.6064    993.8748 307.5694546  +6.2846444     1010.116     1977.339      1926.19     77.73849     155.3528     311.4503      1.901     6.39     849.5755     54.92549     142.9927        18     1.674     0.799 -19.58   0
        24    267.5768    991.9200 307.7953719  +6.2673493     885.4429     1338.926     1467.155     77.73849     155.5391     311.5742      1.711     4.50     852.6587     54.92549     111.4861        10     1.138     0.663 -36.27   0
        25    912.0963    988.2419 307.5279221  +6.2903031     6907.342     13427.01     14654.92     78.11015     155.7871     311.7601      2.114     4.53       847.74     54.92549     801.2069        54     1.875     1.383 -38.15   0
        26    543.4379    987.7303 307.6809905  +6.2782702     7648.217     12673.86     13889.42     77.98647     155.8491     311.7291      1.785     4.17     854.0072     54.92549     914.1902        41     1.717     1.094 -40.14   0
        27    885.7179    984.5125 307.5389973  +6.2909681     10042.01     19204.78     21594.95     77.86258     156.0348     311.6672      2.077     4.63     848.6382     54.92549     1136.015        58     1.886     1.392 -35.93   0
        28   1007.3706    983.7665 307.4885159  +6.2953078     3527.958     7387.623     8053.206     77.61421     155.6011     311.3573      2.198     5.07     845.2201     54.92549     389.6457        43     1.877     1.386 -41.70   0
        29    598.3963    984.9983 307.6582654  +6.2812262     1158.473      1955.86     2214.366     77.48973     155.4149     311.3573      1.927     5.14     853.9197     54.92549     152.1609        16     1.541     0.732 -25.80   0
        30    529.9517    983.6558 307.6867250  +6.2795035     3737.872     6493.883     7612.518     78.11015     155.8491     311.6982      1.960     4.27     854.0023     54.92549     462.1289        35     1.702     1.193 -25.68   0
        31    639.2125    982.9089 307.6413900  +6.2834458     1210.196     1969.815     2034.913     77.86258     155.6011     311.4193      1.758     5.57     853.1905     54.92549     150.0663        14     1.395     0.704 -33.47   0
        32     64.9189    982.0254 307.8798318  +6.2646661     830.6376     1269.806     1241.129     77.86258     155.6631     311.5742      1.739     4.70     848.1796     54.92549     123.0865         9     1.238     0.507 -32.57   0
        33    483.1279    980.0076 307.7062855  +6.2794511     1977.181     3311.268     2942.543     77.61421     155.3528     311.5123      1.697     4.22     854.0804     54.92549     281.8745        22     1.391     1.029 -42.30   0
        34    917.4393    971.9686 307.5262442  +6.2971987     34465.64     65643.91     72308.16     77.73849     155.6631     311.4503      2.044     4.40     847.4961     54.92549     4129.861        83     1.962     1.411 -39.87   0
        35    224.6006    970.7493 307.8139205  +6.2746551     1584.367     2583.775     2506.245     77.36505      155.477     311.1712      1.712     4.07     851.6699     54.92549     260.6951        18     1.470     0.779 -30.13   0
        36    112.7057    969.7377 307.8604057  +6.2713359     594.8714     874.8268     912.1187     78.11015      155.911     311.6672      1.453     4.15     848.5394     54.92549     97.85382         6     0.981     0.501 -47.30   0
        37    763.5570    963.7975 307.5904028  +6.2954668     5706.714     10204.09     11812.14     77.48973     155.4149     311.2953      1.972     4.38     850.6671     54.92549     708.5739        44     1.979     1.180 -46.43   0
        38    623.3762    968.9334 307.6484299  +6.2886891     783.3889     1253.834     806.5425     77.73849     155.8491     311.5433      1.782     5.27     853.3167     54.92549     126.3176        11     1.301     0.604 -26.16   0
        39    815.2727    965.9689 307.5688599  +6.2962870     2110.631     3762.271     4109.851     77.98647     155.8491     311.6052      1.965     4.48     849.4857     54.92549       299.51        25     1.595     0.983 -32.47   0
        40    232.8785    963.2188 307.8107358  +6.2780402     1382.308     2209.796     2065.654     77.61421     155.5391     311.5742      1.753     4.43     851.3455     54.92549     197.4457        19     1.398     0.976 -38.42   0
        41    550.2189    963.0728 307.6789970  +6.2886754     824.5924     1341.382     1237.583     77.73849     155.7871     311.5433      1.523     5.35     853.7269     54.92549      114.538        10     1.367     0.591 -19.37   0
        42    198.0593    962.3962 307.8252181  +6.2772175     697.2999     1243.677     1041.913     77.48973     155.7251     311.3573      1.842     4.67     850.4344     54.92549     114.6168         7     1.292     0.478 -44.67   0
        43    951.7645    958.7817 307.5124310  +6.3037806      5493.08     10460.36     11326.97     77.61421     155.6631     311.3883      2.032     4.52     846.3657     54.92549     612.7743        43     1.731     1.284 -37.75   0
        44     57.8677    961.0998 307.8834597  +6.2730690     2472.275     4041.536     4552.067     78.11015     155.9729     311.5742      1.734     4.29     847.5794     54.92549     323.1504        24     1.560     1.035 -29.09   0
        45    207.9554    954.8237 307.8213631  +6.2806741     612.8692     1103.706     1274.606     77.61421     155.8491     311.4813      1.917     3.94      850.473     54.92549     90.17175         6     0.916     0.484 -35.95   0
        46    925.4927    950.4915 307.5236137  +6.3063324     1667.816     3138.408     3609.792     78.11015     156.3438     311.6053      2.055     4.99     847.1228     54.92549     183.3423        23     1.446     1.106 -33.82   0
        47    784.9957    947.1102 307.5820570  +6.3030679     1141.488      1800.01     1865.358     77.61421     155.5391     311.3263      1.611     5.21     849.9377     54.92549     170.2346        15     1.457     0.778 -42.51   0
        48    646.1205    946.4466 307.6397360  +6.2987287     4304.761     6990.276     7047.221     78.11015     155.8491     311.6053      1.771     4.25     852.4562     54.92549     569.0724        32     1.689     0.997 -31.80   0
        49    258.3465    946.8515 307.8007100  +6.2856471     4138.714     6684.551     7010.056     78.23365     155.7871     311.6362      1.709     4.32     850.8593     54.92549     534.2408        30     1.648     0.907 -34.17   0
        50    994.7204    945.9882 307.4950212  +6.3104856     588.7927     1057.912     1172.554     77.73849     155.5391     311.4503      1.896     4.33     844.9455     54.92549     95.73608         6     1.002     0.533  -0.26   0
        51    468.4919    945.0316 307.7135282  +6.2934033     970.7988     1572.915     1732.803     78.23365     155.6631     311.6362      1.798     5.99      853.442     54.92549     129.5804        14     1.452     0.876 -32.03   0
        52     27.1934    944.3088 307.8967560  +6.2789751     1920.276      3322.27     3202.828     77.73849     155.5391     311.3883      1.788     4.44      846.892     54.92549     256.5746        20     1.470     0.840 -32.96   0
        53    878.0101    943.0119 307.5435758  +6.3078460     713.9803     1189.676     870.6309     77.86258     155.6631     311.5742      1.725     5.52     848.7301     54.92549      110.565         8     1.087     0.790 -20.95   0
        54    949.7664    939.7493 307.5138923  +6.3115719     684.5616     1415.502     1383.816     77.98647      155.911     311.5123      2.245     5.42     846.2776     54.92549     120.4948         9     1.355     1.075 -13.56   0
        55    570.7358    939.1677 307.6712757  +6.2992270     1564.493     2476.636     2530.642     77.86258      155.911     311.5742      1.576     4.65     853.3311     54.92549     211.9354        18     1.419     0.851 -30.72   0
        56    294.4390    940.4083 307.7859416  +6.2895112      729.071     1191.514     1449.314     77.48973     155.6011     311.3263      1.441     4.17     850.9291     54.92549     120.0709         7     0.994     0.499 -30.34   0
        57   1002.4797    939.1266 307.4920273  +6.3135754     660.9329     1255.326     1861.448     78.35695     156.0967     311.6672      2.392     6.07     844.6186     54.92549     99.98767         7     1.217     0.912  75.81   2
        58     59.4154    936.0425 307.8836564  +6.2834650     811.8307      1501.87     1839.321     77.61421     155.6011     311.3883      2.071     5.86     846.9789     54.92549     157.1738        15     1.556     0.996  -4.11   0
        59    610.1312    935.4393 307.6550442  +6.3020765      1287.65     1935.115     1848.244     77.98647     155.8491     311.6982      1.702     5.91     852.9945     54.92549     163.5895        16     1.298     0.870 -21.87   0
        60    290.2806    933.0214 307.7879148  +6.2924220     1338.503     2398.642     3033.028     77.86257     155.5391     311.5742      2.046     6.86     850.6825     54.92549      174.534        17     1.788     0.738 -35.22   0
        61    756.8132    929.2446 307.5943518  +6.3095080     718.6464     1267.388     1541.083     77.48973     155.6631     311.3573      2.094     6.10      850.533     54.92549     103.1912        10     1.553     0.674 -10.39   0
        62    894.4471    925.5765 307.5373305  +6.3155893     5901.866     10614.18     11503.17     77.73849     155.8491     311.4813      1.939     4.27     848.0729     54.92549     653.9086        46     1.792     1.238 -41.87   0
        63    103.4196    925.2043 307.8657514  +6.2894102     500.8022      759.448     863.6803     77.73849      155.477     311.4193      1.852     3.38     847.1702     54.92549     81.84412         5     1.186     0.278 -35.03   0
        64    430.2828    922.9930 307.7301264  +6.3012290     1932.241     3220.378     3336.217     77.73849     155.5391     311.4813      1.768     5.21      852.392     54.92549      221.436        23     1.715     0.861 -35.89   0
        65    331.9698    921.4119 307.7709951  +6.2986052      8806.28     14508.84     15459.96     77.61421     155.6011     311.5123      1.765     4.18     850.5732     54.92549      1134.78        41     1.778     1.018 -37.50   0
        66    252.0182    920.2743 307.8042256  +6.2964079     6516.001     10914.25     11858.62     77.61421     155.6631     311.5123      1.774     4.18     850.0099     54.92549     862.8468        36     1.672     1.045 -36.52   0
        67    579.9473    915.0425 307.6682552  +6.3094933     1019.953     1435.308     1621.079     78.11015      155.911     311.6362      1.396     4.78     852.7324     54.92549     186.1797        11     1.263     0.649 -31.07   0
        68    764.3472    914.3670 307.5917186  +6.3159003     682.2374     1157.903     1421.288     77.98647     155.8491     311.5123      1.790     3.96     850.2369     54.92549     103.5236         6     1.062     0.423 -33.27   0
        69    910.4550    910.6725 307.5311793  +6.3222731     999.8942     1613.226     1875.313     77.98647     155.7252     311.5433      1.940     6.85     847.3777     54.92549     128.2802        14     1.513     0.870 -42.23   0
        70    865.9539    909.9918 307.5496783  +6.3210784     696.0363     925.9247     769.8953     77.61421     155.7251     311.2643      1.530     5.03      848.746     54.92549     88.25635         7     0.936     0.763  -5.95   0
        71    838.6370    904.5828 307.5611997  +6.3224054     454.0676     620.9611     356.5756     77.73849     155.7252     311.3573      1.517     4.26     848.9615     54.92549     68.08875         5     1.005     0.515 -42.97   0
        72    746.4592    903.8207 307.5994962  +6.3196603     1474.668     2498.074     2769.196     77.73849     155.7251     311.4503      1.821     6.15     850.5415     54.92549     216.5238        20     1.744     0.828 -38.70   0
        73    570.4503    904.2881 307.6725565  +6.3136173     698.6008     837.3076     918.4204     78.11015     155.6631     311.7291      1.640     3.67      852.507     54.92549     116.3905         6     1.036     0.446  -4.68   0
        74    978.1737    899.2786 307.5034411  +6.3292215     1155.835      1899.59     3149.457     77.98647     155.7871     311.5433      2.197     5.08     845.1566     54.92549      154.606        16     1.244     0.989 -28.90   0
        75    610.3564    900.6681 307.6561088  +6.3164391      693.465     1355.193     1224.697     78.11015     155.7871     311.6362      1.760     3.91     852.0724     54.92549     114.4146         6     1.289     0.339 -15.22   0
        76    531.6503    899.9466 307.6888101  +6.3141187     1197.822     1729.791     1973.005     78.23364     155.7871     311.6362      1.566     4.44      852.552     54.92549     182.4966        13     1.208     0.742 -10.44   0
        77    665.1596    897.1559 307.6334724  +6.3197109      2237.61     3491.213     4047.305     77.86258     155.8491     311.4813      1.731     4.98     851.4247     54.92549      278.802        22     1.580     0.913 -40.72   0
        78     61.6403    893.5923 307.8841545  +6.3010640     2591.509     4312.513     4413.263     77.48973     155.6011     311.2953      1.792     4.64     846.2543     54.92549     339.1465        27     1.646     0.977 -43.63   0
        79    825.5330    893.4512 307.5670103  +6.3265662     712.0638     1177.246     1442.862     77.98647     155.7252     311.6053      2.073     6.13     848.9868     54.92549     105.1247         9     1.305     0.809 -22.68   0
        80     79.2642    892.7398 307.8768664  +6.3020051     1870.092     2948.901     2612.601     78.11015     155.7871     311.6362      1.672     4.52     846.2921     54.92549     289.5001        19     1.492     0.852 -44.93   0
        81    205.1957    892.3857 307.8245968  +6.3063583      2154.65     3496.605     3659.103     77.73849     155.5391     311.4813      1.732     4.59     849.1154     54.92549     323.5312        20     1.502     0.848 -35.91   0
        82    943.2020    892.0056 307.5182027  +6.3310653     546.9243     1063.558     741.7638     77.48973     155.5391     311.4193      2.114     4.49     846.2217     54.92549     88.53644         6     1.251     0.457 -36.30   0
        83    344.0793    888.4886 307.7670672  +6.3126009     1015.924     1556.249     1896.477     77.86258     156.0967     311.7291      1.525     4.22     850.0807     54.92549     152.3571        10     1.226     0.567 -34.29   0
        84    239.0020    888.8237 307.8106808  +6.3089573     675.6837     1190.993      1222.56     77.73849     155.5391     311.4193      1.886     5.35     849.7624     54.92549     97.47137         7     1.131     0.715 -35.07   0
        85    659.7407    886.3176 307.6360831  +6.3240054      6380.32     10566.49      11224.5     78.23365      155.911     311.6362      1.776     4.31     851.3188     54.92549     827.9794        36     1.675     1.042 -35.19   0
        86    796.3126    886.9368 307.5793590  +6.3282859     617.2503     931.2379      941.953     78.11015     156.0348     311.6362      1.522     2.95     849.3918     54.92549     121.8086         5     0.796     0.474 -32.06   0
        87    897.2842    882.6147 307.5375795  +6.3334201     2496.442     4401.804     4829.154     77.73849     155.6011     311.5123      1.910     4.59     847.4456     54.92549     304.5007        29     1.645     1.065 -37.46   0
        88     19.8367    885.1168 307.9017932  +6.3031650     1154.265     1515.289     1357.814     78.11015     155.7871     311.5433      1.416     4.76     846.0106     54.92549     165.0168        12     1.143     0.708 -17.50   0
        89     32.1938    883.7790 307.8967080  +6.3041306     858.2283     1528.479       1667.6     77.73849     155.6631     311.4193      2.097     5.13      846.025     54.92549     117.5813        10     1.227     0.606 -18.98   0
        90    342.6484    879.6165 307.7679576  +6.3162160     15421.98     25052.57     26105.11     77.61421     155.8491     311.3573      1.759     4.32     849.9515     54.92549     2183.964        48     1.728     1.049 -37.07   0
        91     76.9727    880.9722 307.8782118  +6.3067865     1353.486     2230.458     2473.497     77.61421     155.6631     311.4503      1.905     4.96     846.0679     54.92549     189.1196        17     1.511     0.745 -29.10   0
        92    213.5628    879.2105 307.8215638  +6.3120768     1214.541      2005.34      2346.21     77.61421     155.6631     311.2953      1.904     4.77     849.3054     54.92549     173.0131        16     1.458     0.796 -38.59   0
        93    420.5529    870.4750 307.7359185  +6.3225864     934.9218     1438.368     1584.548     77.98647      155.911     311.6053      1.762     5.55      850.127     54.92549     146.5499        10     1.316     0.661 -31.46   0
        94    105.9252    870.4330 307.8665448  +6.3121051     1660.019     2526.212     2503.112     77.98647     155.8491     311.6053      1.614     4.16     846.0691     54.92549     235.1715        16     1.402     0.715 -36.39   0
        95    674.3417    866.3696 307.6306850  +6.3327260     738.6296     1263.732     1590.043     77.86258     155.8491     311.5433      2.049     4.80      851.023     54.92549     105.1636         8     0.961     0.679 -79.09   0
        96    501.2045    866.4426 307.7025678  +6.3269371     631.5815     973.3672     1291.825     77.48973     155.5391     311.3263      2.082     6.41     851.2396     54.92549      103.653        10     1.606     0.719 -39.91   0
        97    887.9225    864.2365 307.5420770  +6.3406971     1795.197     3235.085     2964.562     77.98647      155.911     311.6052      1.854     4.62     847.4265     54.92549      209.613        21     1.424     1.004 -36.26   0
        98    858.6951    863.8521 307.5542251  +6.3398864     1684.338     2901.623     2676.995     77.98647     155.7871      311.853      1.812     5.01     848.0762     54.92549      196.132        22     1.552     0.976 -42.83   0
        99    821.9763    863.1267 307.5694950  +6.3389676     2723.764     4752.338     5395.884     77.73849     155.6631     311.5433      1.856     4.68     848.7842     54.92549     339.3092        29     1.603     1.071 -41.54   0
       100     89.5131    863.9402 307.8735759  +6.3142370     2320.103     3601.778     4163.308     78.11015     155.9729     311.6982      1.774     4.49     845.7475     54.92549     339.3141        24     1.508     0.938 -37.45   0
       101    557.7485    854.7355 307.6794815  +6.3336521     320108.7     506855.1     537626.8     78.11015     155.7871     311.6053      1.715     4.04     851.0654     54.92549     43737.12       175     1.857     1.267 -38.84   0
       102    336.9408    862.0023 307.7709156  +6.3232974     568.0486     1101.277     1276.365     77.48973     155.5391     311.3263      2.313     3.48      849.645     54.92549     107.2058         5     0.954     0.392 -25.66   0
       103    452.4074    861.4308 307.7229949  +6.3273813     507.0387     1022.478     2319.031     77.61421     155.6631     311.3883      3.368     3.37      850.347     54.92549     88.77283         5     1.042     0.316 -22.58   0
       104    402.0071    857.3417 307.7440568  +6.3273904     7334.334     11798.66     12156.07     77.48973     155.7251     311.3263      1.677     4.16     849.6212     54.92549     1036.261        31     1.688     0.899 -39.68   0
       105    645.5898    857.9361 307.6429035  +6.3352521     1177.047     1838.644      1733.19     77.61421     155.6631     311.4503      1.612     4.17     850.7441     54.92549     149.8462        12     1.061     0.776  -9.35   0
       106    345.1503    855.7786 307.7677151  +6.3261405     11942.92      19139.2     20450.17     77.61421      155.911     311.4813      1.707     4.26     849.5067     54.92549     1645.965        43     1.730     1.013 -36.03   0
       107    896.0749    850.6585 307.5391431  +6.3465731     4574.318     8125.989     8840.123     78.23365     155.8491     311.5742      1.991     4.38      847.134     54.92549     535.3075        39     1.819     1.155 -36.13   0
       108    663.5344    852.0127 307.6356501  +6.3382941     3414.964     5461.624     6171.282     77.61421     155.6631     311.5123      1.775     4.47     850.5038     54.92549     442.6981        27     1.759     0.885 -30.60   0
       109    735.3949    848.3854 307.6059342  +6.3421791     874.2599     1295.067     1647.063     77.73849     155.5391     311.4503      1.689     6.63      849.986     54.92549     109.7755        14     1.438     0.935 -20.76   0
       110    638.5423    846.0122 307.6462267  +6.3399406     3079.455     5117.247     5668.655     77.48973     155.7871     311.3263      1.799     4.24     850.2635     54.92549     388.3905        29     1.593     1.057 -42.99   0
       111    826.7203    845.3209 307.5681171  +6.3464762     1423.479     2402.728     2507.782     78.35695     156.0967     311.7601      1.927     5.42     848.5124     54.92549     181.0942        17     1.531     0.765 -21.46   0
       112    631.3430    840.6586 307.6493942  +6.3419114     2148.189      3684.57      5424.76     78.23365     155.8491     311.6362      2.409     5.31     850.0632     54.92549     286.5416        25     1.758     0.887 -46.10   2
       113    915.0472    838.6317 307.5316650  +6.3521674     2768.959     4717.157     5263.978     77.86257     155.8491     311.5123      1.790     4.27     846.5949     54.92549      349.963        27     1.483     1.120 -34.74   0
       114    324.7661    839.9615 307.7767066  +6.3319907     968.7997     1270.551      1568.71     77.86258     155.6631     311.3883      1.551     4.83     849.1766     54.92549     187.7533         9     1.316     0.502 -28.82   0
       115    373.1120    834.7509 307.7568080  +6.3357537     2635.724       4033.9     4043.652     78.11015     155.7251     311.6982      1.617     3.98     849.0358     54.92549     366.8741        22     1.386     0.965 -30.27   0
       116    509.2623    824.4980 307.7006209  +6.3445218     3017.251     4705.152     4649.466     77.86258     155.9729     311.6672      1.654     4.37      849.515     54.92549     402.6506        24     1.502     0.894 -38.01   0
       117    853.6777    823.7324 307.5576416  +6.3562833     984.1251     1773.688     2369.703     78.23365      155.911     311.5742      1.981     5.45     847.8267     54.92549     118.8207        15     1.423     0.865 -28.31   0
       118    574.3740    821.8554 307.6736744  +6.3477795     717.5377     1329.176     1244.856     77.73849     155.8491     311.4503      1.643     3.56     849.4395     54.92549     134.9984         7     0.983     0.559 -15.00   0
       119    556.0930    820.5640 307.6813078  +6.3477045     5745.269     9034.228     10105.13     78.23364     155.7251     311.6982      1.721     4.30     849.4624     54.92549     811.4503        31     1.652     0.924 -37.97   0
       120    562.9623    819.9628 307.6784756  +6.3481813     1294.681     2302.252     3125.702     77.86258     155.7251     311.4813      2.147     5.38     849.3893     54.92549     157.1433        16     1.444     0.761 -30.47   1
       121    267.8883    820.8947 307.8009588  +6.3379648     603.7626     914.9933     273.5428     78.11015     156.2821     311.6672      1.464     4.58     848.7101     54.92549     111.1838         7     1.557     0.382 -34.95   0
       122    474.1990    819.4374 307.7153481  +6.3454436     1494.575     2616.353     2604.859     77.24017     155.6631     311.3883      1.715     4.85     849.1567     54.92549     212.4134        18     1.560     0.773 -39.63   0
       123    891.8900    818.4722 307.5419499  +6.3597224     1228.397     1899.459     2363.022     78.11015     156.0967     311.6053      1.729     5.40     846.9554     54.92549     156.3477        15     1.389     0.811 -34.51   0
       124    115.8569    818.5417 307.8641587  +6.3338593     1131.586     1919.027     1729.964     78.23365     155.8491     311.6362      1.766     6.33      844.793     54.92549      157.785        15     1.605     0.702 -31.50   0
       125    692.2609    817.3599 307.6248763  +6.3535550     704.5635     1174.585     1227.216     78.11015     155.8491     311.6672      1.778     4.30     849.1935     54.92549     130.4189         6     1.144     0.461 -58.63   0
       126    526.8078    814.4301 307.6936717  +6.3492623     18747.13      29669.2      31297.6     77.61421     155.6631     311.3883      1.701     4.15     849.1207     54.92549     2655.467        51     1.746     1.031 -35.77   0
       127    368.0383    816.1428 307.7595359  +6.3432667     675.2071     976.4729     972.8427     78.11015      155.911     311.6052      1.478     4.48     848.5768     54.92549     107.4751         8     1.321     0.431 -30.81   0
       128    940.4631    812.6786 307.5219736  +6.3637247     3392.726     5462.764     5955.883     78.35695      155.911     311.6052      1.764     4.26     845.6329     54.92549     406.9982        30     1.598     1.017 -40.61   0
       129    173.0561    814.7255 307.8405382  +6.3373457     635.3151      1054.37     905.5962     77.98647     155.7871     311.5433      1.380     4.39     846.1736     54.92549      88.1131         7     1.332     0.412 -26.71   0
       130    412.3392    809.9835 307.7413478  +6.3472860     597.8897     700.2086     468.6429     77.61421     155.7871     311.4193      1.310     4.42     848.4476     54.92549     97.39966         6     1.231     0.452 -82.86   0
       131     61.8264    810.4288 307.8868627  +6.3354024     541.1584     753.6393     756.0306     77.61421     155.6631     311.4813      1.549     3.41     844.3018     54.92549     77.78253         5     0.773     0.436 -21.55   0
       132     36.9879    805.4589 307.8973416  +6.3366235     1348.207     2292.685     2113.983     77.48973     155.7871     311.3263      1.840     5.10     844.3386     54.92549     186.0532        17     1.460     0.844 -42.48   0
       133    319.3761    803.3522 307.7801676  +6.3469246     3296.107     5021.284     4871.283     77.73849     155.8491     311.4813      1.658     4.12     848.4101     54.92549     453.2747        26     1.582     0.917 -33.40   0
       134     19.3591    801.5468 307.9047918  +6.3376489     1844.828     2915.495     2484.966     77.98647      155.911     311.6362      1.731     4.49     844.3959     54.92549     239.8861        19     1.521     0.806 -35.65   0
       135    785.0316    798.8719 307.5869713  +6.3642689     50466.66     82917.05     87973.06     77.98647     155.8491     311.6052      1.742     4.20     848.6111     54.92549     6680.003        74     1.783     1.160 -37.31   0
       136    723.4953    800.9838 307.6124522  +6.3613535     640.0753     1212.828     1874.911     77.86258     155.6631     311.4813      1.732     4.21     848.9752     54.92549     99.60138         6     1.028     0.492 -84.37   0
       137    428.3128    797.8254 307.7351213  +6.3528375     820.3692      1031.52     792.1698     78.23365     155.6631     311.4813      1.480     4.96     848.1518     54.92549      135.949         9     1.429     0.488 -45.61   0
       138    241.7794    775.4165 307.8133195  +6.3558684     743322.5      1734728      1953686     77.86258     155.6631     311.5123      2.386     7.82     846.2202     54.92549     64272.14       628     2.844     2.151 -66.86   4
       139    910.2250    794.0381 307.5351483  +6.3704180     7509.838     12727.33     13221.45     77.73849     155.6631     311.4193      1.818     4.24     846.1503     54.92549     904.7463        45     1.750     1.179 -40.12   0
       140    713.2653    793.5248 307.6169482  +6.3640931     20496.48     33061.32     35641.54     78.23365     155.8491     311.5742      1.770     4.26     848.6209     54.92549     2686.248        55     1.779     1.119 -37.19   3
       141    706.9455    789.9947 307.6196898  +6.3653405     82480.12     133036.3       141537     77.61421     155.6011     311.2953      1.694     4.16      848.425     54.92549     11038.75        85     1.797     1.135 -39.10   3
       142    530.0795    794.8226 307.6929670  +6.3574659      549.011     611.8873     592.1422     77.73849     155.5391     311.5742      1.447     3.96     848.2583     54.92549     81.42194         6     0.960     0.467 -35.66   0
       143    351.7799    791.0333 307.7671250  +6.3530908     19846.55     32005.72     33694.03     77.61421     155.6631     311.4193      1.701     4.12     847.6295     54.92549     2882.663        52     1.724     1.054 -36.42   0
       144    413.6757    788.8550 307.7414982  +6.3560531     21470.29     33603.93     35791.76     78.11015     155.8491     311.5433      1.664     4.06     847.7418     54.92549     2996.381        53     1.713     1.036 -37.67   0
       145    401.0674    791.0952 307.7466585  +6.3547082      1390.82     2159.473     2309.039     77.98647     155.9729     311.6052      1.644     4.66     847.7797     54.92549     188.5131        15     1.414     0.733 -35.59   0
       146    640.7232    790.5015 307.6471698  +6.3629304     869.1281      1366.89     1576.615     77.73849     156.0967     311.6053      1.865     5.14     848.1591     54.92549     130.7023         9     1.351     0.552 -30.73   0
       147    950.5630    787.8772 307.5186033  +6.3742987     1840.257     2953.657     3265.939     77.98647      155.911     311.6053      1.818     4.42     844.6779     54.92549      263.468        20     1.463     0.921 -38.21   0
       148    907.1924    785.5103 307.5366908  +6.3738382      5963.87     10093.53     10764.21     77.61421     155.5391     311.3573      1.847     4.25     845.9485     54.92549     732.2787        36     1.681     1.072 -39.17   0
       149    879.9614    786.2548 307.5479732  +6.3726278     693.1074     855.0787     398.7298     78.11015      155.911     311.6052      1.474     4.45     846.6847     54.92549     112.3939         6     0.838     0.672 -16.63   0
       150    647.7419    784.6010 307.6444520  +6.3655997     6141.445     9613.643     10456.09     77.48973      155.477     311.2953      1.733     4.23     847.9778     54.92549     859.8391        31     1.677     0.969 -42.90   0
       151    137.8610    784.7308 307.8561547  +6.3485527     526.5247     687.6799      600.621     78.23365     155.8491     311.6362      1.666     4.70     844.2797     54.92549     72.36975         7     1.370     0.457 -24.49   0
       152    605.3430    783.6447 307.6620888  +6.3645847     371.3101     511.6472     280.8306     78.11015     155.8491     311.6362      1.608     5.24     847.9371     54.92549     67.08783         5     1.054     0.735 -62.50   0
       153    436.1513    782.7449 307.7323700  +6.3593245     1649.911      2542.37     2431.743     78.11015     155.8491     311.6672      1.642     5.23     847.5845     54.92549       264.97        18     1.565     0.884 -21.87   0
       154    161.1539    782.7633 307.8465494  +6.3501431     880.5079     1392.449     1111.943     77.86258     155.8491     311.5123      1.561     5.16     844.6742     54.92549     115.4658        10     1.312     0.573 -32.60   0
       155    875.4207    777.1199 307.5501622  +6.3762485      643.039     1170.598     944.7272     77.86258     155.5391     311.6053      2.007     4.23     846.5879     54.92549     84.65723         6     0.773     0.659 -40.68   0
       156    601.1261    776.3237 307.6640837  +6.3674669     835.0358     1575.807     1435.938     78.35695     156.0967     311.6362      2.037     4.48     847.6718     54.92549     155.3915        12     1.406     0.724 -35.68   0
       157    682.8548    774.7081 307.6302017  +6.3708510     2305.655     3586.285     4169.766     77.98647     155.7251     311.7291      1.719     4.41     847.7415     54.92549     316.9252        22     1.559     0.885 -35.07   0
       158    151.7435    776.0333 307.8506818  +6.3526071     971.8419     1345.303     1241.421     77.98647     155.8491     311.6052      1.449     4.69     844.2564     54.92549     131.4958         8     1.021     0.612 -21.48   0
       159    127.0108    775.5111 307.8609682  +6.3519963     977.6447       1500.9     1499.728     77.86258     155.6011     311.4193      1.560     5.40     843.7975     54.92549      149.274        12     1.455     0.567 -31.27   0
       160    416.6045    771.4913 307.7408617  +6.3633192     52207.63     81400.77     85843.86     77.73849     155.5391     311.3883      1.697     4.06     847.0547     54.92549     7668.484        72     1.755     1.086 -36.57   0
       161    534.3423    770.4694 307.6920089  +6.3676619     6930.429     10660.74     11044.75     78.23365     155.7871     311.5742      1.678     4.15     847.1708     54.92549     958.3022        34     1.674     0.912 -36.69   0
       162    451.0774    769.1255 307.7266270  +6.3654443     4297.594     6679.624     7402.092     78.35695     156.0967     311.6672      1.647     3.97     847.0569     54.92549     574.2388        29     1.652     0.911 -35.83   0
       163    779.5740    767.0699 307.5902951  +6.3772170     10847.29     17317.15     18511.49     77.73849     155.7251     311.5433      1.728     3.92     847.6344     54.92549     1379.527        42     1.682     1.083 -39.87   0
       164      8.9728    763.6002 307.9103758  +6.3529668     1137.875     1835.067      1669.17     77.73849     155.5391     311.4193      1.572     5.42     842.7861     54.92549     180.2048        13     1.427     0.621 -37.76  16
       165    447.6055    762.4945 307.7282899  +6.3680662     2131.929     3182.224     3063.068     77.86258     155.5391     311.3883      1.636     4.53     846.7623     54.92549      349.174        19     1.552     0.771 -31.40   0
       166    801.1737    761.3057 307.5815178  +6.3803138     1271.377     2104.362     2423.535     78.23365     155.6011     311.4503      1.896     4.56      847.393     54.92549     176.7252        16     1.486     0.769 -31.12   0
       167    145.4321    759.5227 307.8538549  +6.3592123      2984.16     4586.082     5173.769     77.98647     155.8491     311.5433      1.735     4.18     843.6055     54.92549     415.4812        26     1.520     0.916 -36.03   0
       168    137.2834    759.2390 307.8572478  +6.3590572     11018.96     17607.89     19382.78     78.11015     155.7871     311.5433      1.716     4.09     843.4553     54.92549     1468.927        40     1.684     1.000 -33.82   0
       169    129.3775    756.7411 307.8606140  +6.3598242      2780.75     4597.037     5891.603     77.73849     155.7871     311.4813      1.909     4.56     843.2793     54.92549     408.7573        26     1.658     0.941 -39.06   0
       170    925.1373    755.5650 307.5302340  +6.3867960     5598.827     9319.514     10119.51     77.98647     155.8491     311.5742      1.787     4.23     844.2719     54.92549     723.3378        33     1.664     1.061 -38.48   0
       171    974.4283    755.4448 307.5097701  +6.3884794     1402.792     2327.062     3164.683     77.73849      155.911     311.5123      1.945     5.97     843.2864     54.92549     155.4842        18     1.499     0.862 -19.29   0
       172    680.7307    753.0020 307.6318063  +6.3797417     1544.304     2663.002     3042.736     77.61421     155.4149     311.4193      1.872     5.28     847.0387     54.92549     201.9924        20     1.567     0.903 -38.71   0
       173    567.4363    752.5811 307.6788638  +6.3761482     2151.464     3203.619     3059.574     77.61421     155.6631     311.3883      1.679     4.32     846.6307     54.92549     344.8636        21     1.546     0.784 -39.97   0
       174    415.2812    752.2662 307.7420530  +6.3712119     1253.418     1986.372     2266.427     78.35695     156.0967     311.6362      1.746     4.65     846.2859     54.92549     202.4289        12     1.257     0.742 -40.94   0
       175    698.8256    750.9584 307.6243608  +6.3811867     530.9456     576.3085     196.3614     77.73849     155.7871     311.3883      1.248     3.88     847.0323     54.92549     96.82538         5     0.828     0.521 -25.85   0
       176    129.6380    750.0146 307.8607309  +6.3626098      1743.26     2991.072     3853.185     77.86257     155.6631     311.3263      1.839     5.17     843.0876     54.92549      260.704        19     1.649     0.795 -37.00   0
       177    919.2391    747.6960 307.5329445  +6.3898492     2697.478     4630.771     5358.496     78.11015     155.7251     311.7291      1.867     4.62     844.1814     54.92549     391.5546        26     1.606     0.962 -36.11   0
       178    979.4312    747.0666 307.5079709  +6.3921041     1696.443      2884.17     3421.903     77.86257     155.8491     311.5433      1.869     5.06     843.0702     54.92549     187.7748        23     1.545     1.012 -38.51   0
       179    948.7203    746.8483 307.5207307  +6.3911765     2658.807      4705.34     4937.405     78.11015      155.911     311.5742      1.850     4.76     843.4868     54.92549     335.1317        30     1.699     1.064 -33.89   0
       180    671.4058    747.0291 307.6358772  +6.3818977     1468.658     2278.993     2470.873     77.61421     155.6631     311.4193      1.600     5.76     846.8301     54.92549     215.2682        14     1.584     0.660 -28.90   0
       181    818.8354    744.9154 307.5747290  +6.3876668     854.8378     1345.818     1478.978     78.11015     155.7871     311.5742      1.665     5.71     846.7162     54.92549     125.8625        10     1.461     0.628 -32.14   0
       182    894.2585    742.7754 307.5434810  +6.3910524     671.7128     1014.405     1441.924     77.73849     155.8491     311.4503      1.310     4.12     844.9666     54.92549     125.9113         7     1.085     0.448 -31.51   0
       183    244.1676    742.0233 307.8134446  +6.3697339     1764.086     2912.133     3902.051     77.61421     155.6631     311.4193      1.896     5.17     844.0386     54.92549     242.6528        18     1.481     0.770 -34.73   0
       184    936.8082    737.4432 307.5259895  +6.3946646     1044.013     1723.643     1821.276     77.61421     155.6631     311.3573      1.658     4.56     843.2869     54.92549     144.0162        13     1.296     0.731 -24.41   0
       185    263.9076    737.6616 307.8053940  +6.3721934      647.986     838.7593     1145.932     78.11015     155.8491     311.6672      1.539     3.47     844.0889     54.92549     125.2045         5     1.027     0.339 -39.70   0
       186    911.0140    735.6387 307.5367605  +6.3945544     1075.765     1832.773     1782.388     77.73849     155.6631     311.3263      1.788     5.64     844.0702     54.92549     141.6272        14     1.314     0.835 -53.47   0
       187    159.8403    737.4288 307.8486120  +6.3688148     710.2323     1062.268     1519.071     77.73849     155.6011     311.4813      1.423     3.99     843.0042     54.92549     124.0189         7     1.209     0.377 -16.22   0
       188    963.6277    734.8249 307.5149396  +6.3966344     2246.937     3698.889     4070.198     77.61421     155.6631     311.4813      1.794     4.34     843.0321     54.92549     264.5778        25     1.492     1.004 -32.16   0
       189    683.3798    733.8027 307.6313455  +6.3877561     1040.547      1542.57     2246.578     77.73849      155.477     311.3573      1.784     5.36     846.4857     54.92549     136.6622        11     1.353     0.599 -48.52   0
       190    474.0081    730.2867 307.7184015  +6.3822423     485.3243     719.2491       603.34     77.73849     155.5391     311.3883      1.521     4.66     845.5173     54.92549     102.0709         6     1.302     0.473 -36.66   0
       191   1005.4337    728.1492 307.4978012  +6.4007756     1417.262     2520.163     2897.069     77.98647      155.911     311.5123      1.995     5.36     842.6547     54.92549     181.5454        17     1.443     0.878 -45.12   0
       192    403.5265    730.0894 307.7476741  +6.3799757     549.9598     866.6945     788.3431     78.11015     156.0967     311.6362      1.766     3.43     845.2139     54.92549     86.00433         5     1.253     0.272 -35.07   0
       193    631.5888    727.8543 307.6530494  +6.3884902     572.8318     1018.053     1740.139     77.48973     155.7871     311.2953      1.957     4.88     846.3638     54.92549     97.24799         7     1.149     0.586 -50.32   0
       194    806.6006    726.7910 307.5804121  +6.3947433     1088.688     1848.633     2310.434     77.48973     155.5391     311.3883      1.871     6.47     846.4128     54.92549     151.3157        15     1.641     0.737 -30.09   0
       195    893.0196    724.1980 307.5446127  +6.3986810     1362.885     2233.046     2705.626     77.73849     155.4149     311.3263      1.735     4.25       844.45     54.92549       171.61        16     1.274     0.831 -33.84   0
       196    867.5594    719.1216 307.5553538  +6.3999323     965.5437     1538.694     1306.446     77.98647     155.8491     311.6362      1.711     4.51     845.0935     54.92549     133.4389        11     1.115     0.808 -46.49   0
       197    849.6751    715.5636 307.5628986  +6.4008079     1543.437     2257.301      2855.36     77.98647      155.911     311.6362      1.684     4.72      845.344     54.92549     191.4789        17     1.436     0.783 -25.86   0
       198     49.1485    714.4233 307.8953428  +6.3746122     2228.154     3710.129     3973.395     77.61421     155.8491     311.5123      1.773     4.80     841.4529     54.92549     343.0276        25     1.794     0.877 -41.40   0
       199    461.5800    713.8658 307.7241100  +6.3886076     604.8118     820.4224     570.7776     77.73849     155.8491     311.4813      1.554     5.11     844.9757     54.92549     89.34729         5     1.029     0.718  -8.36   0
       200    112.8401    714.8213 307.8688839  +6.3765773     760.9232     1199.568     1829.812     77.73849     155.6631     311.4193      1.667     3.62     841.8645     54.92549     115.9744         5     1.140     0.331 -10.19   2
       201    112.0737    711.9579 307.8692980  +6.3777338     775.3913     1278.921     1634.961     77.98647      155.911     311.6362      1.863     5.01      841.767     54.92549      106.474         8     1.039     0.685 -18.52   2
       202    661.7111    702.8971 307.6413725  +6.3997951     6122.221     9385.274     9820.882     78.11015     156.2821     311.6362      1.639     4.20     845.9116     54.92549     923.8533        29     1.638     0.890 -39.25   0
       203    608.2803    702.2821 307.6635800  +6.3982724     1518.746     2376.296     3017.132     78.11015     156.0967     311.6982      1.610     4.56     845.8649     54.92549     209.9215        15     1.410     0.691 -37.37   0
       204    530.4745    703.1154 307.6958608  +6.3953397     753.2383     1259.597      1418.67     78.23364     156.1585     311.6672      1.637     4.64     844.5981     54.92549     103.1102         7     1.050     0.582 -13.97   0
       205    519.3032    702.5580 307.7005182  +6.3951979     814.9498     1401.357     1192.152     78.11015     155.7871     311.7911      1.944     5.56     844.6242     54.92549     149.3085        11     1.489     0.586 -40.44   0
       206    635.2978    698.6619 307.6524817  +6.4006655     2205.579      3410.33     3722.559     77.86258      155.911     311.6672      1.744     4.36      845.835     54.92549      323.306        20     1.409     0.897 -35.14   0
       207    246.8340    698.8033 307.8137827  +6.3876656     666.6927     956.3514     1301.175     77.36504     155.6631     311.3573      1.836     5.84     841.7946     54.92549     103.7517        11     1.612     0.595 -39.12   0
       208    124.6540    698.9008 307.8645116  +6.3835446     3619.528     5920.409     6527.181     77.98647     155.8491      311.853      1.747     4.38     841.4231     54.92549     506.6019        25     1.582     0.856 -40.89   0
       209    998.6017    698.0118 307.5016384  +6.4129916     2199.949     3797.919     3968.446     77.73849     155.5391     311.3883      1.861     4.62     842.6038     54.92549     274.4579        24     1.575     0.958 -33.14   0
       210    311.1045    698.9809 307.7870897  +6.3897369      767.814     1165.901     879.3292     77.98647     155.6631     311.4193      1.514     4.77     842.5922     54.92549     112.2238         8     1.087     0.605 -30.30   0
       211    778.5610    694.9998 307.5931129  +6.4069374     19023.82     30156.03     31846.77     77.11507     155.6011     311.3573      1.683     4.06     845.8538     54.92549     2494.747        48     1.707     1.047 -38.49   0
       212    460.9896    696.6655 307.7249291  +6.3956889     507.3125     801.9246     355.5668     77.61421     155.6631     311.4813      1.779     4.66     844.4081     54.92549     102.4944         6     1.524     0.405 -56.10   0
       213    908.5842    694.6053 307.5391325  +6.4114144     3406.499     5606.967     5940.154     77.73849     155.5391     311.4503      1.801     4.06     843.3155     54.92549     470.4282        29     1.564     0.983 -41.24   0
       214    477.5869    695.5623 307.7180740  +6.3966971      1320.16     1885.717     1790.165     77.61421     155.6631     311.3263      1.580     5.04     844.4847     54.92549     192.8559        11     1.257     0.571 -37.54   0
       215    505.7179    695.1326 307.7064071  +6.3978112     969.2537     1414.235     1558.516     78.23365     156.0967     311.6672      1.555     4.69     844.4008     54.92549      133.855         9     1.091     0.571 -31.03   0
       216    323.6798    694.7975 307.7820078  +6.3918834     690.8209     1273.038     1149.663     77.48973     155.3528     311.3573      1.776     5.12     842.7425     54.92549      100.327        10     1.901     0.389 -27.36   0
       217    279.5203    695.1239 307.8003334  +6.3902755     499.4561     944.3865     697.4181     78.35695     156.0967     311.7291      1.617     4.89     841.7697     54.92549     101.7751         6     1.572     0.430 -27.53   0
       218    659.0303    687.8371 307.6429872  +6.4059235     6681.169     10672.15     11353.08     77.73849     155.6011     311.4503      1.693     4.36      845.639     54.92549     952.6586        36     1.704     0.967 -38.43   0
       219    252.0562    688.7532 307.8119504  +6.3919889     6175.444     9911.588     10965.56     78.11015     155.8491     311.6982      1.711     4.19     841.2994     54.92549     946.8271        35     1.599     1.016 -37.59   0
       220    641.5911    688.6293 307.6502025  +6.4050166     888.4865     1627.702     1976.246     77.61421     155.6631     311.4193      1.882     6.34      845.654     54.92549     142.3772        12     1.692     0.667 -39.04   0
       221    353.9324    687.6695 307.7696839  +6.3958350     664.9628      1275.04     1768.726     78.11015     155.9729     311.6053      2.368     4.98     843.3616     54.92549     115.8721         6     1.181     0.613 -37.02   0
       222    918.7914    680.5865 307.5353595  +6.4175406     1145.023     1736.557     1916.466     77.73849     155.6011     311.5123      1.615     4.48     842.9096     54.92549     173.9837        14     1.287     0.864 -37.93   0
       223    730.7621    676.3475 307.6135825  +6.4130505     3528.878     5580.375      6329.18     77.98647      155.911     311.6052      1.759     4.40     845.5613     54.92549      467.986        27     1.527     0.971 -40.55   0
       224    686.1793    676.7967 307.6320810  +6.4113838     1119.163     1779.547     1805.275     77.73849     155.5391     311.3883      1.806     4.71     845.4731     54.92549     167.6966        17     1.478     0.865 -43.32   0
       225    997.1519    672.7300 307.5030796  +6.4233812     8005.259     13328.27     14140.35     78.11015     155.7871     311.6362      1.768     4.22     842.5265     54.92549     1015.391        41     1.713     1.127 -43.41   0
       226    935.5185    673.2691 307.5286563  +6.4211161     2351.284     3716.952     3739.743     78.35695     156.0967     311.6362      1.724     3.99     842.6888     54.92549     311.7814        20     1.449     0.821 -33.02   0
       227     15.8206    672.8657 307.9105737  +6.3906535     1738.365     3183.018     3922.498     77.73849     155.8491     311.5123      2.135     5.21     840.5871     54.92549     255.7313        25     1.659     1.140  -3.14   0
       228    549.8209    670.8160 307.6889042  +6.4093181     530.2324     818.7677     704.0782     77.86258     155.6011     311.5123      1.472     4.66     843.6212     54.92549     91.16791         8     1.311     0.470 -42.68   0
       229     74.3839    667.8474 307.8864250  +6.3946839     24603.03     39052.96     41373.12     77.61421     155.7871     311.3573      1.699     4.03     840.5862     54.92549     3500.452        60     1.752     1.112 -38.01   0
       230    535.6910    668.6594 307.6948436  +6.4097382     2040.163     3213.151     3389.821     77.98647     155.8491     311.7291      1.644     4.80     843.4742     54.92549     311.4324        19     1.465     0.813 -37.98   0
       231    504.4909    665.9979 307.7078884  +6.4097984      1262.29     2022.478     2064.124     77.48973     155.5391     311.4193      1.665     4.88     843.5139     54.92549     201.4957        15     1.483     0.678 -43.85   0
       232    925.3168    664.9309 307.5331697  +6.4242203     1021.352     1594.104      1607.95     78.35695     156.0967     311.6362      1.681     4.38     842.6238     54.92549     146.7307        11     1.135     0.706 -12.53   0
       233    544.5454    662.7470 307.6913639  +6.4124738     1063.803     1297.736     1588.656     78.35695     155.7871     311.5742      1.485     4.01     843.3064     54.92549     139.1401        11     1.037     0.767 -35.48   0
       234    720.4429    659.8947 307.6184153  +6.4195002     3441.921     5269.765      5551.52     78.11015     155.7871     311.7291      1.627     4.13     844.7702     54.92549     532.1074        25     1.550     0.880 -33.63   0
       235    742.5253    658.0123 307.6093078  +6.4210109     3980.016      6120.86     5862.658     77.61421     155.5391     311.3883      1.630     4.71     844.6982     54.92549     504.1904        27     1.585     0.899 -36.47   0
       236    573.9451    656.1962 307.6793738  +6.4161566      3198.32     5007.838     4894.394     77.48973     155.6631     311.2643      1.591     4.15     843.7278     54.92549      474.424        22     1.458     0.868 -37.18   0
       237    234.2929    656.1486 307.8204168  +6.4048562     1685.083     2669.076      2966.44     77.98647     155.7251     311.7911      1.756     5.33     840.2278     54.92549     271.4766        17     1.715     0.727 -43.05   0
       238    410.1307    656.6681 307.7473832  +6.4105069     1254.514     1839.366     1758.923     78.11015     155.9729     311.5742      1.598     4.90     842.4545     54.92549     217.4034        14     1.468     0.694 -36.21   0
       239   1015.3500    654.1426 307.4961392  +6.4316578     4259.244     7154.541     7886.842     78.11015     155.8491     311.6052      1.813     4.53     841.2195     54.92549      485.696        31     1.619     1.064 -38.44  16
       240    980.8287    653.0454 307.5105116  +6.4309672     7215.576     12040.84     12169.16     77.61421      155.911     311.5123      1.757     4.15     841.6531     54.92549     851.9495        38     1.718     1.073 -40.12   0
       241    318.2145    655.0430 307.7856057  +6.4081132     1387.637     2195.295     2335.469     77.36504     155.6011     311.3573      1.521     4.55     841.0938     54.92549     231.5807        12     1.323     0.627 -33.01   0
       242    533.7623    654.4090 307.6961197  +6.4155572     517.4215     689.5478     1175.811     77.36505     155.6011     311.3573      1.355     3.44     843.1257     54.92549     86.03076         5     0.771     0.443 -19.69   0
       243    700.8491    651.6597 307.6268261  +6.4222490     919.6723     1526.867     1523.992     78.11015     155.8491     311.6672      1.714     4.02     844.2842     54.92549     136.0642        10     1.123     0.638 -48.54   0
       244    139.1405    646.7635 307.8602420  +6.4055526     23108.59     36314.84     37913.14     78.11015     155.8491     311.5742      1.656     4.31     840.3618     54.92549     3498.561        50     1.706     1.018 -38.76   0
       245     91.9396    650.1974 307.8797266  +6.4025573     828.7311     1264.565     1477.642     77.48973     155.6011     311.3263      1.743     4.13      840.581     54.92549     124.2545         7     1.099     0.444 -31.86   0
       246    426.0128    647.3782 307.7410982  +6.4148714     2696.827     4644.369     4999.624     77.86257     155.6631     311.5123      1.937     5.17     842.1895     54.92549     416.3486        27     1.871     0.989 -48.31   0
       247    643.6828    647.5557 307.6507021  +6.4220432      530.861     759.9366     408.6688     78.11015     155.8491     311.5742      1.658     4.65      843.991     54.92549      98.4903         6     1.461     0.420 -53.44   0
       248    807.5864    647.0297 307.5826551  +6.4277053     1125.762     1698.397     1850.079     77.73849     155.6631     311.5433      1.724     5.14     844.0027     54.92549     182.5485        10     1.270     0.589 -37.54   0
       249    359.2780    641.4987 307.7690066  +6.4150743     639.9663     978.2539     1066.052     77.73849     156.0967     311.6362      1.631     5.35      841.426     54.92549     90.74872         9     1.635     0.494 -23.86   0
       250    975.5765    636.1010 307.5132553  +6.4377887     6341.237     11344.71     12260.12     78.23364     155.6011     311.4193      1.940     4.07     840.9991     54.92549     761.8644        48     1.702     1.389 -32.73   0
       251     20.2152    635.8265 307.9099905  +6.4060912     1142.415     1839.452     2176.863     77.73849     155.7251     311.5433      1.860     5.13     840.5893     54.92549     171.1726        13     1.398     0.656 -34.28   0
       252    569.1471    631.4414 307.6821915  +6.4262167     47427.26     72770.45     76321.71     78.11015      155.911     311.6053      1.637     4.19     842.7692     54.92549     6841.113        68     1.716     1.053 -37.95   0
       253    933.1097    633.1913 307.5309878  +6.4375824     583.1857     825.1608     516.1776     77.73849     155.5391     311.3883      1.446     4.43     842.0204     54.92549     83.23663         6     0.938     0.594 -19.99   0
       254    528.5723    632.0293 307.6990213  +6.4246237     780.0815      922.083     1013.005     77.61421     155.6011     311.4193      1.548     4.96     842.5956     54.92549     119.3385         9     1.295     0.705 -31.63   0
       255    211.9674    633.3858 307.8304488  +6.4135081     638.7567     771.2755     1279.881     77.73849     155.6011     311.5123      1.244     3.09     839.9391     54.92549     124.6556         7     0.762     0.652 -27.03   0
       256    794.8918    630.7278 307.5884691  +6.4340142      642.678     1048.368     1040.402     77.98647     156.0348     311.6052      1.671     4.41      843.371     54.92549     79.61774         7     0.905     0.610 -29.81   0
       257    499.0878    628.8624 307.7113709  +6.4249495     656.1195     880.6219       661.93     77.98647     156.0348     311.6362      1.524     3.97     842.4635     54.92549     122.3661         6     0.908     0.496 -30.57   0
       258    176.6470    628.3057 307.8452855  +6.4144257     2649.875     4000.686     4270.814     77.98647     155.7871     311.7291      1.665     4.12     839.9676     54.92549     397.5249        20     1.522     0.747 -37.38   0
       259     69.4137    622.5122 307.8900076  +6.4132333     1378.803     1896.201     1996.586     77.73849     155.6631     311.4813      1.632     5.16      840.579     54.92549     226.2115        17     1.680     0.685 -37.68   0
       260      9.7018    617.2961 307.9149772  +6.4133893     1619.201     2859.373     3645.217     78.11015     156.4056     311.4503      2.057     6.01     840.5929     54.92549       240.36        20     1.908     0.728 -27.83  18
       261    466.4187    615.2790 307.7253905  +6.4294693     62522.28     95246.39     100347.1     77.73849     155.5391     311.5433      1.645     4.15     841.6837     54.92549     9067.812        72     1.732     1.033 -37.25   0
       262    652.7515    612.1371 307.6481160  +6.4369671     862.5383     1334.026         1262     77.98647     155.7871     311.6672      1.632     5.16     842.0153     54.92549     134.7507         9     1.258     0.599 -29.37   0
       263    140.9434    610.4151 307.8607103  +6.4206185     1563.393     2398.473     1988.682     77.48973     155.7871     311.3263      1.602     4.15     840.0318     54.92549     248.8486        14     1.406     0.631 -37.37   0
       264    935.8330    607.8616 307.5306981  +6.4481301     620.5965     924.7489      1040.74     77.86257      155.911     311.5433      1.736     4.94     841.4517     54.92549     88.12354         7     1.375     0.501 -19.05   0
       265    420.2118    607.9663 307.7448230  +6.4309489     844.5971     1212.389     1053.217     77.61421     155.6011     311.4503      1.704     4.91      840.452     54.92549      173.616        10     1.639     0.416 -35.59   0
       266    612.2580    606.8936 307.6651068  +6.4377853     922.2391     1312.893     1436.914     77.98647     155.8491     311.7911      1.488     4.75     841.7985     54.92549     180.5016        11     1.381     0.540 -31.61   0
       267     13.6256    605.7553 307.9137348  +6.4182849     550.8487      1047.41     1165.692     77.61421      155.911     311.4813      1.838     6.46     840.6078     54.92549     85.72174         8     1.270     0.923 -60.81   0
       268    311.9154    604.6016 307.7899073  +6.4287271     2009.346     3242.066     3341.707     77.36504     155.4149     311.2953      1.594     4.17     839.5994     54.92549     334.6733        16     1.317     0.784 -37.09   0
       269    463.7572    603.3086 307.7268953  +6.4343225     868.4957     1174.712     1731.533     78.11015     155.8491     311.6982      1.351     4.03     841.1802     54.92549     162.6895         7     1.122     0.415 -31.83   0
       270    738.3859    598.6870 307.6130012  +6.4453657     5196.283     8128.354     8461.423     77.73849     155.6631     311.5123      1.677     4.20      841.735     54.92549     763.0461        31     1.624     0.951 -45.16   0
       271    791.9989    593.9472 307.5908939  +6.4491029     13565.98     21411.24     22522.52     77.48973      155.477     311.1712      1.638     4.12     842.0524     54.92549     1953.273        42     1.680     0.976 -38.91   0
       272   1009.6810    594.0905 307.5004866  +6.4562627     844.7288     1707.035     1700.664     77.86258     156.0967     311.6672      2.020     6.54     838.1236     54.92549     131.5154        12     1.679     0.715 -36.83   0
       273    534.4523    593.9144 307.6978506  +6.4405549     1189.865     1984.094     2132.202     78.11015     155.7871     311.7291      1.827     5.11     841.3865     54.92549     210.8148        15     1.480     0.949 -54.86   0
       274     36.4723    594.2371 307.9046339  +6.4238043     585.2816     831.0536     1024.008     77.98647     155.8491     311.6672      1.662     4.79     840.5742     54.92549     85.79303         6     1.133     0.573 -63.54   0
       275    615.8719    592.1550 307.6640971  +6.4439903     2969.096     4487.224     4749.503     77.98647     155.8491     311.6052      1.634     4.05     841.4083     54.92549     453.4748        25     1.629     0.843 -32.80   0
       276    933.1458    588.1153 307.5324700  +6.4561932     978.1255     1688.371     2400.664     78.11015     155.8491     311.7601      1.962     4.18     840.7704     54.92549     144.2596        12     1.309     0.703 -26.61   0
       277    374.3529    586.1588 307.7645952  +6.4384233     900.8671     1344.706     1170.597     77.98647     155.8491     311.4813      1.535     4.08     839.0363     54.92549     178.0271         9     1.258     0.509 -34.41   0
       278    228.5950    585.9152 307.8251322  +6.4336607     1218.729     2223.857     2758.953     77.61421     155.5391     311.2953      1.896     5.28     838.8207     54.92549     199.1118        15     1.605     0.635 -45.99   0
       279    191.7426    586.8215 307.8404053  +6.4320559     681.0941     1254.893     2274.664     77.73849     155.7871     311.4193      2.423     5.59     839.1796     54.92549     108.1035         9     1.325     0.664 -36.97   0
       280    868.0784    577.2264 307.5598544  +6.4585309     2579.607     3975.647     4328.566     77.98647     155.7871     311.5433      1.613     4.15     841.8147     54.92549     347.3398        18     1.420     0.773 -34.64   0
       281    826.8317    574.7643 307.5770660  +6.4581788     2434.775     3938.014     3684.586     77.73849     155.6011     311.3573      1.674     4.42     841.8521     54.92549     325.3168        22     1.584     0.919 -41.30   0
       282    163.2470    577.1079 307.8525636  +6.4351140     781.7953     1320.353     1417.909     78.11015     155.7871     311.7291      1.739     4.22     839.3365     54.92549     144.6567         8     1.084     0.591  -4.03   0
       283    807.3619    565.7740 307.5854508  +6.4612442     154571.5     237003.2     249873.6     77.73849     155.6631     311.4503      1.655     4.09      841.721     54.92549     22310.34       116     1.778     1.167 -40.24   2
       284    797.7831    570.5145 307.5892712  +6.4589690     2482.359     4015.297     4779.302     77.73849     155.6011     311.5433      1.731     4.54     841.7533     54.92549     362.2643        24     1.700     0.819 -37.12   3
       285    740.2263    570.8784 307.6131624  +6.4569075     642.0684     865.8015     1665.042     77.98647     155.7871     311.5433      1.387     5.18     840.9687     54.92549     83.17542         6     1.107     0.684  -8.14   0
       286    254.7412    569.8105 307.8148132  +6.4411821     7738.029     11810.96        12129     77.48973     155.7251     311.3263      1.630     4.32     838.3126     54.92549     1175.708        31     1.588     0.890 -37.72   0
       287    188.9680    564.3240 307.8423104  +6.4412509     56248.84      88906.7     94864.66     77.98647     155.8491     311.5742      1.676     4.14     838.7105     54.92549     8064.069        83     1.804     1.115 -36.50   0
       288    737.5212    565.9913 307.6144485  +6.4588352     511.4721     641.0058     882.8486     77.73849     155.3528     311.4503      1.474     4.09        840.8     54.92549      102.468         5     1.417     0.337 -49.41   0
       289    112.9037    560.6674 307.8740199  +6.4402187     5963.829     9365.508      9517.25     78.11015      155.911     311.6052      1.650     4.25     839.5977     54.92549     841.8764        32     1.637     0.956 -40.68   0
       290    978.1199    557.6739 307.5148030  +6.4702516     1341.337     2131.039     1614.397     78.35695     156.0967     311.6672      1.686     5.35     838.2735     54.92549     173.7583        19     1.565     0.946 -39.26   0
       291    998.8843    556.6543 307.5062132  +6.4713606     721.7683     1066.155     1041.349     78.11015     155.8491     311.7601      1.521     3.81      837.647     54.92549     109.6265         7     0.829     0.630 -21.22   0
       292    227.4306    556.0577 307.8266146  +6.4459480     821.0225     1345.642     1471.587     77.86257     155.8491     311.5123      1.878     3.70     837.8229     54.92549     115.5448        10     1.115     0.734 -10.36   0
       293    843.9625    553.1060 307.5706717  +6.4676888     4234.686     6317.288     6006.105     78.23365     155.7251     311.6982      1.543     4.04     841.5316     54.92549     586.1444        25     1.530     0.869 -35.89   0
       294    362.3427    551.4461 307.7707424  +6.4523535      16949.3     25818.11     27120.13     78.11015     155.8491     311.7291      1.634     4.02     837.5815     54.92549      2464.21        43     1.669     0.961 -38.67   0
       295    452.3304    551.7880 307.7333602  +6.4552117       726.49     1139.786     1526.347     77.61421     155.6631     311.4503      1.870     3.60     838.6884     54.92549      124.793         7     0.991     0.541 -22.19   0
       296    165.0977    550.0430 307.8527011  +6.4463491     1646.099     3069.436     3530.549     78.11015     155.7871      311.822      2.453     7.18     838.9282     54.92549     282.1251        26     2.384     0.790 -22.59   0
       297    239.0411    548.3825 307.8220498  +6.4495042     811.5825      1230.01      917.817     77.61421     155.6631     311.4193      1.573     4.84     837.5568     54.92549      132.392        10     1.265     0.568 -38.23   0
       298    797.9621    546.4161 307.5899985  +6.4689240     5596.527     8700.455     9147.954     77.73849     155.6631     311.3573      1.637     4.10     841.3727     54.92549     802.4513        29     1.606     0.868 -39.20   0
       299    528.6985    546.2294 307.7018305  +6.4600497     6462.308     9794.509     10483.67     78.11015     155.6011     311.6362      1.623     4.03     839.2374     54.92549     1002.776        30     1.569     0.894 -36.32   0
       300    101.5456    547.7922 307.8791678  +6.4451543     898.9024     1449.558     1581.142     77.61421     155.7251     311.3263      1.662     4.68     839.4799     54.92549     131.1758         9     1.125     0.552 -23.60   0
       301    386.9498    542.7272 307.7608147  +6.4567734     1343.206     2098.621     2425.828     78.11015      155.911     311.6362      1.669     4.77     837.3723     54.92549     204.4239        18     1.511     0.856 -33.47   0
       302    175.6802    539.5739 307.8486569  +6.4510246     6731.646     10388.04     10882.37     77.98647     155.6631     311.6362      1.672     3.90     838.4714     54.92549     964.2336        37     1.737     0.927 -35.63   0
       303     47.3956    538.2026 307.9019760  +6.4473022     4744.484     7666.081     8013.674     77.48973     155.4149     311.4193      1.656     3.92     840.2126     54.92549     689.5406        30     1.601     1.021 -36.14   0
       304    814.7133    538.5740 307.5833024  +6.4727176     1410.829      2293.92     2471.262     78.23365     155.6631     311.5123      1.769     4.71     841.1858     54.92549      209.029        17     1.440     0.809 -41.67   0
       305    573.4099    539.3358 307.6834919  +6.4643837     2518.447     3845.563     4106.627     77.61421     155.6631     311.4503      1.664     4.62     839.4108     54.92549     353.9547        23     1.612     0.810 -29.70   0
       306    270.9237    535.9394 307.8092257  +6.4557054     86156.63     132508.5     139310.4     78.35695      155.911     311.5742      1.621     3.98     837.2143     54.92549     13128.83        86     1.750     1.099 -36.94   0
       307    560.4721    533.5287 307.6890586  +6.4663506     850.8689     1366.837     1728.977     78.35695     155.9729     311.5433      1.541     4.81     839.0215     54.92549     138.7407        10     1.564     0.419 -32.74   0
       308    254.6825    530.9195 307.8161383  +6.4572357     1349.417     2203.375     2925.563     78.11015     156.0967     311.6982      1.708     4.46     837.0868     54.92549     218.6604        14     1.400     0.694 -45.17   0
       309    497.7138    526.6793 307.7153507  +6.4670892        39988      65606.9      70198.7     77.98647     156.1585     311.6982      1.782     4.18     838.4971     54.92549     5682.029        68     1.838     1.151 -30.53   0
       310    794.1264    528.1876 307.5921979  +6.4763222     15570.27     23799.58     24942.18     77.61421     155.5391     311.4193      1.589     4.01     840.6557     54.92549     2229.151        39     1.638     0.930 -36.39   0
       311    648.1776    525.2130 307.6529112  +6.4727012     1014.237     1500.955     1925.551     77.86258     155.6631     311.5123      1.490     3.58     839.6005     54.92549     160.5021         9     0.944     0.607 -29.31   0
       312    210.1549    523.1098 307.8348912  +6.4589730     1890.457     3244.191      3857.71     78.11015     155.7251     311.7291      1.862     5.11     837.2339     54.92549      283.125        19     1.614     0.754 -38.84   0
       313     45.2671    523.7835 307.9033431  +6.4531836      1131.16     1684.334      1507.72     77.61421     155.7871     311.5123      1.455     3.83     839.9908     54.92549     170.4725        14     1.349     0.721 -30.43   0
       314    657.8329    521.5074 307.6490247  +6.4745520     2790.491     4511.129     4856.862     78.23365     155.7251     311.6672      1.781     4.39     839.5529     54.92549     392.4232        23     1.657     0.790 -37.04   0
       315    970.3298    529.5145 307.5189734  +6.4816191     1674.596     2612.931     2541.943     78.23365     156.0967     311.6362      1.751     4.55     837.7881     54.92549      220.269        17     1.396     0.793 -40.46   0
       316     95.7725    523.5156 307.8823785  +6.4549833     597.6812     761.4548      397.294     78.23365     155.6011     311.4813      1.506     4.02     839.0143     54.92549      112.577         5     1.237     0.415 -30.53   0
       317    667.7640    521.7792 307.6448912  +6.4747699     1391.311     1922.192     2244.951     77.61421     155.6631     311.3573      1.460     4.67     839.5931     54.92549     223.0691        12     1.298     0.611 -36.13   0
       318    719.6656    520.7803 307.6233691  +6.4769072     1148.825     2066.922     2273.001     77.73849     155.8491     311.4813      1.686     4.88     839.5883     54.92549     169.7365        11     1.264     0.563 -32.12   0
       319     75.0287    519.0268 307.8911433  +6.4561427     592.2241     1328.423     1535.257     77.61421     155.6631     311.4503      1.999     5.89     839.3122     54.92549     114.5104         9     1.806     0.540  20.36   0
       320    395.2562    517.5170 307.7582072  +6.4674580     1655.699     2436.139     2460.932     78.11015     155.8491     311.6982      1.616     4.65     837.1381     54.92549     246.6773        15     1.454     0.651 -35.64   0
       321    326.7267    515.7670 307.7867257  +6.4658953     3912.545     5923.021      6140.76     77.98647     155.8491     311.5742      1.638     4.37     836.9189     54.92549      588.135        25     1.565     0.862 -36.18   0
       322    142.0302    514.3567 307.8634754  +6.4603106     24539.59     38703.96      40448.8     77.73849     155.8491     311.4813      1.639     4.16     838.3336     54.92549     3513.411        48     1.697     0.994 -36.84   0
       323    506.8976    514.9478 307.7119280  +6.4722382     1938.048     2988.784     3036.119     77.98647     155.8491      311.822      1.674     4.65     838.0511     54.92549     307.8218        18     1.583     0.697 -34.31   0
       324    869.8430    514.3339 307.5612121  +6.4845545     1540.444     2385.542     2369.644     78.11015     155.7871     311.6362      1.594     4.30     840.0837     54.92549     246.6329        15     1.431     0.658 -35.78   0
       325    107.0979    512.6880 307.8780380  +6.4598319     2526.651     3931.926     4334.303     78.11015     156.2821     311.6362      1.646     4.15     838.6492     54.92549     373.2089        19     1.494     0.776 -37.74   0
       326    344.2963    510.7843 307.7795956  +6.4685384     1086.071     1686.418     2357.751     77.86258     155.6011     311.4193      1.697     5.97     836.9644     54.92549     144.6869        15     1.541     0.711 -35.84   0
       327    967.5984    508.7193 307.5207985  +6.4901139     4551.959     7340.808     7133.403     77.36505     155.3528     311.3573      1.698     4.13     837.3964     54.92549      638.786        31     1.623     0.966 -34.33   0
       328    540.7565    501.3583 307.6983195  +6.4789757     1408.624      1956.23     1797.724     77.86258     155.8491     311.5123      1.545     5.09      837.533     54.92549     211.9564        13     1.377     0.631 -37.95   0
       329      6.2434    498.7529 307.9203879  +6.4622112     24127.91     38088.54     40537.46     78.11015     155.7871     297.9211      1.685     4.28     840.3555     54.92549      3623.18        53     1.739     1.026 -36.32  16
       330    439.0563    495.3835 307.7407560  +6.4780553     41768.15     64580.48     67212.56     77.48973     155.7871     311.3573      1.603     4.05       837.05     54.92549     6018.695        61     1.708     1.001 -37.00   0
       331    647.0995    494.9793 307.6543662  +6.4851471     12085.83     18285.29     19311.83     78.11015     155.6631     311.3883      1.567     4.02     838.7139     54.92549     1773.848        37     1.607     0.921 -38.28   0
       332    287.1318    495.6821 307.8038408  +6.4728659      908.817     1602.714     1227.864     78.23365     156.0967     311.6362      1.687     5.73     836.1718     54.92549     173.6501        11     1.580     0.586 -45.24   0
       333    204.1616    493.0553 307.8383859  +6.4711803      18292.4     30303.16     32155.42     78.11015      155.911     311.6052      1.765     3.98      836.592     54.92549     2346.468        55     1.714     1.167 -34.57   0
       334    981.0649    493.6247 307.5157067  +6.4967919     1170.816     1906.744     1522.098     77.73849     155.8491     311.5433      1.684     4.68     836.8293     54.92549     166.0978        13     1.280     0.769 -41.18   0
       335    169.8208    494.3246 307.8526050  +6.4695091     1388.995     1980.355     1869.029     77.73849     155.6631     311.5433      1.613     5.93     837.4204     54.92549     180.7021        14     1.463     0.676 -42.66   0
       336    820.9723    493.1005 307.5822154  +6.4916990     959.5136     1365.555      1439.71     78.11015     155.6011     311.5123      1.527     4.29     839.4279     54.92549     143.3334        10     1.231     0.559 -38.92   0
       337    909.3859    492.9766 307.5454988  +6.4946834     614.9083     1120.472     1222.974     77.86257     155.6631     311.5123      1.697     4.07     838.3209     54.92549     110.7299         6     1.256     0.377 -17.87   0
       338    568.9374    491.6084 307.6869407  +6.4839388     2694.584     3987.974     4136.408     77.48973     155.6011     311.4193      1.554     4.53     837.5978     54.92549     420.1127        20     1.504     0.770 -41.15   0
       339    942.7584    488.7632 307.5317781  +6.4975294     4433.616     6936.043     7385.702     77.86258     155.8491     311.4813      1.700     4.38     837.4509     54.92549     572.7745        29     1.621     0.924 -33.11   0
       340    615.8975    487.3302 307.6675800  +6.4872673     6341.964     9866.465     10076.13     77.98647     156.0348     311.6052      1.612     4.30     838.1643     54.92549     926.4395        31     1.632     0.881 -37.84   0
       341    103.1911    488.1464 307.8804825  +6.4698327     1125.953     1796.577     1604.636     77.48973     155.7871     311.3263      1.494     4.56     838.1153     54.92549     167.0203        12     1.328     0.639 -40.05   0
       342    965.3524    481.0622 307.5226499  +6.5014577     3144.753     4966.403     5224.653     77.98647     155.7871     311.6672      1.679     4.41     836.8648     54.92549     387.2523        26     1.577     0.982 -39.16   0
       343    868.4409    483.2701 307.5628271  +6.4973326      414.292     617.7587     1237.637     77.98647     155.8491     311.6672      1.680     4.46     838.9761     54.92549     86.01508         5     1.220     0.464 -32.70   0
       344    528.0324    478.6790 307.7043605  +6.4879151     7277.222      11339.1     12051.12     77.98647     155.8491     311.5742      1.638     4.29     836.6877     54.92549     1100.761        34     1.629     0.903 -35.34   0
       345    404.0962    479.9335 307.7557912  +6.4832686     755.1587     1298.521      1285.41     78.11015      155.911     311.6362      1.651     6.51     836.7218     54.92549     129.7649        11     1.555     0.765 -39.98   0
       346    374.0573    478.8135 307.7683041  +6.4827295     2644.239     4119.133     4394.354     77.48973     155.7251     311.2953      1.594     4.16     836.6665     54.92549     443.1234        21     1.627     0.748 -37.27   0
       347    743.9977    478.8198 307.6146603  +6.4950388     463.9186     542.4724     526.4504     77.73849     155.4149     311.3573      1.528     4.36     838.5566     54.92549     69.12573         5     1.035     0.524 -35.85   0
       348    884.6186    474.2444 307.5564080  +6.5015955     3034.418     4731.519     5409.719     77.73849     155.7251     311.3573      1.737     4.36     838.2106     54.92549      434.098        24     1.655     0.818 -36.24   0
       349    232.5361    474.4867 307.8272234  +6.4797936      635.788     958.0877     764.8105     78.11015     155.9729     311.6362      1.441     3.67      835.528     54.92549     112.2852         6     0.949     0.409 -19.61   0
       350    891.9423    468.8527 307.5535455  +6.5040644     2105.992      3359.41     3576.705     78.11015     155.8491     311.6052      1.691     4.75     837.8398     54.92549     305.7698        17     1.515     0.711 -38.04   1
       351    931.4113    467.9026 307.5371840  +6.5057655     1094.391     1666.309     1864.498     77.86257     155.5391     311.4193      1.690     5.13     836.9471     54.92549     142.7365        13     1.276     0.730 -39.59   0
       352    110.9850    468.7969 307.8778940  +6.4780813     728.0974      1028.49     1242.174     77.73849      155.477     311.4503      1.465     3.99     837.6906     54.92549      107.377         6     0.991     0.460 -38.04   0
       353    269.5989    467.0215 307.8120807  +6.4841128     588.1891     840.7932     471.4286     77.73849     155.5391     311.3263      1.317     4.23      835.274     54.92549     94.46887         6     1.109     0.459 -18.06   0
       354    715.7993    464.7139 307.6268415  +6.4999255     2745.035     4280.741     4165.738     77.36504     155.3528     311.2643      1.607     4.37     837.9364     54.92549     369.6841        22     1.559     0.817 -36.64   0
       355     77.8111    463.8692 307.8918361  +6.4790063     1753.212     2954.385     2993.047     77.61421     155.6631     311.4813      1.723     5.11     838.1964     54.92549     272.1063        20     1.636     0.808 -44.32   0
       356    426.9977    463.3197 307.7468347  +6.4908907     1057.944     1537.953     1564.874     77.48973     155.3528     311.3573      1.654     4.17     835.8611     54.92549     163.9606        13     1.296     0.714 -23.59   0
       357    386.7996    463.0664 307.7635381  +6.4896554     3691.878     5857.273     6130.636     77.36504     155.3528     311.3573      1.624     4.08     835.8577     54.92549     548.5531        26     1.533     0.889 -38.87   0
       358    777.2795    455.9861 307.6015972  +6.5055710     15639.89     24447.36     25977.54     77.73849     155.6011     311.3883      1.676     4.25     837.8815     54.92549     2267.831        45     1.932     0.946 -44.33   2
       359    782.0000    449.5567 307.5998505  +6.5083821     1627.558     2235.715     2316.756     77.36504      155.477     311.2022      1.214     2.78     837.6868     54.92549     639.2229         9     1.100     0.552 -82.39   3
       360    297.0248    456.6225 307.8010383  +6.4893212     2464.458     3731.902     3454.643     77.61421     155.6631     311.5742      1.557     4.23     834.9911     54.92549        393.3        18     1.449     0.762 -40.97   0
       361    420.2194    456.0889 307.7498913  +6.4936499     708.2421     978.7958     883.7875     77.86258     155.6011     311.5123      1.435     4.02     835.5059     54.92549     109.2119         7     0.952     0.569 -70.43   0
       362    806.4433    453.2254 307.5895762  +6.5076790     1207.518     1902.122     2009.305     77.73849     155.8491     311.5123      1.653     5.11     837.9069     54.92549     189.7191        11     1.207     0.612 -33.07   0
       363    379.9348    453.2249 307.7667180  +6.4934894     1588.377     2468.276     3009.441     77.73849     155.8491     311.4813      1.621     4.29     835.3503     54.92549     270.0743        15     1.438     0.643 -37.19   0
       364    614.5040    459.5692 307.6690840  +6.4986819     9959.272     14712.83     15452.09     78.23365     155.6011     311.6672      1.637     4.15     836.9294     54.92549     1489.337        34     1.636     0.859 -37.03   0
       365    962.4353    450.9618 307.5248612  +6.5137879     1666.985     2712.217     3229.051     77.86258     155.7251     311.4193      1.763     5.02     835.6708     54.92549     218.5033        17     1.532     0.701 -27.07   0
       366    114.5137    448.1729 307.8771194  +6.4867134     4377.827     6761.078     7324.901     78.23365     155.6011     311.4813      1.631     4.15     837.3171     54.92549     625.1392        26     1.595     0.829 -39.93   0
       367    368.4408    449.2185 307.7716255  +6.4947601     803.4927     1082.096     839.0444     77.73849     155.6631     311.3883      1.506     4.22     835.1468     54.92549     137.4769         7     1.202     0.422 -22.65   0
       368   1016.4656    445.7830 307.5025918  +6.5177163     3730.291     6680.328      6993.34     77.61421     155.7251     311.4813      1.888     4.41     834.4355     54.92549     416.8997        35     1.686     1.162 -12.62  16
       369    752.9575    447.0211 307.6119974  +6.5084644     2332.738     3601.696     3629.064     77.61421     155.7251     311.4813      1.561     4.11     837.3832     54.92549     340.6251        21     1.531     0.798 -38.11   0
       370    272.3088    445.1847 307.8116857  +6.4932182     1443.074     2185.927     2544.262     77.86258     155.6631     311.4813      1.601     4.03     834.4759     54.92549     250.8455        14     1.445     0.682 -38.36   0
       371    350.6544    442.8867 307.7792241  +6.4967810     3161.974     4779.526      5151.31     78.11015     155.7251     311.7601      1.616     4.18     834.8284     54.92549     489.2463        23     1.581     0.810 -37.09   0
       372    706.2766    440.6878 307.6315967  +6.5095281     1587.804     2362.762     2460.368     78.11015     156.1585     311.6982      1.628     4.86     836.9077     54.92549     245.0277        16     1.597     0.670 -34.65   0
       373    238.3604    438.7828 307.8259991  +6.4947278     910.1786     1382.234     1367.855     77.73849     155.7251     311.3883      1.613     6.53     834.2582     54.92549     125.2706        12     1.539     0.778 -42.19   0
       374    980.1126    439.1161 307.5179124  +6.5192642     614.9632     971.9272     1463.648     77.86258     156.0348     311.6362      1.499     5.68     834.8254     54.92549     98.43939        10     1.421     0.639 -32.93   0
       375    410.3324    439.1840 307.7545622  +6.5002994     561.2902     728.1125     537.0052     77.61421     155.7871     311.5123      1.285     3.70     834.6428     54.92549     74.71283         5     1.030     0.382  -3.84   0
       376    548.2473    433.6187 307.6974678  +6.5071907     1012.488     1465.024     1182.278     77.61421     155.8491     311.4193      1.453     4.74      834.892     54.92549      165.166        10     1.304     0.584 -30.57   0
       377    449.6229    433.5079 307.7384333  +6.5039520     458.6212     919.5048     848.8729     78.11015     155.6631     311.4503      1.878     4.25     834.3894     54.92549     109.6671         5     1.133     0.454 -35.89   0
       378    470.1836    431.7618 307.7299522  +6.5053579     1335.971      2020.56     1539.862     77.73849     155.6631     311.3573      1.515     4.00      834.288     54.92549     206.1966        14     1.351     0.655 -31.26   0
       379    832.7137    430.4129 307.5794237  +6.5179691     1345.775     2037.153     1763.213     77.73849     155.6631     311.4813      1.656     5.32     836.8802     54.92549     186.0912        13     1.374     0.673 -36.47   0
       380    818.3704    429.6241 307.5854074  +6.5178187     1901.214     2823.208     2660.617     77.61421     155.7251     311.4193      1.557     4.41     836.9658     54.92549     300.5494        16     1.409     0.686 -38.89   0
       381    715.7346    427.7598 307.6280989  +6.5151797     14605.43     21878.35     22649.68     78.11015     155.7871     311.7291      1.605     4.29     836.4193     54.92549     2152.803        40     1.675     0.906 -39.21   0
       382    618.3898    429.4724 307.6684733  +6.5112364     711.2036     1067.334     844.8876     77.61421      155.477     311.4813      1.643     5.33     835.4718     54.92549     148.6287         8     1.337     0.601 -41.89   0
       383    636.9203    423.8544 307.6609640  +6.5141720     2450.533     3833.317     3757.304     78.11015     155.8491     311.6362      1.613     4.30     835.4901     54.92549     388.5214        23     1.623     0.892 -34.15   2
       384    631.4588    422.9888 307.6632612  +6.5143478     501.4611     922.6836     419.6379     77.48973     155.7251     311.3263      1.414     3.46     835.3606     54.92549     89.42023         5     1.002     0.346 -44.48   2
       385    709.1481    423.2083 307.6309861  +6.5168398     576.9379     829.4741     908.2013     77.61421     155.7251     311.3263      1.786     3.91     836.1689     54.92549     117.9731         5     1.322     0.331 -48.25   0
       386    611.6537    421.1010 307.6715501  +6.5144684     5272.196     8270.211     9357.313     77.98647     155.8491      311.853      1.670     4.43     835.0037     54.92549     794.0274        26     1.615     0.799 -34.98   3
       387    608.1381    418.3644 307.6731015  +6.5154812     14367.82      21951.5     23411.67     78.11015     155.8491     311.5742      1.608     4.17     834.8071     54.92549     2127.764        39     1.699     0.918 -37.43   3
       388    941.0728    417.5908 307.5348427  +6.5268570     3567.756     5572.318     5586.459     77.61421     155.4149     311.4503      1.651     4.51     834.7154     54.92549     477.4944        26     1.634     0.838 -38.03   0
       389    417.1896    415.4155 307.7525081  +6.5103405     560.0151     807.1934     555.7695     77.86258     155.6011     311.4813      1.628     5.94     833.4432     54.92549     92.03986        10     1.334     0.744 -39.63   0
       390    380.0627    413.7936 307.7679823  +6.5097723     28117.61     43510.34     45391.69     77.48973     155.6631     311.3883      1.614     4.27     833.4041     54.92549     4360.648        48     1.680     0.964 -38.84   0
       391    896.7089    413.4623 307.5534068  +6.5270903     1397.682     2205.397     2689.378     78.11015     155.9729     311.6982      1.611     3.50     835.3939     54.92549     258.2967        15     1.330     0.714 -48.76   0
       392    125.9765    413.4109 307.8735232  +6.5014474     2189.381      3499.36     3333.945     77.73849     155.6631     311.5123      1.690     4.65     836.5432     54.92549     309.7828        21     1.569     0.797 -43.59   0
       393     59.3130    409.0223 307.9013566  +6.5010298     1429.245     2387.904     2831.459     78.11015     155.6631     311.4813      1.820     5.94     837.6077     54.92549     193.7831        19     1.654     0.887 -32.27   0
       394    909.7962    407.9896 307.5481527  +6.5297838     4638.731     7449.123     7383.567     77.73849     155.5391     311.5123      1.669     4.23     835.0193     54.92549     660.1493        29     1.646     0.885 -38.56   0
       395    591.4213    409.3798 307.6803442  +6.5186343     520.0512     705.9914     478.7302     77.86258     155.7871     311.5433      1.179     3.25     834.0618     54.92549     118.0769         5     1.037     0.296 -22.76   0
       396    965.7705    406.1950 307.5249629  +6.5323804     613.8024     942.3719      950.485     77.61421     155.6631     311.4193      1.366     4.15     833.8421     54.92549     99.43524         7     1.102     0.447 -29.39   0
       397    237.5863    404.3997 307.8274710  +6.5088964     13924.36     21408.32     22447.37     77.73849     155.5391     311.4193      1.651     3.98     833.3543     54.92549     2069.545        41     1.681     0.937 -38.49   0
       398     72.7954    399.0205 307.8960923  +6.5056098     912.8422     1417.622     1516.944     77.73849     155.6011     311.4193      1.721     3.01      837.295     54.92549     142.9427        10     0.924     0.711  -4.61   0
       399    732.4059    398.3581 307.6221535  +6.5278719     787.3903       1314.1     1792.078     77.48973     155.5391     311.3263      1.494     5.29     834.6791     54.92549      130.165        10     1.290     0.653  -9.26   0
       400    700.5505    397.6046 307.6354099  +6.5271245     766.3939     1028.904     1222.176     77.48973     155.6631     311.2643      1.607     4.94     834.4794     54.92549     131.3144         7     1.093     0.632 -11.98   0
       401    960.8083    396.8026 307.5273360  +6.5360936     869.8016     1449.712     1490.998     77.48973     155.5391     311.4193      1.637     4.32     833.6842     54.92549     128.4279         7     0.953     0.558 -37.07   0
       402    350.7347    393.8852 307.7808285  +6.5170132     1250.109     1848.455     1905.682     78.23365     156.0348     311.6672      1.592     5.01     832.6103     54.92549     194.3224        12     1.306     0.613 -38.19   0
       403    183.5659    393.9995 307.8502552  +6.5113856     809.0807     1281.133      1558.84     77.24017     155.6631     311.3573      1.573     4.50     834.7963     54.92549     130.6738         8     1.153     0.501 -26.00   0
       404    137.8334    393.0349 307.8692813  +6.5102555     4827.076     7451.263     7442.084     77.73849     155.6011     311.3573      1.616     4.25     836.0566     54.92549      756.584        27     1.652     0.813 -35.05   0
       405    435.1815    391.6681 307.7458284  +6.5207439     619.2999     1052.702      1091.29     77.73849     155.7871     311.5433      2.040     5.29     832.3728     54.92549       122.36         9     1.356     0.582 -34.89   0
       406    242.8466    391.8833 307.8257050  +6.5142392     1268.861     1808.254      1886.06     78.11015     155.8491     311.6052      1.544     4.97     833.2148     54.92549     198.0748        11     1.348     0.582 -36.65   0
       407    159.8596    388.9303 307.8602707  +6.5126862     2537.166     4265.118     4398.683     78.23365     155.8491     311.6052      1.731     4.40     835.5739     54.92549      332.853        24     1.530     0.942 -41.03   0
       408    823.8268    389.4331 307.5844780  +6.5345925      625.415     1004.768     757.6698     77.61421     155.6011     311.3883      1.496     4.57     835.1409     54.92549     118.8682         8     1.104     0.536 -23.90   0
       409    555.4783    388.2078 307.6959791  +6.5261789     1101.586     1490.534     1419.665     77.73849     155.3528     311.3883      1.559     3.76     832.3086     54.92549     162.9763         9     1.165     0.585 -35.87   0
       410    971.9999    383.2229 307.5231384  +6.5420709     720.0287      1530.66     2126.283     77.61421     155.5391     311.4193      2.654     7.81     832.9886     54.92549     94.88342        14     1.688     1.010 -44.44   0
       411    383.2615    383.6448 307.7676611  +6.5223255     2217.042     3273.009     3369.076     77.98647     155.7871     311.6982      1.580     4.24     832.1752     54.92549     356.9387        16     1.453     0.712 -38.73   0
       412      1.9690    384.3664 307.9259990  +6.5092896     870.0236     1177.411     1260.499     74.43975     132.6971     244.3734      1.485     3.85      838.054     54.92549     136.8244         9     0.834     0.815 -89.82  24
       413    271.2612    384.0559 307.8141654  +6.5184192     760.7407     1011.191     872.6357     78.23365     155.8491     311.6362      1.436     4.78     832.8268     54.92549     130.1046         9     1.061     0.610 -34.49   0
       414    317.1459    381.4477 307.7951950  +6.5210273      795.793     1329.705     1572.937     78.11015     155.8491     311.6362      1.870     4.88      832.345     54.92549       111.54         9     1.281     0.526 -41.13   0
       415    437.2089    377.1848 307.7454701  +6.5267907     6973.532     10722.57      11233.6     77.86258     155.6011     311.4813      1.606     4.10      831.661     54.92549      1016.59        34     1.654     0.928 -41.09   0
       416     33.4771    378.1350 307.9131221  +6.5129165     3081.164     5113.095     5714.359     78.23365     155.8491     311.5742      1.890     4.51     837.5594     54.92549     440.3354        25     1.703     0.853 -37.68   0
       417    770.0176    376.0072 307.6072751  +6.5383487     1973.622     2990.969     3584.537     77.73849     155.6011     311.4503      1.623     4.87     833.8209     54.92549      283.792        19     1.600     0.738 -41.82   0
       418    777.8590    374.3402 307.6040736  +6.5392974     12487.26     19142.84     19942.94     78.11015     155.8491     311.6362      1.613     4.15     833.8824     54.92549     1791.358        40     1.686     0.930 -38.59   0
       419    341.3114    373.0517 307.7854387  +6.5252997     1069.364     1787.533     2057.661     78.11015     155.6631     311.6982      1.725     4.78     831.8682     54.92549     196.7504        12     1.516     0.595 -32.06   0
       420    292.4104    373.3911 307.8057380  +6.5235279      489.293     600.4747     351.7906     77.61421     155.6631     311.5123      1.423     3.44     832.3225     54.92549     74.23627         5     1.101     0.310 -20.87   0
       421   1021.7942    369.3714 307.5029152  +6.5494393     3348.815      5227.07     5397.887     77.61421      147.315     262.6518      1.682     4.22     831.1545     54.92549     456.1517        27     1.619     0.925 -40.81  24
       422    952.2052    366.2698 307.5319238  +6.5484138     533.9334     1062.964     1437.956     77.61421      155.477     311.4503      1.402     3.43     833.0217     54.92549     92.28613         5     0.962     0.353 -43.83   0
       423    186.1167    365.2514 307.8501582  +6.5233389     635.1584     971.8849     801.8407     78.11015     155.7871     311.6982      1.465     3.58     834.5401     54.92549     120.2534         5     1.083     0.341 -45.37   0
       424    525.2329    362.3775 307.7094034  +6.5358358     534.8134     820.3528     729.8339     77.61421     155.6631     311.3883      1.591     4.49     830.4351     54.92549     93.20654         5     0.822     0.697 -73.90   0
       425    485.3605    360.7774 307.7260180  +6.5351685     2968.203     4430.835     4286.217     77.73849     155.6631     311.4193      1.599     4.19     830.3212     54.92549     416.6479        22     1.531     0.742 -38.11   0
       426    457.4914    361.4510 307.7375711  +6.5339620     2428.216     3381.666     3294.637     77.98647     155.6631     311.7911      1.518     4.12     830.6427     54.92549     358.8855        19     1.449     0.727 -34.42   0
       427    914.1057    360.4077 307.5479441  +6.5495707     736.8947     1156.995     1262.511     77.73849     155.5391     311.3883      1.593     4.95     833.6454     54.92549     112.0555         9     1.334     0.520 -34.81   0
       428    843.2136    357.2580 307.5774956  +6.5485193     30938.66     50403.05     53435.04     77.48973     155.7251     311.3263      1.739     4.36     833.7941     54.92549     4088.046        58     1.771     1.075 -45.36   0
       429     60.4889    354.3821 307.9026997  +6.5236260     522.8076     895.6434     977.5535     77.86258     155.6011     311.5123      1.151     3.38     836.8621     54.92549     95.72363         5     1.087     0.305 -21.27   0
       430    335.2210    353.2959 307.7886288  +6.5332523     930.8837     1377.671     1374.267     77.98647     155.6631     311.4193      1.435     4.79     831.2037     54.92549     147.8713         9     1.168     0.558 -19.33   0
       431    614.9822    349.8235 307.6725436  +6.5440054     2671.525     3981.806     4595.085     77.73849     155.7251     311.5123      1.598     3.87     830.4702     54.92549     392.1882        19     1.433     0.762 -41.84   0
       432     23.2489    350.4921 307.9182970  +6.5239859     1209.571     1755.322     1561.854     77.98647     155.6631     311.7601      1.499     3.95     837.4155     54.92549     172.0565        13     1.147     0.750 -47.28   0
       433    699.6533    343.2831 307.6375918  +6.5495209     79312.05       119288     125624.3     78.11015     155.8491     311.7291      1.630     4.20     830.9844     54.92549     11663.47        84     1.727     1.059 -39.87   0
       434    857.8394    344.7397 307.5718367  +6.5541728     1063.487         1645     1808.141     78.11015     155.8491     311.6672      1.628     5.43     833.3409     54.92549       165.22        11     1.410     0.590 -35.56   0
       435     78.9383    343.1495 307.8954136  +6.5288803     1353.136     2250.468     2644.141     78.11015     155.7871     311.6672      1.739     4.13     836.5553     54.92549       212.02        16     1.463     0.685 -35.03   0
       436    941.2623    340.1266 307.5373378  +6.5588442     724.1826     1131.621     974.6603     78.23365     155.8491     311.6362      1.745     5.63     832.4493     54.92549     120.7422         9     1.519     0.630 -31.13   0
       437    562.0402    340.1190 307.6948576  +6.5462502     2746.366     4112.939     4323.312     78.11015      155.911     311.5433      1.581     4.10     829.5928     54.92549      384.233        21     1.482     0.811 -42.55   0
       438     99.2585    339.0274 307.8871120  +6.5312616     6281.081     9768.898     10237.04     77.73849      155.911     311.4813      1.629     4.14     836.2374     54.92549      872.004        32     1.641     0.904 -34.13   0
       439    545.3766    336.2524 307.7019080  +6.5472919     7092.667     10831.41     10979.76     77.61421     155.8491     311.4813      1.593     4.16     829.2272     54.92549     1108.478        31     1.640     0.842 -39.41   0
       440    274.3492    333.9217 307.8145598  +6.5392193     2831.345     4309.702     4321.058     78.11015      155.911     311.6053      1.586     4.23      831.908     54.92549     396.2529        22     1.548     0.812 -38.06   0
       441    408.2726    331.4364 307.7590169  +6.5447128     25917.42     39817.52     41306.21     77.98647     155.8491     311.6053      1.647     4.14     829.8886     54.92549     3791.355        48     1.666     0.975 -38.84   0
       442    586.9207    330.8925 307.6848307  +6.5508873     786.8834      1214.61     835.9133     77.86258     156.0967     311.6672      1.545     4.40     829.6658     54.92549     124.5878         8     0.891     0.619 -47.41   0
       443    515.8578    330.3642 307.7143657  +6.5487399     1379.881     1853.208     1507.962     77.98647     155.8491     311.6053      1.422     4.29     829.0048     54.92549     212.1713        11     1.155     0.599 -29.83   0
       444    387.8962    329.6360 307.7675406  +6.5447767     1276.149     1647.423     1682.592     78.11015     155.7251     311.7601      1.444     4.27     829.9933     54.92549     188.6173        14     1.334     0.708 -38.40   0
       445    487.5959    326.6648 307.7262282  +6.5493259     1337.236     2080.657     2607.281     77.36505     155.5391     311.3883      1.883     4.98     828.8936     54.92549     194.7974        15     1.521     0.720 -34.05   0
       446    802.5033    324.2230 307.5955048  +6.5608063     802.9808     1419.597     1195.776     78.11015     155.6011     311.4193      1.667     5.65     832.1389     54.92549      124.127        10     1.318     0.682  -8.46   0
       447    639.1440    323.5825 307.6633823  +6.5556424     647.6843     963.4828     820.0858     77.61421     155.7871     311.3573      1.512     5.14     830.0451     54.92549     100.0641         8     1.461     0.512 -56.63   0
       448    385.3779    323.8686 307.7687794  +6.5470738     743.9227     857.3003     1213.856     77.73849     155.7871     311.5742      1.582     4.67     829.7844     54.92549     104.9315         8     1.364     0.454 -40.12   0
       449    497.3289    321.8500 307.7223461  +6.5516378     8604.902     13047.88     13839.07     78.11015     155.8491     311.6362      1.644     4.30     828.7081     54.92549     1211.656        33     1.672     0.885 -36.42   0
       450    766.4658    320.4818 307.6105987  +6.5611541     3189.476      4729.33     5501.866     78.35695     156.0967     311.6672      1.638     4.35     831.3858     54.92549     498.6445        22     1.551     0.757 -40.44   0
       451    921.9516    320.2161 307.5460209  +6.5664239      921.735     1177.618     1133.786     77.61421     155.8491     311.3883      1.486     4.31     831.9539     54.92549       147.43        10     1.135     0.601 -24.15   0
       452    714.1523    320.1793 307.6323388  +6.5595410     790.9041     1210.953     1076.668     77.73849     155.8491     311.4193      1.467     5.42     830.6434     54.92549     134.1422        10     1.364     0.608 -27.69   0
       453    324.0538    318.6919 307.7944241  +6.5471655     1125.761     1796.975     1855.742     77.98647     155.7251     311.7601      1.590     5.58     830.5539     54.92549     162.3984        15     1.647     0.669 -35.11   0
       454    259.2020    312.5994 307.8215646  +6.5475162     555.5873     870.4162      567.344     77.48973     155.4149     311.2953      1.683     3.98     832.0172     54.92549      80.7829         6     1.263     0.359 -62.57   0
       455    159.3706    312.5931 307.8630303  +6.5441840     1113.052     1801.904     1748.018     77.61421     155.6631     311.3883      1.647     4.41     834.5712     54.92549     179.4376        13     1.322     0.679 -31.77   0
       456    606.9905    310.8425 307.6771628  +6.5598325      592.648     909.4992     804.6301     77.61421     155.6631     311.3573      1.541     3.99     829.5079     54.92549      106.828         6     1.248     0.364  -0.06   0
       457    387.2609    306.0242 307.7685935  +6.5545033     7342.086     11390.46     12028.56     77.73849     155.7871     311.5123      1.619     4.25     829.0632     54.92549     1036.246        33     1.630     0.918 -37.19   0
       458    242.9518    306.4842 307.8285189  +6.5494981     2128.021      3152.79     3427.589     78.11015     155.8491     311.6362      1.567     3.98     832.3708     54.92549     313.6203        19     1.386     0.840 -39.65   0
       459    740.9022    305.8874 307.6217033  +6.5663301     967.0098     1736.535     1616.289     78.11015     156.2821     311.6362      1.775     5.31     830.7497     54.92549     146.8061        11     1.395     0.640 -24.76   0
       460    755.1240    301.8109 307.6159314  +6.5684856     52582.18     80248.15     83391.87     77.73849      155.477     311.4193      1.601     4.25      830.806     54.92549     7620.509        62     1.702     0.987 -40.43   0
       461    426.7322    301.2851 307.7523566  +6.5577757     2251.762       3496.9     3750.011     78.48006     156.0967     311.6362      1.647     4.25     828.3442     54.92549     342.2155        20     1.461     0.826 -43.07   0
       462    989.9374    298.9214 307.5184875  +6.5774690      1582.83     2403.171     2036.261     78.35695      155.911     311.6052      1.567     5.06     829.5907     54.92549     192.5445        17     1.424     0.810 -28.60   0
       463    930.9002    298.1032 307.5430386  +6.5758499     2165.561     3418.193      3586.07     78.11015     156.3438     311.4503      1.757     4.35     830.9283     54.92549     283.5536        19     1.500     0.770 -36.96   0
       464    572.8778    298.8845 307.6917313  +6.5636342     1260.451     1843.935     1502.144     78.23364     156.1585     311.6982      1.546     5.03     828.4783     54.92549     195.4276        11     1.257     0.570 -25.18   0
       465    463.5748    297.8616 307.7371675  +6.5604167     994.2148     1542.865     1691.604     77.73849     155.7871     311.5433      1.725     4.52     827.9411     54.92549     161.3305        11     1.191     0.757 -38.81   0
       466    413.4254    296.9538 307.7580286  +6.5591202     1975.634     3313.731      3721.68     77.73849      155.911     311.4813      1.828     4.52     828.2976     54.92549     290.8824        19     1.527     0.812 -39.61   0
       467    292.8435    296.8502 307.8081180  +6.5551409     514.9728     697.9572     811.8522     78.23365     155.8491     311.6362      1.468     3.35      830.869     54.92549      104.521         5     0.995     0.326 -45.00   0
       468    834.4938    291.4889 307.5833054  +6.5753823     1154.705     1758.996     1544.598     78.11015     156.2821     311.6672      1.694     4.66     830.7426     54.92549     147.4904        11     1.105     0.739 -47.50   0
       469    463.8238    291.9364 307.7372619  +6.5628712      853.713     1296.086     1968.055     77.73849     155.8491     311.5123      1.863     5.13     827.7032     54.92549     150.6824         9     1.200     0.619 -40.26   0
       470    444.2051    288.5585 307.7455239  +6.5636120     1056.077      1691.49     1880.091     77.48973     155.5391     311.3263      1.629     5.55     827.7015     54.92549     170.4689        12     1.319     0.666 -30.19   0
       471    189.6747    288.3903 307.8512538  +6.5551882     2499.444     3757.465     3936.093     77.73849      155.477     311.4813      1.612     3.58     833.4589     54.92549     387.3215        21     1.440     0.846 -29.32   0
       472    753.5590    286.4148 307.6170941  +6.5747897     6081.024     9242.654     9642.633     77.61421     155.6631     311.3883      1.644     4.31      830.405     54.92549     923.8928        29     1.571     0.887 -42.05   0
       473    344.2962    286.1563 307.7871038  +6.5612725     650.4122     1174.411     956.6144     78.11015     155.7871     311.7601      1.460     4.19     829.2159     54.92549     130.2731         6     1.407     0.355 -59.11   0
       474    769.9730    284.3545 307.6103444  +6.5761855     2611.474     3675.456     3413.103     77.61421      155.911     311.5123      1.510     3.67     830.3742     54.92549     386.5712        20     1.381     0.783 -43.51   0
       475    225.3782    285.9782 307.8365046  +6.5573767     812.8245     1277.095     823.5382     77.86257     155.6631     311.6053      1.521     5.27     832.7274     54.92549     150.3084        11     1.289     0.665 -34.88   0
       476     85.7731    285.7037 307.8945001  +6.5528239     1041.933       1744.7     1491.955     78.23365     155.6011     311.5433      1.483     5.20     836.3945     54.92549     171.1874        11     1.333     0.599 -36.53   0
       477    472.1778    283.0811 307.7340875  +6.5668053     634.5385     848.7966     1194.318     77.86258     155.5391     311.5433      1.645     5.12     827.4047     54.92549     99.48132         8     1.286     0.576 -30.28   0
       478     73.1429    280.0434 307.8999359  +6.5547382     1506.404     2051.005     1342.285     77.98647     155.7871     311.6672      1.448     4.23     836.5242     54.92549     195.6014        14     1.251     0.785 -29.72   0
       479    359.2963    279.1922 307.7811060  +6.5646479     1820.536     3547.316     4258.404     77.86258      155.477     311.3883      2.234     5.90     828.7301     54.92549     235.1658        27     1.865     0.975 -20.20   0
       480   1008.2123    275.1677 307.5116850  +6.5878812     5380.335     8845.253     9223.131     77.61421     155.6011     311.5123      1.686     4.45     828.4426     54.92549     695.4923        31     1.641     0.943 -44.60   0
       481    486.1540    275.2812 307.7285424  +6.5704910     2152.059     3238.315     3326.011     78.11015     155.8491     311.6052      1.590     4.20     827.1637     54.92549     293.4487        21     1.502     0.834 -28.60   0
       482    248.7251    270.9215 307.8273109  +6.5643722     6077.451     9066.535     9372.064     78.35695     156.0967     311.6982      1.574     4.03     831.8608     54.92549     884.6157        28     1.558     0.852 -35.85   0
       483    813.3195    269.5041 307.5928326  +6.5837558      556.847     742.7383     707.2581     77.86258     156.0967     311.6982      1.634     4.37      829.898     54.92549     100.3175         5     0.996     0.545 -38.24   0
       484    768.1523    264.1548 307.6117732  +6.5844643      716.477     1056.467     1010.223     78.11015     155.7251     311.6052      1.427     5.30     829.6213     54.92549     116.8485         9     1.334     0.594 -37.20   0
       485    224.6616    264.1888 307.8375315  +6.5663480     549.7593     789.3666     534.7367     77.61421     155.6631     311.3883      1.402     1.96     832.6873     54.92549     125.1593         5     0.698     0.438 -70.67   0
       486    383.0090    261.7426 307.7718394  +6.5726425     1623.565     2777.752      3104.75     77.48973     155.7871     311.3263      1.782     4.37     828.0004     54.92549     254.0701        19     1.530     0.808 -38.61   0
       487    969.7381    260.2841 307.5281619  +6.5927509     1034.899     1523.802     1723.197     78.23365      155.911     311.6362      1.690     4.64     828.5823     54.92549     150.2957        11     1.077     0.757 -26.20   0
       488    152.5185    257.4297 307.8677240  +6.5667279     1682.398     2620.831     2708.251     77.98647     155.6631     311.6053      1.690     4.41     834.0732     54.92549     279.8853        17     1.503     0.797 -41.61   0
       489    305.1498    257.7280 307.8043148  +6.5717025      1156.73      1556.88     1686.961     78.11015     155.8491     311.6362      1.496     4.33     829.7546     54.92549     171.4752        10     1.179     0.597 -34.60   0
       490    189.7361    258.4915 307.8522293  +6.5675333     613.3472     917.2347     1202.785     78.11015     156.0348     311.6672      1.550     3.37     833.3059     54.92549     125.1626         5     1.141     0.288 -21.73   0
       491    562.3387    253.0616 307.6976376  +6.5822008     2215.525      3327.73     3309.907     78.11015     155.8491     311.6362      1.612     4.25     826.8005     54.92549     313.4922        17     1.416     0.759 -33.04   0
       492    906.0632    252.3088 307.5548782  +6.5939323     1462.851     2490.714     3096.931     78.11015     155.9729     311.6982      1.822     4.52     828.8994     54.92549     234.4084        14     1.512     0.614 -33.32   0
       493    725.9332    250.5178 307.6297652  +6.5886917     4913.155     7467.179     7411.364     78.23365     156.0967     311.6672      1.587     4.36      828.934     54.92549      691.178        27     1.590     0.836 -39.02   0
       494    963.7221    250.4532 307.5309876  +6.5966101     744.1479      1296.88     1178.508     78.23365     155.8491     311.6053      1.755     4.63     828.2785     54.92549     112.9382         8     1.168     0.521 -39.29   0
       495    666.9209    250.3678 307.6542841  +6.5867921     2177.011     3443.074     3787.066     77.98647     155.8491     311.5742      1.705     5.05     828.0188     54.92549     317.6249        19     1.485     0.787 -37.93   0
       496    381.5797    244.8266 307.7729984  +6.5795783     800.5526     1303.798     1359.596     77.61421     155.6631     311.5123      1.871     5.96     827.7225     54.92549     103.1932        12     1.536     0.650 -32.45   0
       497    922.3616    242.5850 307.5484309  +6.5984872     976.9475     1547.056     2097.674     77.86258     155.6631     311.3573      2.156     6.93     828.4096     54.92549     145.5743        13     1.366     1.036 -31.47   0
       498    225.3249    236.1004 307.8381962  +6.5779659     2347.522     3718.777     3344.607     77.61421     155.9729     311.5123      1.619     4.24     832.6364     54.92549     325.6072        20     1.494     0.790 -37.09   0
       499    868.1797    234.7537 307.5711993  +6.5999231     1789.675     2583.303     2352.307     77.73849     155.8491     311.4503      1.559     4.29     828.3132     54.92549     276.5804        16     1.395     0.752 -35.76   0
       500    758.5508    234.3308 307.6167546  +6.5964581     1674.301      2400.25     2498.019     78.11015     155.7871     311.6362      1.550     4.66     828.4963     54.92549     251.4801        16     1.522     0.655 -37.94   0
       501    578.9014    230.1338 307.6915223  +6.5922175     538.8934     817.4177     605.5609     78.11015     155.9729     311.6052      1.411     4.15     826.1293     54.92549     111.6919         7     0.960     0.513 -46.10   0
       502    247.1999    229.3774 307.8293347  +6.5814719     583.9095     656.4712     542.0999     77.61421     155.5391     311.3883      1.534     5.05     831.5676     54.92549     110.6013         9     1.361     0.530 -36.90   0
       503    320.2271    227.8684 307.7990506  +6.5845326     709.9453     1270.047     1306.611     77.73849     155.7251     311.5123      2.011     5.88     828.7704     54.92549      107.932         9     1.575     0.617 -48.38   0
       504    459.5788    225.5415 307.7412424  +6.5901399     22514.69      35014.2     37554.02     77.73849     155.7252     311.4193      1.724     4.89     826.2755     54.92549     3430.434        60     2.261     0.941 -40.68   0
       505    785.3629    224.7902 307.6059341  +6.6012873     12924.84     20302.19     21766.11     77.61421     155.6631     311.3263      1.687     4.36     828.1636     54.92549     1858.582        40     1.741     0.941 -32.19   0
       506    147.5474    219.2012 307.8710694  +6.5823434     2320.013      3438.22     3531.741     77.48973     155.5391     311.1712      1.593     4.18     833.8514     54.92549      342.944        20     1.472     0.803 -36.30   0
       507    122.1277    218.4405 307.8816538  +6.5818076      1030.16     1599.823     1874.812     77.98647     155.8491     311.6672      1.676     5.05     834.5751     54.92549     158.0916        12     1.361     0.628 -42.67   0
       508    174.0367    217.4638 307.8601244  +6.5839460     629.8581     1027.898     788.0471     77.98647     155.8491     311.6362      1.531     5.91     833.2743     54.92549      119.811        10     1.436     0.686 -48.58   0
       509    723.8098    220.6884 307.6316408  +6.6009360     656.8659     876.2411     1020.758     77.73849     155.5391     311.3883      1.486     5.20     827.7891     54.92549     87.27344        10     1.107     0.689 -40.68   0
       510    921.6591    215.4358 307.5496252  +6.6096723     1232.619     1890.819     2021.678     78.11015     155.8491     311.5742      1.704     4.90     827.2257     54.92549      186.075        12     1.192     0.728 -21.10   0
       511    583.4120    211.4501 307.6902717  +6.6000810      4780.78     7210.438     7541.907     77.48973     155.7252     311.3263      1.608     4.12     825.5285     54.92549     720.2848        29     1.618     0.874 -35.34   0
       512    546.0629    211.4998 307.7057852  +6.5988173     2070.138     3473.389     3596.585     77.86257     155.8491     311.6362      1.703     4.52     825.5285     54.92549     321.6842        18     1.503     0.763 -36.11   0
       513    303.6924    212.4686 307.8064340  +6.5903383     1291.099     1725.578     1786.152     78.11015     155.9729     311.6053      1.500     4.84       829.22     54.92549      190.006        11     1.208     0.591 -35.25   0
       514    388.0016    210.6962 307.7714715  +6.5938826     1536.706     2282.836     2114.024     77.61421     155.6011     311.2643      1.571     4.62     827.2716     54.92549     224.3511        16     1.382     0.754 -38.58   0
       515    689.1234    211.2460 307.6463646  +6.6036813     479.3085     637.2393     566.9311     77.98647      155.911     311.6362      1.581     5.45     827.0349     54.92549     82.49689         5     1.147     0.732   7.64   0
       516    944.3653    208.5107 307.5404226  +6.6132842     2632.658     4017.719     3994.424     78.23365     155.7871     311.6052      1.696     4.32     826.9488     54.92549     323.4583        24     1.584     0.898 -35.23   0
       517    890.4433    207.9723 307.5628411  +6.6117182     10782.74      16746.4      17615.7     77.73849      155.911     311.5123      1.652     4.28     827.0412     54.92549     1457.741        38     1.691     0.950 -42.22   0
       518    565.6683    208.3227 307.6977470  +6.6007816     967.7582     1293.444      1563.14     78.23365     155.9729     311.5742      1.547     5.13     825.4396     54.92549     149.2383        11     1.102     0.742 -27.75   0
       519    317.8171    208.9111 307.8006857  +6.5922783      849.069     1324.997     1628.238     77.86258     155.6011     311.4813      1.452     3.53     828.9064     54.92549     130.5007         8     0.951     0.589 -30.57   0
       520    209.5814    208.3104 307.8456661  +6.5889125      797.722     1136.056     301.0769     77.86258     155.6011     311.5123      1.561     5.17     832.7275     54.92549     111.9794        11     1.213     0.688 -26.72   0
       521    977.0917    205.7389 307.5269192  +6.6155134     9109.449      14527.5     15057.79     77.98647      155.911     311.6982      1.676     4.21     826.7241     54.92549     1271.385        39     1.692     1.003 -41.15   0
       522    688.3956    205.7668 307.6468495  +6.6059192     2752.439     4492.689      4477.98     77.36505     155.7251     311.3883      1.706     4.71      826.851     54.92549     383.0174        25     1.568     0.914 -38.55   0
       523     16.5620    204.8680 307.9259585  +6.5838789     25292.96     39154.38     41479.36     77.98647     155.8491     311.6982      1.674     4.05     836.9146     54.92549     3559.746        50     1.695     1.014 -37.95   0
       524    262.6655    205.8831 307.8236967  +6.5916874       1181.9     1342.212     1371.147     78.23365     156.0967     311.6672      1.438     5.55     830.8185     54.92549     154.5862        12     1.133     0.767 -36.92   0
       525    496.9746    201.0445 307.7265260  +6.6014990     2033.091     3017.533     2924.445     77.61421      155.911     311.4813      1.491     3.86     825.2031     54.92549     317.8698        18     1.439     0.733 -32.79   0
       526    829.0679    197.3751 307.5886905  +6.6140566     1966.022      2979.29     3286.518     77.73849     155.7251     311.5123      1.589     4.84     826.6298     54.92549     266.9857        17     1.543     0.703 -40.22   0
       527    508.9835    196.7095 307.7216820  +6.6036886     2455.073     3800.618     4155.684     77.86257     155.6011     311.5123      1.616     4.20     825.0806     54.92549     363.5112        19     1.496     0.814 -38.88   0
       528    881.3454    196.4303 307.5670045  +6.6161814     1938.991     3138.527     3727.082     77.98647      155.911     311.5433      1.855     4.57     826.5261     54.92549     281.2833        17     1.502     0.741 -38.27   0
       529    740.6544    193.9442 307.6255340  +6.6125368     39847.79     60472.98     63253.71     78.23364      155.911     311.6053      1.631     4.28     826.4089     54.92549     5783.989        57     1.716     0.990 -38.70   0
       530    343.0265    195.4788 307.7906629  +6.5986647     3911.078     5756.868     6082.333     77.98647     155.7871     311.5742      1.504     4.42     828.4225     54.92549     538.9368        18     1.479     0.707 -21.79   3
       531    344.1422    192.5728 307.7902966  +6.5999016     5441.063     8634.708     9419.182     77.73849      155.911     311.4813      1.723     4.19      828.416     54.92549     715.0027        27     1.595     0.920 -38.82   3
       532    974.3877    192.6388 307.5284778  +6.6208321     2734.583     4172.703     3873.953     77.61421     155.6631     311.3573      1.629     4.11     826.3967     54.92549     360.7535        23     1.462     0.930 -37.74   0
       533    908.5352    191.0863 307.5558867  +6.6192896     7164.737     11006.12     11319.01     78.23364     156.0348     311.6362      1.652     4.28     826.3933     54.92549     1033.192        31     1.627     0.911 -41.10   0
       534   1012.6118    191.3910 307.5126397  +6.6226139     1569.317     2388.804     2673.198     77.86258     155.6631     311.5433      1.621     4.14     826.2479     54.92549     210.4216        16     1.382     0.743 -36.60   0
       535    451.9215    190.2136 307.7456031  +6.6044693     5059.677     7788.534     7707.357     77.73849     155.6011     311.4193      1.590     4.00     825.5806     54.92549     718.6337        29     1.560     0.876 -38.29   0
       536    226.3429    187.1078 307.8394133  +6.5982254     762.7549     1115.328     1525.451     77.98647     155.7871     311.6982      1.805     3.93     832.4207     54.92549     122.3025         8     1.146     0.500 -26.27   0
       537    109.4125    181.6581 307.8881681  +6.5965670     4942.705      7537.28     7689.333     77.48973     155.7871     311.3263      1.637     4.27     834.2203     54.92549     699.7775        27     1.548     0.849 -38.29   0
       538    928.5616    181.0079 307.5479021  +6.6241146     661.7838     1077.092     1438.928     77.36504     155.6011     311.3263      1.640     5.53     826.1445     54.92549     100.4109        10     1.396     0.617 -50.89   0
       539    279.7145    178.3049 307.8175373  +6.6036417     33703.04     52092.83     55496.52     78.11015     156.2203     311.6672      1.665     4.07      830.256     54.92549     4954.683        62     1.755     1.022 -39.49   0
       540    254.9952    179.3271 307.8277716  +6.6023944     6330.933     10045.35     10981.33     77.73849     155.4149     311.5123      1.675     4.24       831.24     54.92549     910.5716        35     1.697     0.903 -38.85   0
       541    605.7668    180.2246 307.6820266  +6.6137159     711.1984     941.2681      1392.55     77.48973     155.6631     311.4193      1.284     2.64     824.6093     54.92549      185.584         7     0.916     0.505 -29.27   0
       542    708.8309    177.5981 307.6392987  +6.6182276     866.3291     1289.056     1370.143     77.48973     155.6631     311.4193      1.426     4.62     825.7013     54.92549     146.7758         9     1.208     0.501 -45.93   0
       543    403.7674    173.7574 307.7661567  +6.6096578     50725.65     77729.51     81005.14     77.73849     155.8491     311.4503      1.627     4.27     826.8045     54.92549     7545.387        63     1.703     1.010 -38.67   0
       544    159.5495    175.1577 307.8675593  +6.6009268     3924.337     5879.146     5902.672     78.23365     155.8491     311.6053      1.631     4.30     832.8489     54.92549     561.1932        26     1.596     0.861 -33.14   0
       545    421.0943    174.3861 307.7589378  +6.6099759     1390.036     2153.996     2333.104     77.86258     155.6011     311.4503      1.668     5.67     826.2725     54.92549      193.764        14     1.376     0.765 -36.43   0
       546    307.7709    171.4623 307.8061114  +6.6074031     18252.47     28341.04     29784.12     77.86258     155.8491     311.5433      1.656     4.24     829.4987     54.92549     2686.203        44     1.687     0.960 -38.84   0
       547    541.8822    171.7682 307.7088478  +6.6150808     384.1226     715.3737     867.1713     77.98647     155.7251     311.5123      1.709     3.47     824.3635     54.92549     105.0198         5     1.564     0.222 -62.72   0
       548    743.0489    169.8409 307.6253420  +6.6225671     32366.67     49403.57     51974.28     78.11015     155.8491     311.5433      1.588     4.14      825.058     54.92549     4868.053        54     1.702     0.963 -39.33   0
       549    691.1945    171.5628 307.6468265  +6.6201330     877.5966     1230.573     1092.392     77.24017     155.6011     311.3883      1.482     5.66     825.6166     54.92549     134.9915        11     1.458     0.708 -48.16   0
       550    315.4815    170.8468 307.8029289  +6.6079145     1976.279     3880.121     5215.293     78.11015     155.8491     311.6362      2.396     6.09     829.3265     54.92549     330.5668        27     1.988     0.944 -53.33   0
       551    791.3815    170.2631 307.6052489  +6.6239983     1157.503     1959.851     2295.401     77.73849     155.7871     311.4813      2.029     4.48     825.2407     54.92549     195.4299        11     1.360     0.616 -38.37   0
       552     59.8246    167.3310 307.9092468  +6.6008228     9012.472     13969.73     13794.98     77.73849     155.7251     311.5433      1.603     4.05     835.5693     54.92549     1310.546        37     1.626     0.925 -37.49   0
       553     93.7017    165.2956 307.8952427  +6.6027964     1540.352     2409.265     2375.718     78.11015     156.4056     311.4503      1.686     5.20     834.2686     54.92549     230.5613        18     1.624     0.757 -44.92   0
       554   1001.4517    164.2563 307.5181773  +6.6334465     1052.413     1469.027     1854.294     78.11015     155.8491     311.5742      1.710     4.51     825.6523     54.92549     141.4337        13     1.251     0.823 -37.78   0
       555    727.1476    158.0747 307.6323398  +6.6268963     619.5479     898.4587      942.158     78.11015      155.911     311.6052      1.511     4.05     824.5601     54.92549     129.0204         6     1.059     0.630 -29.97   0
       556    576.4677    154.7970 307.6950463  +6.6232384     784.9591     1192.067      957.895     77.48973      155.477     311.3883      1.435     5.23     823.9076     54.92549     151.6541        11     1.407     0.549 -31.40   0
       557   1002.5776    150.2118 307.5181761  +6.6392820     2047.654      3470.68      4401.32     77.73849     155.6631     311.5123      1.795     5.15     825.0167     54.92549     280.4159        21     1.653     0.823 -41.72   0
       558    585.4645    148.2145 307.6915284  +6.6262553     1078.831     1852.262     2225.819     77.61421     155.7251     311.4813      1.899     5.73      823.762     54.92549     151.7833        12     1.400     0.660 -38.11   0
       559    278.4585    144.6005 307.8191868  +6.6175139     31081.76     47456.34     50393.85     77.36505     155.5391     311.2953      1.671     4.01     830.5388     54.92549     4586.884        61     1.933     0.999 -32.78   0
       560    593.8210    146.1615 307.6881253  +6.6273809     2050.279     3154.312     3237.287     77.73849     155.6011     311.3573      1.622     4.60     823.7366     54.92549     302.4996        19     1.597     0.700 -39.27   0
       561    337.8819    146.3173 307.7944439  +6.6187884     932.3722     1385.756      1367.76     77.86258     156.0967     311.6982      1.684     5.13     828.8987     54.92549     161.0056        10     1.632     0.484 -46.09   0
       562     23.8622    143.1574 307.9249962  +6.6095986     4491.599     7129.348     7608.531     78.11015     155.7871     311.6982      1.698     4.14     836.9918     54.92549     619.2085        28     1.562     0.950 -43.48   0
       563    710.2742    141.0278 307.6399175  +6.6333732     8044.186     12245.09     12714.86     77.98647     155.7871     311.5433      1.599     4.11      824.153     54.92549     1229.714        33     1.587     0.935 -41.13   0
       564    264.0530    139.8029 307.8253316  +6.6190135     788.0271      1016.13     1406.227     77.48973     155.6631     311.2022      1.394     4.25     831.0187     54.92549     123.6275         8     1.210     0.444 -29.47   0
       565    120.9464    138.3587 307.8848281  +6.6148277     5015.317     7578.388     7685.767     77.98647      155.911     311.6672      1.574     3.94     832.9044     54.92549     712.1234        24     1.445     0.863 -37.26   0
       566    582.8008    136.7413 307.6930177  +6.6309032     638.9414     1074.968     1169.009     77.36504     155.5391     311.2953      1.494     3.42     823.5153     54.92549     121.3002         5     0.988     0.342 -39.83   0
       567    459.8562    135.5812 307.7441316  +6.6272878     1281.044     1872.108     1751.186     77.61421     155.7871     311.4193      1.474     4.16     824.2032     54.92549     206.8103        13     1.412     0.573 -35.65   0
       568    391.7166    134.2970 307.7724816  +6.6255465     3731.821      6480.38     6607.878     78.11015     156.2203     311.6672      1.833     4.47     826.7886     54.92549     488.6504        35     1.648     1.166 -50.22   0
       569    648.6966    134.8794 307.6657042  +6.6338642     818.9092     1352.026      879.999     77.86258     156.0967     311.6982      1.605     5.53     824.0955     54.92549     157.1782        10     1.316     0.680 -30.60   0
       570    110.2630    133.4099 307.8894319  +6.6165134     1715.018     2754.405     2606.018     77.61421     155.6631     311.4193      1.745     4.23     832.9424     54.92549     230.9844        20     1.548     0.796 -32.87   0
       571    568.4636    132.8245 307.6991046  +6.6320430     739.3383     1214.896     1289.553     77.73849     155.8491     311.5433      1.783     5.51     823.3702     54.92549     110.8145         8     1.312     0.654 -47.15   0
       572    356.2176    133.1156 307.7872683  +6.6248502     3142.061     4852.605     4952.121     77.73849     155.6011     311.5433      1.611     4.15     828.4011     54.92549     482.5475        20     1.581     0.717 -39.69   0
       573    746.1493    131.1737 307.6253417  +6.6386335     517.4496     784.5723     853.6348     77.73849      155.911     311.5123      1.464     4.27     823.4164     54.92549     78.50208         6     1.214     0.428 -29.44   0
       574    671.8181    131.0075 307.6562277  +6.6362315      781.257     1043.894     1032.553     77.73849     155.6011     311.4503      1.541     4.61     824.2393     54.92549     130.3948         8     1.010     0.597 -22.98   0
       575     48.4974    128.7308 307.9152466  +6.6163787     553.9738     669.4877     505.5854     77.98647     156.0348     311.6053      1.355     5.25     835.7177     54.92549     85.03925         5     1.020     0.763 -86.29   0
       576   1003.1450    127.1678 307.5187058  +6.6488144     1403.153     2194.215     2194.016     77.98647     155.8491     311.5433      1.733     5.33     823.8297     54.92549     195.3592        13     1.321     0.673 -35.31   0
       577    187.4612    142.6505 307.8570535  +6.6152795     915.8564     1282.257     1512.157     78.11015     155.7871     311.6362      1.579     4.18     832.3033     54.92549     147.8622         7     1.016     0.491 -28.39   0
       578    207.9492    122.0760 307.8492315  +6.6244577     5559.689     8493.993     8259.762     78.11015      155.911     311.6052      1.574     3.91     832.1479     54.92549     812.0311        31     1.606     0.909 -41.17   0
       579    669.7955    120.8655 307.6574060  +6.6403513     6264.941     9528.896     10104.55     77.48973     155.5391     311.3883      1.587     4.33     823.8155     54.92549     950.0358        30     1.648     0.828 -39.35   0
       580     90.8438    121.8713 307.8978856  +6.6206273     2185.638     3527.419      3841.93     77.98647     155.8491     311.6362      1.744     4.79     833.1361     54.92549     341.5344        24     1.857     0.785 -42.23   0
       581    818.1534    120.2763 307.5957905  +6.6455238      971.835     1554.233     1518.576     77.98647      155.911     311.6362      1.698     5.60     822.9506     54.92549     153.5889        12     1.549     0.571 -33.67   0
       582    622.0237    118.0680 307.6773458  +6.6399173     9360.662     14529.13     15972.26     77.73849     155.7871     311.5742      1.618     4.28      823.342     54.92549     1351.295        35     1.647     0.902 -38.32   1
       583    256.7013    119.0384 307.8290806  +6.6273402     818.3419     1298.847     1475.452     78.11015     155.7251      311.822      1.526     4.43     831.2833     54.92549     144.6152         8     1.120     0.499 -38.39   0
       584     20.8285    117.4762 307.9271179  +6.6200987     1016.551     1484.786      1415.91     77.98647      155.911     311.6053      1.599     4.94     837.2674     54.92549     186.4523        10     1.199     0.595 -45.13   0
       585    349.1866    113.8936 307.7908318  +6.6325511     3768.784     6487.968     7320.153     77.86258     155.6011     311.4503      1.835     5.07     828.6882     54.92549     554.0182        29     1.817     0.844 -40.02   0
       586    530.8766    113.2880 307.7153716  +6.6388570     1878.192     3086.805     3519.753     78.11015     156.1585     311.6982      1.672     4.72     822.8274     54.92549     273.4682        18     1.557     0.742 -36.36   0
       587    995.3256    112.6960 307.5224352  +6.6545299     605.7827     952.9179     1088.799     77.86258     156.0348     311.6053      1.534     5.38     823.1054     54.92549     89.73108         9     1.283     0.636 -34.48   0
       588    625.4875    109.6044 307.6761890  +6.6435266      53572.4     81129.04     85666.87     77.61421     155.5391     311.2953      1.664     4.31     823.1704     54.92549     7897.492        66     1.719     1.006 -39.14   0
       589    304.5107    103.2962 307.8097460  +6.6354351     3662.889      5721.44     6305.115     78.11015     156.2203     311.6362      1.732     4.74     830.0043     54.92549     526.8107        29     1.608     0.987 -44.58   0
       590    750.2302   1021.2181 307.5940260  +6.2713185      687.559     1394.677      2107.68     77.73849     152.1506     270.4745      2.073     6.06     851.7302     54.92549      88.2666         9     1.416     0.730 -40.04  16
       591    704.3676     98.2180 307.6437977  +6.6508504     975.9809     1362.092     861.5562     77.73849     155.6631     311.4813      1.414     4.21     822.5533     54.92549     154.3547        10     1.114     0.637 -37.42   0
       592    675.7857     96.9690 307.6557138  +6.6504158     1450.265     1997.767     1747.104     77.73849     155.6011     311.5433      1.412     4.54     822.8227     54.92549     223.2997        12     1.382     0.586 -37.94   0
       593    689.8263     93.5021 307.6499962  +6.6523139      3213.22      4854.22     4834.616     78.23365     155.6011     311.5433      1.643     4.30     822.5506     54.92549     476.4728        23     1.549     0.778 -42.38   0
       594    431.5970     84.7134 307.7575708  +6.6473458     4174.728     6228.698     6126.534     77.48973      155.477     311.3263      1.616     4.12      824.527     54.92549     596.3862        25     1.548     0.811 -36.36   0
       595    886.0284     80.9093 307.5689010  +6.6640287      2156.67     3374.754     3577.508     78.23365     155.6011     311.4813      1.585     4.38     821.5471     54.92549     310.9508        19     1.472     0.827 -37.55   0
       596    904.1977     79.8536 307.5613873  +6.6650673     3617.165     5736.187     5605.681     77.48973     155.6011     311.2332      1.659     4.65     821.5936     54.92549     512.1401        25     1.589     0.846 -39.84   0
       597    596.0513     78.5904 307.6894527  +6.6553509     1747.853     2715.559     2656.106     77.61421     155.7251     311.3263      1.606     4.13     822.0753     54.92549      254.407        16     1.452     0.666 -41.48   0
       598    584.2329     80.5912 307.6942960  +6.6541316     688.8115     918.3586     1006.191     77.61421     155.6631     311.4503      1.350     3.39     822.0917     54.92549     117.2577         5     0.788     0.422 -22.25   0
       599    241.8730     78.2186 307.8366070  +6.6436964       757.14      1199.86     1847.436     77.61421     155.7871     311.5433      2.193     4.97     831.3492     54.92549     132.7079         8     1.680     0.416 -36.02   0
       600    395.0526     76.4572 307.7730289  +6.6495358     1974.066     2712.953     2752.843     78.11015     155.8491     311.6052      1.551     4.45     826.4148     54.92549     319.1234        17     1.464     0.712 -34.72   0
       601    143.0583     73.3599 307.8778206  +6.6424000     3085.883     4799.658     4605.114     78.11015     155.8491     311.6672      1.567     4.15     831.2237     54.92549     452.8795        22     1.546     0.808 -38.66   0
       602    290.9738     71.9312 307.8164191  +6.6479315     1292.457     2285.835     3422.274     77.73849     155.7251     311.5123      2.211     5.02     830.4569     54.92549     197.7229        15     1.380     0.874 -36.60   0
       603     24.7958     71.2741 307.9270198  +6.6393046     12201.46     19396.41     21065.41     77.73849     155.4149     311.4813      1.692     4.12      834.978     54.92549     1704.229        43     1.704     0.995 -38.40   0
       604    564.4188     71.1650 307.7028423  +6.6573635     821.6865     1064.496     704.7913     77.61421     155.6631     311.3883      1.506     3.89     821.7008     54.92549     129.8771         9     1.055     0.608 -21.17   0
       605    551.7455     70.6222 307.7081256  +6.6571657     729.6255     1147.385      975.864     77.61421     155.8491     311.4193      1.651     5.80     821.6717     54.92549     122.6683        11     1.693     0.560 -37.26   0
       606    760.0845     69.9637 307.6215908  +6.6643663     652.8606     929.6917      1784.28     78.11015     155.8491     311.5742      1.414     4.11     821.2585     54.92549     95.40466         7     0.892     0.542 -44.74   0
       607    893.3361     66.7961 307.5663343  +6.6700977     629.2255     1142.939     845.2502     77.36504     155.6011     311.3883      1.793     5.46     821.1449     54.92549     99.74451         8     1.482     0.567 -34.70   0
       608    771.7303     66.0441 307.6168829  +6.6663713     3310.286      4824.04     4770.793     78.11015     155.7871     311.6052      1.548     4.47     821.1159     54.92549     496.4393        23     1.515     0.813 -37.42   0
       609    416.8667     66.6730 307.7642934  +6.6543023     1073.581     1626.808     1416.896     78.23365     155.9729     311.5742      1.596     4.38     825.4781     54.92549     157.5769        12     1.293     0.675 -39.38   0
       610    826.5356     65.6300 307.5941267  +6.6683623     6081.945     9303.172     9733.701     77.86258     155.9729     311.5433      1.665     4.15     821.0475     54.92549     899.8866        35     1.639     0.976 -41.13   0
       611    758.6503     65.2820 307.6223426  +6.6662515     645.1244     1209.223     1878.455     78.11015      155.911     311.6362      2.409     4.03     821.1113     54.92549     105.6102         7     1.068     0.446 -28.66   0
       612    534.1844     64.1741 307.7156367  +6.6592430     1164.555     1683.474     2143.813     77.86258     155.7251     311.5433      1.568     4.75     821.6733     54.92549     200.9212        11     1.258     0.584 -52.72   0
       613     65.1659     63.0833 307.9105238  +6.6440370     3284.671     4991.031     5035.012     78.11015     155.8491     311.5742      1.551     4.10     832.5861     54.92549     468.3382        21     1.504     0.797 -40.88   0
       614     49.9784     63.8431 307.9168076  +6.6432151     940.4997     1122.362     858.8536     77.61421     155.7251     311.4193      1.477     5.17     833.3008     54.92549     153.9717        11     1.332     0.567 -34.62   0
       615    425.8384     62.8016 307.7606954  +6.6561996     1071.974     1552.831     1893.178     77.24017     155.6011     311.3573      1.602     4.50     825.1536     54.92549     193.7991        11     1.322     0.651 -23.10   0
       616    588.6259     59.9157 307.6931606  +6.6628133     1136.115     1739.814     1038.216     78.23365     155.6011     311.4813      1.529     4.80     821.3715     54.92549     183.8383        12     1.372     0.561 -37.33   0
       617      7.3382     58.6429 307.9346959  +6.6439345      2634.58     4231.924     4775.951     78.11015     155.7871     306.5453      1.781     4.13     834.7327     54.92549     402.1051        26     1.646     0.942 -36.92  16
       618     79.9763     54.5457 307.9046575  +6.6480570     930.0899     1428.816      1240.73     77.61421     155.8491     311.4193      1.544     4.11     831.6408     54.92549     144.1843         9     1.164     0.604 -27.20   0
       619    766.3022     53.4769 307.6195566  +6.6713792     2005.746     3042.732     3113.508     77.73849     156.0967     311.6362      1.684     5.25     820.7444     54.92549      284.568        17     1.467     0.748 -39.57   0
       620    406.8985     53.7598 307.7688662  +6.6593009     1066.595     1663.445      1575.43     78.11015     155.7251      311.822      1.558     5.50      826.226     54.92549     147.1567        11     1.420     0.601 -43.94   0
       621    658.1539     53.2983 307.6644949  +6.6678584     520.9542      564.436     564.2445     78.11015     155.7251     311.7911      1.572     3.44     821.0192     54.92549     110.6947         5     0.972     0.351 -46.65   0
       622    103.6798     52.9316 307.8948644  +6.6495163     964.0938      1264.47     759.2482     78.23365     156.0967     311.5742      1.450     4.30     830.9499     54.92549     147.9182         7     1.072     0.492 -27.39   0
       623     92.8493     47.4081 307.8995489  +6.6514343     9348.028     15000.45     15111.93     77.61421     155.6631     311.2953      1.705     4.38     830.9514     54.92549     1315.907        42     1.689     1.024 -40.86   0
       624    421.8997     47.1220 307.7628557  +6.6625413     2702.027     4203.458     3945.991     77.86258     156.0967     311.6362      1.618     4.42     825.6757     54.92549     375.6754        20     1.470     0.776 -37.33   0
       625    242.9201     46.9831 307.8372177  +6.6566261     657.0468     1089.966     1543.489     77.73849     155.5391     311.4813      1.547     3.52     830.7701     54.92549     120.0667         5     0.989     0.361 -57.30   0
       626    259.3737     41.6308 307.8305612  +6.6593852     1493.323     2324.336     3575.358     77.61421     155.6011     311.4503      1.746     4.13     830.6229     54.92549     195.4148        17     1.345     0.858 -37.79   0
       627    664.4518     41.2992 307.6622783  +6.6730214     443.7348     580.4733     809.7975     78.11015     155.8491      311.822      1.109     3.78      820.508     54.92549     97.07727         6     0.909     0.458   0.94   0
       628    635.6043     39.2846 307.6743308  +6.6728937     18391.31      28109.1     29363.45     77.61421      155.477     311.2953      1.639     4.19     820.4742     54.92549     2692.701        42     1.681     0.917 -38.62   0
       629    945.1237     38.8490 307.5457469  +6.6833530     477.4771     882.8494     900.1127     77.98647      155.911     311.6052      1.865     6.06      819.587     54.92549     81.70294         9     1.596     0.647 -47.90   0
       630    535.3019     35.3843 307.7161335  +6.6711655     5075.954     7657.979     7966.625     78.11015     155.6011     311.3573      1.630     4.06     821.0022     54.92549     773.8242        30     1.572     0.956 -37.80   0
       631    253.6293     35.7822 307.8331435  +6.6616078      1826.22     3078.028     3893.442     77.73849     155.6631     311.5433      1.825     4.32     830.5579     54.92549     266.1121        20     1.487     0.858 -38.66   1
       632      2.7984     33.8142 307.9374151  +6.6540321     1238.766     1684.384     1647.025     77.73849     142.9245     256.8165      1.539     4.73     832.4236     54.92549     242.3456        14     1.579     0.599 -42.29  24
       633    691.7357     34.1176 307.6511820  +6.6768935     689.9197     961.5372      968.598     78.23365     155.9729     311.6362      1.568     4.48     820.1938     54.92549     102.2125         8     1.057     0.541 -38.03   0
       634    622.6023     33.4636 307.6799269  +6.6748642     984.8833     1773.941     2275.248     77.48973     155.6011     311.3883      1.927     5.67     820.2535     54.92549     163.5567        12     1.581     0.573 -16.83   0
       635    440.9081     31.0018 307.7554971  +6.6698299      22531.9     34752.58     36114.22     77.48973     155.5391     311.3573      1.576     4.10     824.8109     54.92549     3398.476        49     1.680     0.982 -38.72   0
       636    321.3326     31.9074 307.8051457  +6.6654677     1035.686     1644.292     1806.263     77.98647     155.9729     311.6362      1.672     4.44     829.5624     54.92549     161.5045        15     1.345     0.820 -33.87   0
       637    261.5031     31.4674 307.8300168  +6.6636520     9421.092     14347.74      15588.3     78.11015      155.911     311.6362      1.686     4.02     830.4953     54.92549     1345.667        37     1.630     0.969 -38.12   0
       638    918.6844     30.8854 307.5569968  +6.6857639     1847.317     2684.549     2723.165     77.86258     155.9729     311.6362      1.607     5.26     820.0276     54.92549     268.1497        20     1.627     0.776 -37.32   0
       639     26.7878     31.2747 307.9275343  +6.6558836     2257.864      3417.01     3957.464     77.61421     155.5391     311.3883      1.666     4.46     831.7032     54.92549     299.0622        19     1.415     0.837 -37.03   0
       640    554.3638     30.5424 307.7083755  +6.6737991     552.8654     808.5393     1098.402     78.11015     155.8491     311.6052      1.808     3.74     820.5938     54.92549     131.3058         7     1.107     0.558 -48.26   0
       641    525.9476     30.8751 307.7201704  +6.6727156     539.1785     854.8223     696.5961     78.11015      155.911     311.6052      1.471     4.60     821.1406     54.92549     80.86591         7     1.360     0.441 -22.35   0
       642    621.6313     29.1992 307.6804725  +6.6765924     3196.238     5093.442     5630.481     77.48973     155.6631     311.3883      1.723     4.53      820.093     54.92549     435.3674        20     1.523     0.758 -36.44   0
       643    249.4960     28.0545 307.8351194  +6.6646599     3006.125     4704.792     5071.898     77.98647     155.8491      311.822      1.695     4.34     830.4378     54.92549     444.8361        21     1.618     0.727 -38.61   0
       644    302.7033     26.0729 307.8130805  +6.6672546      988.358     1570.637     1890.801     77.73849     156.0348     311.5742      1.722     5.94     830.0991     54.92549     151.9214        12     1.549     0.641 -46.37   0
       645    939.5618     21.0566 307.5486493  +6.6905140     939.9404     1289.709     1436.732     78.11015      155.911     311.6052      1.476     3.66     819.0424     54.92549       133.51        10     1.027     0.630 -29.15   0
       646    717.9119   1020.2266 307.6074758  +6.2706545     6056.664     10737.71     11690.75     78.23365     155.6011     282.4858      1.904     4.25     852.4448     54.92549     695.6874        41     1.737     1.152 -37.41  16
       647     95.4208     21.4614 307.8993505  +6.6622315     708.0412      936.858     682.2142     77.73849     155.8491     311.5433      1.397     2.60     830.2599     54.92549     142.4613         5     0.911     0.453 -46.51   0
       648    256.0428     15.9223 307.8328056  +6.6698870     718.2496     1352.041     1791.447     77.98647     155.8491     311.6672      2.323     4.97     830.2957     54.92549     108.0881         9     1.209     0.661 -30.69   0
       649    201.6474     16.6117 307.8553814  +6.6677853     689.0215     744.2737     507.1627     77.48973     155.7251     311.2953      1.400     3.43     830.1653     54.92549     104.9191         5     1.101     0.309 -20.89   0
       650    432.8392   1020.5104 307.7258115  +6.2610553     3451.909     6149.536     6383.497     78.11015     155.7871     279.4277      1.894     4.84     854.4435     54.92549     452.2933        33     1.759     1.065 -44.17  16
       651    574.0781   1019.3671 307.6672161  +6.2662285     3542.134     6437.214     7810.868     77.98647     155.8491     292.1953      2.010     4.52     854.4091     54.92549     406.0897        35     1.730     1.151 -41.94  16
       652    710.4044   1019.5450 307.6106153  +6.2706865     1100.078     1965.681     2191.059     77.48973     155.6631     289.9067      1.908     4.43     852.5307     54.92549     145.3723        15     1.213     0.871 -14.31  17
       653    749.9194   1015.5909 307.5943422  +6.2736313     1078.264     1979.574     2633.513     77.73849      155.477     311.4813      1.901     4.86     851.6744     54.92549     149.3853        13     1.213     0.848 -39.31   0
       654    957.5838   1009.6006 307.5083284  +6.2829928     5018.971     10021.31     10912.06     77.73849     155.4149     311.3263      2.125     4.78     846.6505     54.92549     564.5144        46     1.910     1.322 -40.47   0
       655    712.2424   1010.2059 307.6101629  +6.2746032     906.4132     1489.165     2098.105     77.48973     155.5391     311.3263      1.748     5.88     852.3738     54.92549     139.4515        10     1.318     0.738 -40.41   3
       656    717.1695   1007.9162 307.6081936  +6.2757122     2403.287     4339.099     5108.306     78.11015     155.6631     311.4813      2.028     7.77     852.2935     54.92549     327.5103        31     2.125     1.046 -42.26   2
       657    242.1596   1009.9124 307.8053220  +6.2590734     1010.126     1603.626     1156.432     78.11015     155.7871     311.6362      1.625     5.75      853.431     54.92549      170.688        13     1.488     0.630 -24.14   0
       658    440.3076   1008.5383 307.7231105  +6.2662466     853.9091     1430.226     1333.591     78.11015     155.8491     311.6672      1.785     6.27     854.2515     54.92549     110.3058        11     1.170     0.943 -76.87   0
       659    732.6518   1007.1832 307.6017905  +6.2765290     812.0456     1337.564     930.6154     77.61421      155.911     311.3573      1.782     6.67     852.1097     54.92549     102.5221        14     1.370     0.910 -17.66   0
       660    363.7506   1005.6423 307.7549886  +6.2648914     1731.304      2705.46     3444.385     78.11015     155.7871     311.5742      1.804     4.31     853.2552     54.92549     220.0372        18     1.351     0.877 -34.25   0
