#   1 NUMBER                 Running object number                                     
#   2 X_IMAGE                Object position along x                                    [pixel]
#   3 Y_IMAGE                Object position along y                                    [pixel]
#   4 ALPHA_J2000            Right ascension of barycenter (J2000)                      [deg]
#   5 DELTA_J2000            Declination of barycenter (J2000)                          [deg]
#   6 FLUX_APER              Flux vector within fixed circular aperture(s)              [count]
#   9 FLUXERR_APER           RMS error vector for aperture flux(es)                     [count]
#  12 FLUX_RADIUS            Fraction-of-light radii                                    [pixel]
#  13 FWHM_IMAGE             FWHM assuming a gaussian core                              [pixel]
#  14 BACKGROUND             Background at centroid position                            [count]
#  15 THRESHOLD              Detection threshold above background                       [count]
#  16 FLUX_MAX               Peak flux above background                                 [count]
#  17 ISOAREA_IMAGE          Isophotal area above Analysis threshold                    [pixel**2]
#  18 A_IMAGE                Profile RMS along major axis                               [pixel]
#  19 B_IMAGE                Profile RMS along minor axis                               [pixel]
#  20 THETA_IMAGE            Position angle (CCW/x)                                     [deg]
#  21 FLAGS                  Extraction flags                                          
         1    440.2647     24.5208 307.7616606  +6.6823632     4142.157     8787.014     9898.023     87.69551     174.4925     348.7076      2.260     5.11     1062.415      61.4715     402.0393        48     1.893     1.461 -82.54   0
         2     41.3037     24.1660 307.9275101  +6.6691536      5861.85     12166.51     13502.83     87.55751     174.2844      348.881      2.208     4.94     1082.395      61.4715     644.0603        49     1.886     1.388 -83.93   0
         3    336.8465     19.4356 307.8048214  +6.6810065     8338.011      18361.8     21001.38     87.00335     174.4231     348.6382      2.327     5.10     1073.375      61.4715     822.6594        64     2.005     1.578 -80.36   0
         4    110.7433     19.8547 307.8987925  +6.6732627     1791.255     3627.427     4497.761     87.55751     174.4924     348.7769      2.260     5.61     1078.257      61.4715     191.5161        27     1.508     1.260 -62.15   0
         5    402.9707     17.7145 307.7773926  +6.6839281     1326.151     2835.999     3503.212     87.55751     174.0762     348.5689      2.309     5.62      1065.92      61.4715     154.7766        24     1.471     1.186 -68.86   0
         6    663.7695     12.7943 307.6691453  +6.6946645     7528.275     15387.27     17603.38     86.86425      174.215     348.4995      2.184     4.74     1054.347      61.4715     794.2223        54     1.909     1.393 -85.20   3
         7    664.8123      4.4889 307.6689910  +6.6981294     2389.205     4752.602     6527.302     87.14222     174.1456     312.4204      2.550     4.80     1054.157      61.4715     294.1791        32     1.675     1.250 -78.96  19
         8    828.5421     12.3561 307.6006626  +6.7003327     1276.537     2509.109     2964.655     87.28087     174.3538     348.8463      2.171     6.88     1047.592      61.4715     179.0985        20     1.792     0.913  64.95   0
         9    541.6519     12.7720 307.7199104  +6.6906009     964.9171     2011.374     2205.847     87.00335     174.5617     348.6382      2.412     6.09     1055.446      61.4715     134.6866        11     1.098     0.949  -0.68   0
        10    898.5961      9.9757 307.5716200  +6.7036459     1343.792     2313.608     2660.504     87.00335     174.1456     348.5689      1.891     4.85     1046.189      61.4715     159.6976        19     1.342     0.982  87.41   0
        11    264.0167      9.7647 307.8354217  +6.6825639     3970.921     9230.476     10718.46     87.00335      174.215     348.4995      2.412     5.59     1078.652      61.4715     441.9316        47     1.816     1.582 -62.06  16
        12    655.4141      8.2123 307.6727727  +6.6962784     6543.782     13206.54     15635.34     87.28087     174.0762     348.0829      2.217     4.79     1054.422      61.4715     672.4337        55     1.861     1.494 -74.90  17
        13    425.4643      8.3395 307.7683583  +6.6885516     5210.658     11194.82      12179.8      87.4193     174.3538     348.4301      2.252     5.08     1064.066      61.4715     524.2297        49     1.841     1.470 -84.60  16
        14    687.2697      5.8971 307.6596080  +6.6982963     9366.711     24797.56     31950.52     87.28087      174.631      329.744      2.818     7.29     1054.039      61.4715     1018.366        82     2.637     1.629 -44.30  24
        15    740.7414      7.1447 307.6373374  +6.6995623     1248.019     2424.755      2017.47     87.55751     174.4231     341.4895      2.024     6.05     1053.614      61.4715     157.5558        19     1.516     0.983 -82.77  16
        16    204.0457      4.4812 307.8605288  +6.6827381     899.4767     1793.776     1824.933      87.4193     174.4231     312.5752      2.146     7.57     1078.095      61.4715     134.9615        12     1.667     0.961 -44.56  16
        17     71.8518      2.3832 307.9155492  +6.6791742     2045.062     3258.157     3092.074     86.44563     154.8106     280.6118      1.733     4.64      1079.13      61.4715     255.6128        21     1.270     1.138 -18.44  24
        18    162.2608      1.4837 307.8779991  +6.6825764     1258.052      1656.35     1945.867     78.22112     141.1651     265.2379      1.397     4.51     1078.043      61.4715     190.4711        10     1.140     0.608  -0.69  24
        19    123.2350    993.9530 307.8607004  +6.2713776     652.7076     887.6012      1305.48     87.00335     174.3538     348.6729      1.659     4.82     1105.431      61.4715     106.1481         7     0.978     0.674   1.88   0
        20    556.8981   1020.2837 307.6796898  +6.2749919     3758.511     6325.113     6955.495      87.4193     174.8386     315.5399      1.789     4.12     1103.638      61.4715     496.8662        30     1.594     1.035  88.92  19
        21    554.0803   1012.5114 307.6811214  +6.2781080     7621.118     12644.27     13723.58     87.14222     174.7002     348.8463      1.828     4.15     1103.528      61.4715     927.2141        38     1.657     1.082 -89.43   2
        22    527.3079   1021.7403 307.6919315  +6.2734036     923.4886     1648.395     1444.268     87.28087     165.5308     295.1451      1.870     5.68     1103.921      61.4715     148.0659        10     1.352     0.673 -74.24  24
        23    307.1195   1019.0923 307.7834769  +6.2671461     13007.72      22339.2     24784.37     87.14222     174.7002     329.9273      1.893     4.07     1105.369      61.4715     1618.036        62     1.825     1.364 -58.46  24
        24    825.9009    990.5428 307.5689508  +6.2962323     2155.052     3469.069     3650.795     87.14222     174.4231     348.9503      1.723     4.09     1098.493      61.4715     297.1361        21     1.397     0.926 -86.91   0
        25    774.2174    988.5120 307.5904875  +6.2953520     6257.646     10211.53     11471.27     87.14222     174.1456     348.6035      1.803     4.12     1099.368      61.4715     851.2765        33     1.701     0.965 -81.53   0
        26    561.1226    987.8649 307.6790244  +6.2885223     805.4185     1349.342     999.0288     87.55751     174.4231     348.7076      1.809     5.52     1103.218      61.4715     113.9373        10     1.280     0.672  75.85   0
        27    243.7998    987.2628 307.8108495  +6.2781751     1376.611      2198.56     1924.967      86.5854     174.1456     348.4301      1.754     5.19     1105.173      61.4715     188.0636        16     1.425     0.800  84.67   0
        28    208.2977    986.7068 307.8256142  +6.2772172     805.1221     1596.595     1128.787      87.4193      175.046     348.6729      2.034     6.12     1105.163      61.4715     110.6593        10     1.268     0.832 -84.17   0
        29     68.8790    985.6931 307.8835556  +6.2729685     2312.795     4045.723     4146.094     87.14222      174.631     348.8116      1.917     4.72     1105.712      61.4715     284.5826        25     1.628     0.991 -89.49   0
        30    962.3234    983.6379 307.5125135  +6.3036175     6800.687     10277.67     10297.83     87.28087     174.4924     348.7423      1.664     4.06     1095.827      61.4715     894.0492        31     1.520     0.985 -85.73   0
        31    218.8187    979.4498 307.8214889  +6.2805664     657.2535     1034.349     1351.052     86.86425     174.4924     348.5342      1.452     3.13     1105.115      61.4715     116.3193         5     0.732     0.472 -16.42   0
        32    644.3529    977.7463 307.6447923  +6.2954752     821.9519     1170.405     1504.334      87.4193     174.4231     348.7769      1.666     4.65     1101.719      61.4715     97.28699         7     1.121     0.548  27.65   0
        33    936.0548    975.1512 307.5237095  +6.3062504     2178.561     3390.191     4248.157      87.4193     174.4231     348.8116      1.810     4.82     1095.944      61.4715      349.733        20     1.561     0.834 -88.39   0
        34    269.2016    971.6074 307.8008263  +6.2854903     3816.319     6635.215     6811.612     86.72494     174.0762     348.5342      1.812     4.22     1105.096      61.4715      420.364        34     1.525     1.241 -88.04   0
        35    795.4186    971.7350 307.5822433  +6.3029866     1040.639      1705.06     1943.549     87.00335     174.4231     348.5689      1.640     4.38     1098.135      61.4715     161.6006         9     1.213     0.697  77.51   0
        36    656.8911    971.3136 307.6398001  +6.2985497     4073.416     6753.568     7201.154     87.14222     174.9077      348.881      1.739     4.14     1101.232      61.4715     476.2001        27     1.467     1.047 -87.27   0
        37   1006.5554    970.8115 307.4945689  +6.3103838     772.5886     1004.005      1146.64     86.86425     174.2844     348.4301      1.588     5.87     1094.094      61.4715     135.5096         6     1.355     0.715  86.07   0
        38     37.9506    968.7426 307.8969740  +6.2789328     1820.043     2934.326     2800.971      87.4193     174.4231     348.8116      1.652     4.79     1105.648      61.4715      251.895        18     1.579     0.708  87.02   0
        39    479.0059    969.4281 307.7137535  +6.2933981     953.0096     1554.622     1164.831     86.86425      174.215     348.5342      1.880     5.29     1103.662      61.4715     106.9143        10     1.023     0.774 -48.13   0
        40    888.7028    967.4510 307.5436372  +6.3078575     766.2043     1103.352     844.2673     87.28087     174.3538     348.9503      1.521     4.54     1096.515      61.4715     128.3088         8     1.113     0.526 -69.62   0
        41    960.3099    964.5533 307.5139887  +6.3114331     792.8911     1063.454     498.3448      87.4193     174.2844      348.881      1.665     4.44     1094.838      61.4715     135.3521         8     1.287     0.435 -82.59   0
        42    581.5945    964.1092 307.6713191  +6.2990163     1461.115     2494.739     2242.412     87.00335     174.0762     348.4648      1.900     6.22     1102.686      61.4715     165.3988        17     1.333     0.956  76.32   0
        43   1013.0510    962.8431 307.4921372  +6.3138905     890.2273      1472.75     1169.651     87.55751     174.4231     348.7769      1.678     6.07     1093.577      61.4715     149.0706        12     1.795     0.577 -78.29  16
        44    620.5193    959.9014 307.6552916  +6.3020514     1121.258     1601.095     1466.782     87.28087     174.8386     348.8116      1.619     3.99     1102.025      61.4715     144.6105        11     1.130     0.725 -66.72   0
        45    300.6222    957.7171 307.7882433  +6.2922776      1270.89      2278.09       2947.8     87.14222     174.0762     348.6035      2.129     5.98     1105.009      61.4715     186.0062        18     1.441     1.134  34.55   0
        46    767.6602    953.9282 307.5943710  +6.3094178     910.6858      1188.14     1219.378     87.55751     174.4231     348.8116      1.397     4.04     1098.351      61.4715     138.8224         8     1.006     0.805 -74.95   0
        47    905.0961    950.4349 307.5373973  +6.3154303     6889.359      10671.8     10780.86     87.55751     174.2844     348.9156      1.690     4.20     1095.202      61.4715     932.5468        31     1.542     0.980 -79.97   0
        48    440.8247    947.5410 307.7303494  +6.3011636     1727.136     2843.449      3137.17     87.00335     174.4231     348.5689      1.804     5.12     1103.445      61.4715     195.1373        21     1.495     0.944 -85.48   0
        49    342.7526    946.1270 307.7711339  +6.2984724     7966.839     14034.84     15227.88      87.4193     174.4924     348.7423      1.901     4.10     1104.799      61.4715     977.3177        42     1.649     1.209 -88.03   0
        50    262.8266    945.1357 307.8043664  +6.2962103     5917.006     10330.02     11312.71     87.00335     174.3538     348.6382      1.871     4.14     1104.942      61.4715     645.8043        39     1.648     1.186 -81.36   0
        51    590.6866    939.1387 307.6683812  +6.3096327     892.7607     1455.216     1059.326     87.55751      174.631     348.7769      1.860     3.67     1102.015      61.4715     152.9348         8     0.941     0.716  65.24   0
        52    774.7491    937.9310 307.5919628  +6.3162609     627.2712     978.7656     938.2943     87.28087     174.2844     348.7423      1.518     3.87     1097.583      61.4715     98.16516         5     0.825     0.521 -37.77   0
        53    920.7746    935.7072 307.5313776  +6.3220342     1152.462     1948.354     2247.358     87.55752     174.1456     348.5689      1.896     5.24     1094.013      61.4715     156.5051        14     1.333     1.052 -61.26   0
        54    877.2297    935.4409 307.5494754  +6.3206972     388.6734     617.3508     411.7878     87.00335     174.2844     348.6035      1.911     3.38     1095.051      61.4715     99.48938         5     1.165     0.283 -53.83   0
        55    757.0043    928.7004 307.5996436  +6.3194829     1469.704     2483.973     2223.267     87.14222     174.0762     348.3607      1.673     5.06     1097.839      61.4715     166.2318        15     1.351     0.826 -72.61   0
        56    988.3408    924.4760 307.5036858  +6.3289170     1213.204     2043.723      2436.33     87.55752     174.4925     348.7076      2.488     5.61     1092.053      61.4715     184.9369        12     1.471     0.602  85.51   0
        57    632.6897    925.0179 307.6514077  +6.3168646     578.6133     707.5619     1086.361     87.14222     174.1456     348.6382      1.577     4.22     1100.943      61.4715     92.57483         6     1.307     0.388 -78.36   0
        58    621.0898    925.8341 307.6561988  +6.3161410     643.1447     805.6696     501.4601     87.55751     174.2844     348.7423      1.484     3.73     1101.142      61.4715     107.2535         5     1.029     0.388 -56.75   0
        59      8.2137    925.5403 307.9107848  +6.2957787     838.1671     1627.038     1895.325     86.72494     174.3538     347.8396      2.164     4.09     1104.843      61.4715     141.0734         7     0.934     0.753 -50.05   0
        60    542.5396    924.4131 307.6888760  +6.3141094     1060.055     1770.476     1858.351     86.72494     174.2844     348.3954      1.775     5.92     1102.605      61.4715     143.2656        12     1.156     1.000  52.69   0
        61    675.6268    921.9183 307.6336756  +6.3195750     2122.999     3430.021     2710.756     87.28087      174.215     348.6729      1.739     4.25      1100.16      61.4715     272.6794        22     1.401     1.004  87.12   0
        62    965.8306    919.7870 307.5131938  +6.3301062     826.2986     951.8726     1336.959     86.86425      174.215     348.6729      1.256     4.42     1092.277      61.4715     169.1902         8     1.226     0.641 -73.30   0
        63     72.4243    918.2570 307.8843602  +6.3009385     2428.891     4522.412     4725.436     87.00335     174.4231     348.5342      1.919     4.65     1104.686      61.4715      312.354        26     1.672     0.941 -84.44   0
        64    953.9870    918.5189 307.5181562  +6.3302367     810.8412     1087.244     959.8103     87.00335     174.1456     348.5689      1.382     3.64     1092.499      61.4715     118.5804         6     0.785     0.608  47.33   2
        65    954.0442    916.0000 307.5182168  +6.3312790      614.705     777.4542     734.4691      86.5854     174.0067     348.2912      1.174     3.35     1092.356      61.4715     110.1663         5     0.792     0.512 -26.48   3
        66    215.9681    917.3907 307.8247655  +6.3061019     1900.995     3458.809     3734.539     86.86425     174.1456     348.5689      1.971     5.46     1104.771      61.4715     234.8783        23     1.522     1.077 -82.82   0
        67     90.0610    916.9478 307.8770788  +6.3020701     1728.036      3135.22     3853.804      87.4193     174.3538     348.7423      2.034     5.31     1104.748      61.4715     230.5265        21     1.621     0.857 -85.71   0
        68    836.3994    917.3768 307.5670420  +6.3268008      644.976     824.4606     1278.607     87.00335     174.0762     348.4995      1.220     3.32     1095.185      61.4715     116.2307         5     1.016     0.314 -22.45   0
        69    670.3149    911.1224 307.6362446  +6.3238571     5892.318     9885.032     10449.85      87.4193     174.7694     348.8463      1.817     4.19     1099.731      61.4715     687.5115        35     1.668     1.052 -85.35   0
        70    355.1062    913.6483 307.7670963  +6.3122993     905.4324     1695.958     1555.476     87.28087     174.2844      348.881      2.125     5.47     1104.453      61.4715     124.6586         9     1.037     0.814  67.99   0
        71    250.3987    913.2395 307.8106038  +6.3089681      715.671     949.9541     927.8461     86.44563     174.1456     348.3954      1.689     3.89     1104.831      61.4715     131.8291         7     1.172     0.466 -51.12   0
        72    807.2734    911.6602 307.5793328  +6.3281933     727.4014     1184.696     1255.396     87.55752     174.4231     348.7769      2.233     5.95     1095.579      61.4715     102.4891         8     1.438     0.694  71.59   0
        73     30.4441    909.2374 307.9021020  +6.3032570     1128.973     1763.722     921.3831     87.14222     174.4231     348.6035      1.660     4.74     1104.057      61.4715     165.2308        17     1.358     0.906  84.73   0
        74    908.1760    907.4174 307.5375586  +6.3333001      2682.18     4229.744     3890.823     87.14222     174.2844     348.6729      1.692     4.33     1093.176      61.4715     319.2946        25     1.539     1.008 -89.08   0
        75    783.5272    908.4667 307.5893044  +6.3287224     589.3837     1124.866      1107.16     87.55752     174.5617     348.7076      1.885     5.24     1095.921      61.4715     90.33984         7     1.562     0.497 -88.28   0
        76     43.6465    907.6629 307.8966714  +6.3043497     991.2604     1673.576     1752.351     87.28087     174.2844     348.8116      2.027     4.76     1104.135      61.4715     154.2556        11     1.159     0.815 -89.04   0
        77    353.3864    904.4133 307.7681217  +6.3160560     13554.41      24369.8     26484.98     87.28087     174.0762     348.6729      1.941     4.29     1104.422      61.4715     1405.285        56     1.779     1.328 -84.07   0
        78     88.0340    905.3787 307.8783113  +6.3067802     1160.182     2049.184     2364.355     86.86425      174.215     348.4995      1.683     5.30     1104.461      61.4715     169.1027        15     1.440     0.847 -57.91   0
        79    224.5261    903.6356 307.8216746  +6.3120692     1109.231     1885.152     1802.689     87.28087     174.4925     348.7423      1.849     6.28     1104.787      61.4715     152.3082        14     1.359     0.817  76.87   0
        80    116.6969    895.3029 307.8667457  +6.3119016     1587.322      2788.34     2504.418      87.4193     174.9769     348.5689      1.907     5.30     1104.393      61.4715     187.5394        18     1.431     0.942 -70.19   0
        81    431.1832    895.0169 307.7361217  +6.3225350     819.0718     1293.039      1140.74     87.14222     174.0762     348.6729      1.670     5.43     1102.807      61.4715     97.64258         9     1.103     0.891  78.29   0
        82    685.0362    891.2181 307.6307974  +6.3325683     660.7144     1300.709     1507.406     86.86425      174.215     348.4995      1.942     6.01     1098.101      61.4715     121.6996         6     1.382     0.735  42.10   0
        83    898.2207    889.0721 307.5423087  +6.3405464     1730.601     2700.296     2483.521     87.00335     174.2844     348.7076      1.694     4.09     1092.773      61.4715     254.3247        18     1.277     0.919 -82.98   0
        84    869.1051    888.5446 307.5544216  +6.3397966     1846.091     2985.023     2791.665     87.28087     174.4231     348.9849      1.696     4.95     1093.413      61.4715     231.1908        20     1.453     0.923 -85.00   0
        85    832.4294    888.0963 307.5696725  +6.3387624     2891.282     4673.292     5330.555     87.55751     174.1456     348.7423      1.759     4.17     1094.071      61.4715     320.4399        24     1.504     0.938 -85.08   0
        86    100.2963    888.5427 307.8737863  +6.3141443     2072.858     3587.447     4247.073     87.28087     174.4231     348.9503      1.982     4.52     1104.253      61.4715     287.4524        21     1.490     0.947  78.00   0
        87    568.4634    879.5656 307.6796145  +6.3334967     281276.2     492262.9     529690.9     87.28088     174.4925     348.7423      1.912     4.23     1100.884      61.4715     30943.42       172     1.907     1.476 -83.67   0
        88    347.8463    887.2501 307.7710010  +6.3229595     640.7499     1156.917     1508.807      87.4193     174.2844     348.8116      1.929     3.92     1104.345      61.4715     111.1335         5     0.944     0.466 -47.44   0
        89    412.7159    882.1107 307.7442273  +6.3272489     6072.182     11327.21     12523.56     87.14222     174.7002     348.8463      2.003     4.53     1102.783      61.4715     679.4951        43     1.755     1.250 -87.25   0
        90    355.9976    880.6677 307.7678366  +6.3259505     9923.301     17994.79     19523.07     86.72494     174.0067     348.5342      1.943     4.19      1104.18      61.4715     1073.461        51     1.775     1.279 -83.60   0
        91    656.2309    882.3402 307.6430616  +6.3352756     1073.454     1733.886     1605.272     87.14222     174.4231     348.7076      1.725     4.77     1098.502      61.4715     127.0447        12     0.965     0.914  77.47   0
        92    674.1999    876.8687 307.6357807  +6.3381340     3054.831         5369     5096.761     86.86425     173.8676     348.4995      1.873     4.50     1097.838      61.4715     367.8074        28     1.589     1.027 -84.33   0
        93    906.7559    875.6603 307.5392122  +6.3463695      4848.17     8095.124     8514.783     87.28087     174.4231      348.881      1.779     4.32     1092.123      61.4715     614.1119        33     1.672     1.022 -82.18   0
        94    746.0974    873.4925 307.6060264  +6.3419222     766.6445     1158.245     864.3371      87.4193     174.9769     348.6729      1.669     4.90     1094.494      61.4715     118.4919         6     0.924     0.736 -86.88   0
        95    649.3525    870.8705 307.6463041  +6.3397837     2645.077     4351.884     4786.082      87.4193     174.3538     348.7769      1.775     4.24     1098.113      61.4715     318.2874        25     1.469     1.039 -89.16   0
        96    837.5558    869.9177 307.5681522  +6.3464411     1337.781     2449.658     2481.268      87.4193     174.4231     348.7076      1.948     4.86     1093.227      61.4715     157.2501        14     1.296     0.770  75.19   0
        97    964.1851    868.9426 307.5155793  +6.3510518     729.5698     1404.714     1164.153     86.72494     174.3538     348.4301      1.918     4.85     1089.602      61.4715     113.3052         6     1.119     0.596  73.50   0
        98    641.4180    866.4704 307.6497481  +6.3413367     1842.039     3825.987     5253.168     86.86426     174.2844     348.6729      2.514     8.14      1098.06      61.4715     250.4081        31     2.348     1.034 -62.51   0
        99    925.4431    863.4460 307.5318580  +6.3520352     3030.408     4877.303     4800.145      87.4193     174.4231     348.6729      1.684     3.90     1091.265      61.4715     400.8771        22     1.417     0.949 -89.64   0
       100    336.1624    864.8900 307.7766076  +6.3318041     794.5593      1373.33      1380.15      87.4193     174.3538     348.7769      1.727     3.22      1104.34      61.4715     119.5811         6     0.746     0.557 -60.05   0
       101    383.7079    859.7213 307.7570311  +6.3355273     1980.541     3714.199       3885.8     87.14222     174.7002     348.8116      1.944     5.58     1103.096      61.4715     249.5349        25     1.532     1.202 -54.23   0
       102    519.9913    849.1815 307.7007719  +6.3444295       2380.6     4259.734     4113.539     87.14222     174.0762     348.5342      1.895     4.87     1100.377      61.4715     291.5895        26     1.507     1.085 -85.32   0
       103    864.9197    848.0696 307.5575166  +6.3563747     1016.466     1678.272     1741.008     87.69551     174.7694     348.7423      1.750     4.07     1091.582      61.4715     165.2377         9     1.065     0.663 -75.78   0
       104    566.8562    845.3328 307.6814327  +6.3475819     4832.379     8659.663     9721.608     87.55751     174.3538     348.7076      1.894     4.37     1098.641      61.4715      513.318        37     1.711     1.191 -77.95   0
       105    573.6553    844.5408 307.6786348  +6.3481357     1127.665     1844.644     2670.857     87.55752     174.4231     348.7423      2.092     6.53     1098.382      61.4715     135.6267        14     1.203     0.995  46.28   0
       106    484.8282    843.9468 307.7155553  +6.3454183     1275.522     2329.218     2462.216     87.14222     174.5617     348.6382      1.977     7.01     1100.723      61.4715     154.7428        18     1.702     0.925  89.43   0
       107    902.6114    843.3694 307.5420156  +6.3595688     1308.038     2256.239      2342.08     86.86426     174.1456     348.6035      1.854     5.34     1090.544      61.4715     156.7808        13     1.318     0.734 -82.82   0
       108    537.5662    839.2412 307.6938051  +6.3491211     15782.35     28687.46     31084.78     87.14222     174.4231     348.5689      1.950     4.32     1099.036      61.4715     1674.013        58     1.810     1.304 -83.21   0
       109    126.3711    843.3132 307.8644821  +6.3336976     1143.392     2052.389     2011.028     87.55752     174.0762     348.6035      2.069     4.89     1103.256      61.4715     152.6233        13     1.351     0.775 -49.52   0
       110    951.0552    837.5195 307.5220859  +6.3635943     3602.332     5550.614     5916.334      87.4193     174.4231     348.7769      1.671     4.07     1088.786      61.4715     469.9904        25     1.420     1.012  89.78   0
       111     48.1616    829.7780 307.8974269  +6.3366676      1181.71     2218.162     2473.144     87.00335     174.1456     348.4995      1.881     6.81     1101.792      61.4715     143.2323        15     1.262     1.030  71.20   0
       112    330.2674    828.0275 307.7802982  +6.3468318     2492.237     4560.445     4631.311     87.00335     174.3538     348.6382      1.917     4.77     1103.097      61.4715     272.8617        29     1.571     1.158 -86.82   0
       113    795.7050    823.7454 307.5870864  +6.3641196     47541.68      81309.1     86803.71     87.28087     174.4231     348.9849      1.845     4.13      1091.87      61.4715     5328.481        83     1.784     1.324 -83.99   0
       114     30.3119    826.1360 307.9049646  +6.3375735     1678.075     3116.455      3424.84      87.4193     174.7002     348.7423      1.945     4.99     1101.507      61.4715     221.0593        21     1.550     0.913  79.61   0
       115    253.0801    821.6892 307.8125763  +6.3468689     4227.256     8105.653     10559.34     87.14222     174.7002     348.8463      2.338     4.86     1104.246      61.4715     453.7727        41     1.833     1.251  87.02   1
       116    920.9405    818.9863 307.5352176  +6.3702487     7563.727     12464.56     13416.97     86.72494     174.3538     348.4301      1.744     4.04     1088.808      61.4715     930.7743        35     1.549     1.072 -87.65   0
       117    723.9744    818.3685 307.6170665  +6.3639533     17588.21     31623.81     34276.55     86.86425     174.1456     348.5689      1.916     4.13     1093.176      61.4715     1980.141        56     1.808     1.278 -87.22   3
       118    717.6298    814.8508 307.6198204  +6.3651950     72922.83     129322.6     140114.6     87.00335     174.5617     348.6382      1.904     4.16     1093.199      61.4715     7868.928        92     1.853     1.348 -83.07   3
       119    362.6251    815.8531 307.7672663  +6.3529412      15698.4     29750.28      32488.8     86.86425     174.4924     348.6382      2.020     4.36     1101.555      61.4715     1667.869        60     1.824     1.360 -83.12   0
       120    424.4288    813.6880 307.7416646  +6.3558996     17079.62     31711.98     34320.01     87.55752     174.1456     348.6035      1.989     4.44     1100.226      61.4715     1766.404        61     1.870     1.327 -87.11   0
       121    411.9236    815.8299 307.7467875  +6.3545974     1320.466     2295.904     2420.439     87.28087     174.4924     348.7769      1.765     5.06     1100.614      61.4715     157.6666        16     1.286     0.927  78.90   0
       122    651.3194    814.8157 307.6473694  +6.3630011     642.8134     949.7878     1247.528     87.00335     174.1456     348.5689      1.746     4.26     1094.254      61.4715     100.1656         5     1.130     0.459 -31.23   1
       123    252.5128    800.2845 307.8135337  +6.3556903     773326.9      2166484      2497604     87.14222      174.631     348.8116      2.590     6.37     1103.905      61.4715     63418.21       554     2.562     2.056 -85.97   4
       124    961.4516    812.4482 307.5186062  +6.3742948     2084.407     3288.607     3139.328     87.55752     174.2844     348.7423      1.767     4.09     1087.189      61.4715     250.7598        21     1.375     0.981  87.49   0
       125    917.8300    810.5029 307.5367940  +6.3736492     6182.484     10181.21     10986.95     87.55752     174.1456     348.7769      1.824     4.26     1088.403      61.4715     731.2413        36     1.664     1.059 -85.41   0
       126    658.4436    809.4955 307.6445884  +6.3654358     5433.688     9497.139     10377.46      87.4193     174.3538      348.881      1.916     4.18     1093.795      61.4715     589.7502        39     1.600     1.262 -80.13   0
       127    447.2680    807.1074 307.7323981  +6.3593800     1295.152     2140.033     2278.142     87.28087     174.5617     348.7769      1.827     6.38     1099.125      61.4715     138.8453        15     1.437     0.795  77.19   0
       128    886.6098    801.6204 307.5500620  +6.3762805     652.2383     954.7447     916.6095     87.00335     174.0762     348.5342      1.624     3.41     1088.462      61.4715     87.28406         5     1.040     0.324 -68.32   0
       129    693.3775    799.6930 307.6304046  +6.3706480     2059.065     3715.127     3552.623      87.4193      174.215     348.5689      1.913     5.46     1092.919      61.4715     238.6178        25     1.677     0.978 -82.98   0
       130    427.3773    796.3466 307.7410234  +6.3631603     40730.55     77704.49      85038.9     86.86425     174.4231     348.5342      2.029     4.45     1099.254      61.4715     4174.179        84     1.897     1.453 -83.07   0
       131    163.0706    799.7247 307.8507081  +6.3529286     821.7183     1579.115     1168.578     87.69551     174.5617     348.7423      2.073     5.15     1102.618      61.4715     112.1971         8     1.161     0.647 -76.11   0
       132    545.0662    795.2666 307.6921678  +6.3675336     5608.204      10521.4     11022.52      87.4193     174.4231     348.7769      1.983     4.57     1094.925      61.4715     616.7915        38     1.723     1.220 -88.73   0
       133    461.8583    793.8624 307.7267825  +6.3653374     3323.289     6540.476     7979.168     87.55751     174.3538     348.7769      2.208     4.95     1097.893      61.4715      393.118        36     1.741     1.272 -76.47   3
       134    458.5020    787.4489 307.7283926  +6.3678743     1683.468     3508.504     3735.678      87.4193     174.3538     348.9156      2.136     6.24     1097.676      61.4715     196.1698        28     1.780     1.168 -86.94   3
       135    790.2432    791.8503 307.5904251  +6.3771113      9828.31     16786.23     18059.34     87.55751     174.4231     348.7769      1.830     3.99     1090.489      61.4715     1107.845        45     1.666     1.202 -89.17   0
       136     20.1467    787.7639 307.9104838  +6.3530805     926.7572     1919.802     1442.703     87.28087     174.4231     348.7769      2.096     6.03     1101.134      61.4715     123.3293        12     1.345     0.991  69.38   0
       137    812.2595    785.0364 307.5815069  +6.3806580     995.3163     1746.491     1747.486      87.4193     174.4231     348.7076      1.674     5.02     1089.441      61.4715     128.5544        12     1.165     0.886 -61.89   2
       138    148.1704    783.9976 307.8574286  +6.3589252      8806.85     16775.56     19541.08     86.86425      174.215     348.5342      2.084     4.31      1102.02      61.4715     993.3323        52     1.749     1.384 -89.89   1
       139    156.3254    784.2004 307.8540341  +6.3591144     2280.628     4482.903     5527.779      86.5854     173.7285     348.5342      2.193     4.89     1102.148      61.4715     279.8868        28     1.494     1.263 -88.98   0
       140    140.4425    781.2062 307.8607332  +6.3598193     2153.287     4576.499     5971.711     86.86425     174.0762     348.4301      2.419     6.06      1101.84      61.4715     241.6794        29     1.716     1.204 -88.81   3
       141    140.5305    775.0446 307.8609045  +6.3623670     1558.614     3112.224     3879.695      87.4193     174.3538     348.7423      2.319     6.43      1101.75      61.4715     198.5897        24     1.566     1.152 -76.17   3
       142    935.7685    780.5059 307.5303460  +6.3866348     5812.614     9492.863      10516.7     87.55752      174.215     348.7769      1.817     4.07     1086.589      61.4715     685.8765        33     1.594     1.048 -82.14   0
       143    985.0406    780.3950 307.5098790  +6.3883170      1419.12     1816.782     2273.402      86.5854     174.0762     348.4648      1.490     4.82     1084.745      61.4715     200.8361        15     1.311     0.790 -81.24   0
       144    691.5535    777.9401 307.6318926  +6.3795717     1428.791     2561.884     2555.162     87.28087     174.4231     348.8463      1.932     5.25     1091.474      61.4715     187.2402        19     1.250     1.193  41.05   0
       145    578.2188    777.4389 307.6789941  +6.3760023     1855.115     3241.712      3185.77     87.00335      174.215     348.4648      1.812     4.48     1093.152      61.4715     240.5011        22     1.447     1.073 -85.88   0
       146    426.0925    776.8285 307.7422141  +6.3711787     938.0657     1637.338     1604.002     87.55751     174.1456     348.6382      1.869     5.77     1098.172      61.4715     115.1884         9     1.026     0.913 -15.95   0
       147    959.4064    771.8720 307.5208144  +6.3909860     2807.547       4631.9     4357.276     87.00335     173.9372     348.6382      1.724     4.52       1085.3      61.4715     361.9056        25     1.504     1.003  89.64   0
       148    929.9322    772.4044 307.5330421  +6.3897871     2771.646     4650.399     4999.126     86.72494     174.0762     348.4995      1.744     4.15     1086.455      61.4715       301.35        24     1.429     1.007 -84.76   0
       149    990.1053    771.7079 307.5080656  +6.3920732     1685.354     2566.782     2844.321      87.4193     174.9769     348.7423      1.632     4.54     1084.066      61.4715     218.1733        16     1.427     0.744 -83.12   0
       150    682.2619    771.4338 307.6359712  +6.3819494     1152.421     2172.445     2305.225     87.28087     174.4924     348.6729      2.044     6.51     1091.065      61.4715     125.5574        15     1.374     0.865  83.52   0
       151    829.6260    769.8804 307.5748000  +6.3874954     834.5966     1401.243     1090.034     87.28087      174.215     348.7769      1.752     5.20     1088.051      61.4715     151.0978        10     1.343     0.607 -89.64   0
       152    254.8536    766.9734 307.8136844  +6.3695264     1632.284     3339.821     4814.316     87.14222     174.5617     348.6382      2.879     6.16     1102.102      61.4715     174.5383        25     1.644     1.216 -85.36   0
       153    170.8599    762.8032 307.8487183  +6.3684382       565.05     1304.123     1575.086     86.72494     174.1456     348.4301      2.248     5.51     1101.855      61.4715     81.83154         7     1.431     0.599  82.84   0
       154    947.8821    762.0858 307.5259301  +6.3946452     930.8864      1563.16     1004.451     87.14222     174.7002     348.8463      1.588     4.41     1085.278      61.4715     146.7189        10     1.206     0.777  76.37   0
       155    921.9386    760.7993 307.5367518  +6.3943147     928.7703     1592.987     1498.269      86.5854      174.215     348.3954      1.842     5.78     1086.126      61.4715      129.795        10     1.197     0.786 -69.89   0
       156    974.4334    759.7126 307.5149783  +6.3965072      2358.72     3781.819     3631.702      87.4193     174.2844     348.7423      1.782     4.14     1084.033      61.4715     303.3517        23     1.454     0.987 -83.43   0
       157    693.3762    758.2880 307.6317951  +6.3877491     834.8336     1361.667     1884.817      87.4193      174.215     348.6035      1.731     3.62     1090.147      61.4715     148.9141         5     0.926     0.433  -9.43   0
       158   1016.0991    753.1914 307.4978857  +6.4005840     1600.635     2277.099     2407.239     87.14222     174.0067     348.5689      1.514     4.71     1081.668      61.4715      206.085        16     1.320     0.866  79.04  16
       159    817.6475    751.5620 307.5803908  +6.3946630      1020.31     1661.279     2212.181     87.28087     174.4231     348.5689      1.990     6.45     1087.307      61.4715        124.8        12     1.223     0.956 -82.65   0
       160    903.9703    749.0251 307.5446115  +6.3985807     1324.427     2210.789     2314.914     86.86425      174.215     348.6035      1.741     4.57     1085.733      61.4715     190.0055        13     1.110     0.946 -87.41   0
       161    878.3546    743.9979 307.5554225  +6.3998057     905.2068     1496.603     1765.102     86.72494     174.0067      348.326      1.796     5.93     1085.609      61.4715     118.3204        12     1.104     0.896  86.86   0
       162    860.4734    740.5089 307.5629686  +6.4006523     1182.769     2149.492     2038.706      87.4193     174.7002     348.7769      1.795     6.34     1085.618      61.4715     154.6331        16     1.474     0.966 -79.73   0
       163     59.8921    739.3252 307.8956096  +6.3744180     2102.268     3748.562     3928.249      87.4193     174.5617     348.7076      1.968     5.00     1100.865      61.4715     230.0302        24     1.499     1.052  87.27   0
       164    123.2370    738.3084 307.8693288  +6.3769601     810.7201      1760.13     1827.642     87.55752     174.3538     348.7769      2.120     7.08     1101.004      61.4715     116.3157        12     1.649     0.852  58.67   0
       165    672.4048    727.8421 307.6415302  +6.3996255      4888.56     9052.208     9401.233     86.72494     174.0762     348.4301      1.974     4.23     1088.359      61.4715     544.9847        38     1.598     1.286 -78.35   0
       166    619.4530    727.0729 307.6635556  +6.3981789     1118.837     2172.696     2516.173     87.28087     174.4231     348.7423      2.180     4.98     1089.427      61.4715     172.7856        16     1.370     1.048 -80.91   0
       167    646.1938    723.6537 307.6525606  +6.4004822     1758.243     3141.558     3453.663     86.86425     174.1456     348.4301      1.904     5.23     1088.749      61.4715     202.7087        20     1.428     0.987 -74.39   0
       168   1009.3517    722.8385 307.5017049  +6.4128967     2532.185     4183.582     4677.055     87.28087     174.4924     348.5689      1.835     4.63     1079.998      61.4715     313.5712        23     1.544     0.908 -80.38   0
       169    789.2875    719.9048 307.5932352  +6.4067948      16433.3     29455.93     31188.16      87.4193     174.8386     348.8116      1.921     4.16     1086.126      61.4715     1822.666        58     1.753     1.331 -83.54   0
       170    322.0084    723.3356 307.7872566  +6.3897947     606.5974     1140.951     1629.438     86.86425     174.1456     348.6035      2.497     4.81     1098.409      61.4715     101.0444         6     1.070     0.747 -74.98   0
       171    919.2125    719.7179 307.5392605  +6.4111919     3036.125     5120.216     4987.058     87.00335     174.0762     348.5689      1.775     4.17     1083.951      61.4715     409.1969        27     1.585     0.972  88.90   0
       172    488.9649    719.2958 307.7180299  +6.3970393     962.1364     1798.619     1611.225     87.55751     174.2844      348.881      1.882     4.28     1093.902      61.4715     125.7527         8     1.062     0.622   8.11   2
       173    669.7474    712.8004 307.6431393  +6.4057495     5307.741     10046.86     10870.67      86.5854     173.9372     348.2565      1.979     4.34     1087.748      61.4715     570.3591        39     1.646     1.276 -85.52   0
       174    262.8326    713.5734 307.8121701  +6.3918480     4462.333     8709.139     9404.607     86.86425     174.1456     348.5342      2.075     4.66     1099.316      61.4715     457.0997        45     1.765     1.392 -89.16   0
       175    135.6374    723.7548 307.8646686  +6.3833861     2717.586     5056.362     5337.493     87.14222     174.4231     348.6382      1.984     4.90     1100.548      61.4715     333.0471        32     1.694     1.222 -88.10   0
       176    364.9850    712.7806 307.7697575  +6.3955904     660.1614     1138.942     1034.372     87.14222     174.1456     348.6382      1.815     4.48     1096.865      61.4715     107.1704         6     0.861     0.663  -6.32   0
       177    929.6559    704.8082 307.5354209  +6.4176970     1064.194     1853.313     1719.799     86.72494     174.2844     348.4301      1.818     6.07     1082.751      61.4715     159.7283        12     1.199     0.865  88.22   0
       178    741.6125    701.1298 307.6136730  +6.4129628     2844.539     5460.641     6077.034     86.86425     174.1456     348.5689      2.046     4.85     1086.577      61.4715     303.7939        30     1.651     1.131 -84.38   0
       179    696.6939    701.8534 307.6323114  +6.4111684     931.7261     1905.764      1827.52     87.28087     174.3538     349.0196      2.013     7.37     1087.046      61.4715     106.0957        13     1.458     1.042 -13.50   0
       180   1007.7894    697.6279 307.5031978  +6.4232575     8323.382     13898.55     15027.73     87.00335      174.215     348.6035      1.796     4.05     1078.451      61.4715     1026.272        42     1.651     1.146 -86.84   0
       181    946.3292    698.0622 307.5287193  +6.4210372     2036.828     3355.326     3244.045     87.55751     174.4231     348.7769      1.756     4.82     1081.464      61.4715      242.585        20     1.353     0.962  86.47   0
       182     26.8936    697.7054 307.9107245  +6.3905010     1381.137     3078.611     3802.262      87.4193      175.046     348.7076      2.381     6.85      1099.15      61.4715     168.9789        26     1.692     1.321 -42.01   0
       183     85.3521    692.7341 307.8866066  +6.3945134     19111.84     36912.22     40985.14     87.28087     174.3538     348.7423      2.082     4.41     1098.931      61.4715     2075.999        69     1.900     1.450 -86.64   0
       184    546.3757    693.4627 307.6950466  +6.4096242     1553.666     2911.655     2732.873     87.00335     174.4231     348.6382      1.950     5.67     1089.884      61.4715     169.8264        21     1.406     1.145  75.83   0
       185    936.3860    689.7113 307.5331303  +6.4241560     900.9517     1228.771     1319.267     87.14222      174.215     348.6382      1.682     5.53     1081.372      61.4715     101.6573         9     0.939     0.917  10.28   0
       186    514.5481    690.9692 307.7083539  +6.4095924      847.621     1585.482     1849.203     87.28087     174.5617     348.6729      2.077     6.31     1091.236      61.4715     98.61646        12     1.299     0.860 -72.08   0
       187    731.1223    684.8608 307.6185775  +6.4193331     2723.383     5198.898     5870.655     87.55751     174.4924     348.7076      2.125     4.96     1085.892      61.4715     292.8053        31     1.615     1.215 -76.52   0
       188    753.1952    683.1063 307.6094654  +6.4207924     3251.337     5785.666     6103.929     87.14222     174.0762     348.4648      1.927     4.30     1085.127      61.4715     397.7292        31     1.565     1.163 -68.32   0
       189    584.6119    681.0597 307.6795774  +6.4160219     2382.711     4400.224     4454.399     86.72494     174.2844     348.4301      1.950     4.81     1088.628      61.4715      280.692        28     1.600     1.103 -77.71   0
       190    421.2828    681.6221 307.7474173  +6.4103398     880.2126     1857.842     1748.839     87.14222     174.0762     348.6035      2.083     6.68     1094.494      61.4715     118.1445        12     1.664     0.753 -66.53   0
       191    245.8390    680.8527 307.8203335  +6.4047935     1179.503      2434.61     2087.964     87.28087     174.4231     348.7423      2.047     5.69     1098.078      61.4715     151.3236        19     1.604     0.987 -75.78   0
       192    991.4308    677.9786 307.5106524  +6.4308301      7399.03     12186.76     13117.68     86.86425      174.215     348.6035      1.778     3.93      1077.96      61.4715     889.4152        37     1.549     1.109 -80.32   0
       193    328.9275    680.0554 307.7858404  +6.4079012      1036.37      2012.93     1906.745     87.28087     174.2844     348.7076      2.032     6.39     1096.289      61.4715     159.0087        11     1.173     0.977  59.82   0
       194    711.3237    676.9792 307.6270680  +6.4219291      751.749     1241.029      854.169     87.00335     174.1456     348.6729      1.616     4.77     1085.664      61.4715     122.6272         7     0.976     0.662  89.11   0
       195    150.0345    671.6371 307.8604468  +6.4053931     17245.43     34549.04     37793.27     87.14222      174.215     348.4995      2.114     4.61     1098.683      61.4715     1823.957        68     1.900     1.469 -88.87   0
       196    102.8472    675.9228 307.8799061  +6.4020427      575.278     1201.023     1569.247     87.28087     174.4924     348.7076      2.232     6.02     1098.262      61.4715     77.23535         6     1.406     0.724 -50.27   0
       197    436.8671    672.4288 307.7412519  +6.4146572     2124.859     4331.934     4811.418     87.14222     174.4231     348.7076      2.211     5.14     1093.609      61.4715     224.8152        29     1.586     1.230 -88.44   0
       198    817.8876    672.7373 307.5829342  +6.4272276     996.7104     1766.315     2533.334     87.28087      174.631     348.7423      2.258     5.77     1082.364      61.4715     130.5216        11     1.207     0.865 -85.46   0
       199    370.3913    666.6517 307.7690652  +6.4148228     600.6963     975.7404     1499.291     86.86426     174.2844     348.4301      1.842     5.08     1094.591      61.4715     82.74902         6     1.176     0.621 -66.71   0
       200    986.3758    661.0088 307.5133208  +6.4376713     6101.623      10962.7     12170.67     87.00335      174.215     348.5689      1.936     4.04     1077.682      61.4715     758.2876        42     1.662     1.252  86.82   0
       201     31.3602    660.5922 307.9101232  +6.4059785     863.9072     1493.071     1594.002     86.72494     174.1456     348.4301      1.873     5.65       1097.9      61.4715     116.4991        10     1.270     1.012  57.49   0
       202    579.9754    656.3741 307.6823335  +6.4260629     34523.46     68622.62     74907.37     86.86425      174.215     348.6382      2.095     4.59     1087.644      61.4715     3518.193        83     1.898     1.501 -81.89   0
       203    944.3201    657.9207 307.5308985  +6.4375500     626.3224     992.1408     831.2071     87.69551     174.7002     348.9156      1.732     4.50     1079.348      61.4715      117.144         6     1.296     0.444  83.27   0
       204    187.6074    653.0911 307.8454629  +6.4143107     1877.569     3786.386     2938.732     87.00335     174.0762     348.5342      2.007     5.35     1097.653      61.4715     234.3912        26     1.606     1.170  71.86   0
       205     80.7815    646.5099 307.8900668  +6.4134510     924.2875     1634.954     1482.984     87.14222     174.1456     348.6382      1.930     4.57     1097.509      61.4715     143.1277         9     1.022     0.756 -73.71   2
       206    477.2379    640.2042 307.7255633  +6.4293141     43638.06     90125.15     100062.6     86.44563     174.1456     348.4648      2.165     4.62     1090.196      61.4715     4336.293        91     1.942     1.558 -81.68   0
       207     20.5934    642.3331 307.9152134  +6.4131585     1314.418     2791.224     2807.012     86.86426     174.1456     348.5342      2.064     7.43     1097.699      61.4715      153.373        20     1.768     1.005 -63.18   0
       208    151.7634    635.1807 307.8609592  +6.4205077     1016.825     1784.803     1083.809     87.00335      174.215     348.4995      1.785     6.04     1097.437      61.4715       119.79        12     1.137     0.902  89.35   0
       209    322.6906    629.5972 307.7901321  +6.4285326     1445.313     3103.113      3397.76     86.72494     174.0762     348.4648      2.204     6.03     1094.637      61.4715     166.4742        21     1.666     1.033 -77.51   0
       210    749.2472    623.6587 307.6131007  +6.4452143     4156.628     7674.217     8080.363      87.4193     174.4231      348.881      1.960     4.45     1082.537      61.4715     432.8729        35     1.618     1.215 -73.71   0
       211    802.7557    619.0324 307.5910228  +6.4489057     10651.28     19863.72      22074.9     87.00335     174.4231     348.6035      2.005     4.29     1081.505      61.4715     1173.345        57     1.819     1.347 -84.17   0
       212   1019.7840    619.0480 307.5008440  +6.4561115     937.9393     1420.715     1084.587     86.86425     174.4231     321.7632      1.622     4.99     1076.122      61.4715     126.2711         8     1.049     0.673 -80.12  16
       213    545.4488    618.3231 307.6979583  +6.4406273     935.8151     1995.088     2324.667     87.28087     174.4925     348.7423      2.595     7.13     1087.698      61.4715     130.2736        14     1.862     0.764 -82.81   0
       214    626.7175    616.9650 307.6642370  +6.4438979     2057.137     3806.532     3423.961      87.4193     174.3538     348.7076      1.893     5.12     1084.315      61.4715     205.9213        26     1.411     1.258 -71.23   0
       215    943.6094    613.7232 307.5326742  +6.4557812     825.3124     1590.808     1721.245     87.00335     173.9372     348.5342      1.864     4.11     1078.081      61.4715     147.3824         9     1.210     0.577 -66.58   2
       216    239.6981    610.9602 307.8252421  +6.4334543     983.7441     2375.595     2863.963      87.4193     174.2844     348.9849      2.453     7.76     1095.205      61.4715     131.7389        16     1.630     1.125 -85.05   0
       217    385.5991    610.2207 307.7646475  +6.4386376      664.759     1208.297     1149.122     87.00335     174.0762     348.4301      1.785     3.38     1091.777      61.4715     87.18091         5     0.749     0.442 -69.54   0
       218    878.7332    602.1324 307.5600197  +6.4584125     2423.981     4051.804     4721.853      87.4193     174.4231     348.7769      1.900     5.41     1078.966      61.4715     276.9318        27     1.662     1.098 -62.39   0
       219    837.5045    599.6871 307.5772330  +6.4580516     2074.091     3729.005     3959.209      87.4193     174.8386     348.8116      1.926     4.69     1079.928      61.4715     227.3608        27     1.568     1.087 -82.81   0
       220    265.6974    594.7336 307.8149871  +6.4410258     5354.541     11095.04      12046.7      87.4193     174.4924     348.8116      2.173     4.92     1093.759      61.4715     543.1266        47     1.854     1.376 -86.03   0
       221    808.7508    595.2795 307.5893285  +6.4589156     2021.564     4046.603     5118.063      87.4193     174.4924     348.7423      2.299     5.18      1080.49      61.4715     269.1083        28     1.540     1.293  65.89   1
       222    818.1878    590.7910 307.5855578  +6.4610835     122178.9     226777.5     246695.2     87.14222      174.215     348.6729      2.007     4.35     1080.112      61.4715     13206.79       130     1.930     1.482 -84.23   0
       223    199.8623    589.2308 307.8425262  +6.4410956     39495.53      83496.3     94722.74     87.14222     174.4924     348.7076      2.236     4.85     1095.016      61.4715     4029.645       100     2.033     1.629 -85.97   0
       224    123.8629    585.5514 307.8742268  +6.4400704     4311.245     8807.495     9511.184     87.28087     174.3538     348.8116      2.176     4.87     1096.104      61.4715     477.3441        43     1.756     1.411 -81.42   0
       225    988.9797    584.0000 307.5148172  +6.4695646     556.4556     891.3973     371.1458     86.86425     174.0067     348.3607      1.223     4.61     1075.121      61.4715     107.0146         5     1.097     0.550  -7.04   3
       226    989.2842    581.6498 307.5147694  +6.4705453     1041.266     1353.754     959.3499      87.4193     174.4231     348.8463      1.273     3.28     1074.984      61.4715     161.5184         9     0.907     0.694  27.09   3
       227    373.2816    576.4293 307.7709036  +6.4521824     11218.75     23826.56     26471.17     87.28087     174.2844     348.7423      2.213     4.92     1090.461      61.4715     1106.146        63     1.961     1.495 -84.55   0
       228    854.6349    577.9821 307.5708427  +6.4675860     3375.903      6225.58     6589.682     86.86425      174.215     348.4995      1.934     4.28     1079.003      61.4715      381.099        35     1.605     1.239 -83.23   0
       229    175.2665    575.3214 307.8532149  +6.4460169      1420.35     2890.927     4113.712     87.55752     174.5617     348.7076      2.575     5.32     1095.276      61.4715     184.1742        20     1.378     1.092 -80.65   0
       230    808.6295    571.4485 307.5901782  +6.4687544     4402.869     8189.518     8684.173     87.00335     174.4925     348.6382      1.962     4.49     1079.439      61.4715     534.2147        37     1.665     1.207 -83.94   0
       231    539.6122    571.2127 307.7019678  +6.4598901     4360.243     8881.786     9403.155     87.28087     174.0762     348.6729      2.121     4.83     1085.456      61.4715     443.9478        42     1.751     1.359 -81.28   0
       232    112.8590    573.0145 307.8792221  +6.4448796     795.6514     1383.042     2100.765     86.72494     174.3538     348.4648      2.414     5.29       1095.9      61.4715     99.18372         9     1.029     0.769  20.99   0
       233    397.8256    567.9894 307.7609898  +6.4564882     959.8953     2075.309     1699.665     87.00335      174.215     348.6035      2.152     7.54      1088.74      61.4715     112.5759        16     1.452     1.095  88.16   0
       234    186.6436    564.3868 307.8488569  +6.4509139     4580.048     9817.278     11411.82     86.86426      174.215     348.4648      2.277     5.08     1094.464      61.4715     454.0671        49     1.904     1.442 -86.35   0
       235    584.2185    564.4882 307.6836594  +6.4641551     1584.917     3483.063     3681.763     87.14222     174.1456     348.6382      2.311     5.94     1083.439      61.4715     183.2645        26     1.628     1.216 -65.87   0
       236    281.8639    560.8944 307.8094111  +6.4555424     56422.92     121508.5     136591.6     87.28087     174.4924     348.7769      2.259     4.89     1091.411      61.4715     5791.139       104     2.046     1.627 -84.81   0
       237     58.2370    562.9371 307.9022570  +6.4472112     3512.363     7108.226     8229.145      87.4193     174.4924     348.7423      2.207     5.09     1096.138      61.4715     382.9967        40     1.936     1.225  80.71   0
       238    824.9760    563.6003 307.5836491  +6.4725397     1221.307     1739.212     2231.473     87.00335     174.0762     348.5342      1.582     4.64     1078.984      61.4715     153.9675        12     1.048     0.867 -48.40   0
       239    804.8918    553.1757 307.5923443  +6.4761771     12446.44     23014.42        25036     87.55751      174.215     348.5689      2.006     4.27     1078.667      61.4715     1275.845        54     1.796     1.315 -81.39   0
       240    265.5830    555.7862 307.8163481  +6.4571076     919.8755     1859.382     1962.188     87.14222     174.0762     348.6729      2.227     6.83     1091.506      61.4715     113.4843        10     1.306     1.002 -81.08   0
       241    981.1589    554.2862 307.5190620  +6.4815775     1338.585     2019.241     1873.187      87.4193     174.3538     348.7769      1.633     4.38     1073.449      61.4715     216.9823        15     1.384     0.690 -84.99   0
       242    508.5999    551.6799 307.7155110  +6.4669227     27141.21      59961.1     69418.68      86.5854     173.7285     348.4301      2.337     4.85     1085.219      61.4715     2640.304        99     2.018     1.787 -83.57   0
       243    221.3908    548.1255 307.8349683  +6.4587929     1055.077     2435.945     3504.628     87.00335     173.9372     348.6035      2.897     8.47     1092.248      61.4715     131.1859        18     1.610     1.348 -78.91   0
       244    731.0377    545.9425 307.6232757  +6.4767067     1027.639     2196.024     2655.319      87.4193     174.4924     348.7423      2.302     7.63      1078.98      61.4715     141.6821        16     1.693     0.963  86.20   0
       245    668.4713    546.4739 307.6492559  +6.4744034     2237.513      4406.79      4767.85     87.69551     174.5617     348.7769      2.057     4.85     1080.679      61.4715     238.8638        31     1.588     1.235 -83.41   0
       246     57.2018    547.8098 307.9031984  +6.4534241     952.2706     1692.307     2045.398     86.72494     174.0762     348.4995      1.856     5.68     1095.885      61.4715     114.4613        10     1.046     0.867 -72.18   0
       247    407.0000    543.9619 307.7579870  +6.4667183     843.2508     2216.955     2877.139     86.30563     174.1456     348.4995      2.670     7.17         1087      61.4715     137.6448        12     1.429     1.008  77.82   2
       248    337.7306    540.6776 307.7868798  +6.4657601     2452.044     5279.269     5555.986     87.55752     174.7002     348.7076      2.227     6.24     1089.285      61.4715     242.8257        33     1.687     1.353 -62.23   0
       249    152.9867    539.2912 307.8636883  +6.4601515     17095.98     36160.84      40326.2     87.14222     174.1456     348.4995      2.223     4.86     1094.662      61.4715     1789.834        65     1.956     1.497 -88.76   0
       250    517.4872    539.7306 307.7122201  +6.4721546     1354.921     2735.576     3430.913     87.55752     174.7002     348.7769      2.319     7.27     1084.422      61.4715     140.4438        22     1.589     1.153 -85.77   0
       251    880.8859    539.0370 307.5612402  +6.4845441     1270.714     2198.904     2251.449      87.4193     174.3538     348.7423      1.809     6.28     1077.262      61.4715     154.2252        19     1.445     1.076 -81.16   0
       252    118.3419    537.4694 307.8781445  +6.4597435     1871.887     3431.646     3212.692     87.55752     174.4231     348.7076      1.972     4.63     1094.925      61.4715     202.2571        25     1.361     1.249  81.89   0
       253    978.3798    533.6710 307.5209072  +6.4899998     4524.824     7394.617     7168.259     87.00335     174.2844     348.6729      1.749     4.18     1072.852      61.4715     549.7687        29     1.594     0.988 -78.57   0
       254    355.0410    535.5942 307.7798584  +6.4684382     824.4045      1661.89     1941.066      86.5854     174.0762     348.4301      2.252     5.01     1088.526      61.4715      109.239         8     1.194     0.594 -20.61   0
       255    551.4317    526.1106 307.6985735  +6.4789123     1055.201      1939.62     2483.395     87.55751      174.215     348.7423      1.972     6.99     1082.903      61.4715     132.5618        16     1.393     0.984 -62.70   0
       256     17.2641    523.6434 307.9206089  +6.4620658     17800.49     35984.79     40651.55      87.4193     174.3538     348.7423      2.159     4.68     1095.602      61.4715     1937.503        71     1.984     1.490 -84.96   0
       257    449.9121    520.3625 307.7409508  +6.4778983     27365.97     58520.98     65363.19      87.4193     174.2844     348.7423      2.246     4.94     1084.711      61.4715     2644.432        83     1.980     1.616 -86.63   0
       258      1.5169    517.8301 307.9273483  +6.4639385     68956.13     101660.5     108594.6     78.52969     141.3363     265.6024      1.538     4.77     1095.644      61.4715     13794.73        63     1.952     0.818 -87.14  24
       259    657.9327    519.8726 307.6545287  +6.4850392     8540.911     16937.13     18767.73     87.55751     174.5617     348.7423      2.133     4.70     1079.741      61.4715     842.6028        53     1.816     1.407 -87.55   0
       260    215.1247    517.9775 307.8385892  +6.4710345     12317.48     27380.79     31186.58     87.00335     174.2844     348.6729      2.305     4.99     1090.347      61.4715     1266.559        71     2.008     1.600  86.16   0
       261    180.8510    519.0046 307.8527955  +6.4694631     1098.409     2103.878     1054.235     86.72494     174.1456     348.2912      1.898     5.80     1092.015      61.4715     153.3435        16     1.436     1.025 -73.11   0
       262    991.8217    518.3130 307.5158357  +6.4967895      1023.86     1329.432     891.3515      87.4193      174.215     348.6035      1.558     5.27     1072.177      61.4715     142.9402        11     1.185     0.661 -85.08   0
       263    832.3079    518.3032 307.5821216  +6.4914923     693.5678     1205.969     1262.757      87.4193     174.9769     348.7076      2.093     4.60     1076.912      61.4715     99.83691         6     0.889     0.742 -76.65   0
       264    579.8403    516.6763 307.6870861  +6.4837562     1780.145     3743.495     4430.224     87.28087     174.4231     348.8116      2.213     5.36     1081.595      61.4715     218.1427        27     1.493     1.258 -74.18   0
       265    953.6191    513.8754 307.5318594  +6.4973535     3848.794     6944.528     7178.586     87.00335     174.1456     348.6729      1.903     4.41     1073.204      61.4715     426.9867        34     1.710     1.129  89.42   0
       266    626.6629    512.3597 307.6677748  +6.4871000      4574.85     9208.407     10172.66      87.4193     174.3538     348.7769      2.151     4.86     1080.057      61.4715     456.0784        44     1.821     1.319 -88.15   0
       267    114.5689    513.0077 307.8805384  +6.4697199     781.4628     1321.218     1318.509     86.86425      174.215     348.4995      1.878     6.60     1093.687      61.4715     108.7131        10     1.544     0.792  35.49   0
       268    976.2679    506.1888 307.5227051  +6.5012806      2951.69     5217.479     5391.021     86.86425      174.215     348.5689      1.824     4.39     1072.465      61.4715     343.1276        25     1.437     1.061 -85.51   0
       269    538.8747    503.6701 307.7045461  +6.4877617     4913.306     10132.74     11217.56     87.55751     174.5617     348.7423      2.163     5.09     1082.361      61.4715     485.2135        45     1.874     1.324 -83.80   0
       270    384.8866    503.5604 307.7685363  +6.4826659     1596.701     3511.737     4182.189      87.4193     174.4231     348.7423      2.279     6.46     1084.947      61.4715     176.2377        26     1.584     1.279  74.07   0
       271    895.1366    499.3411 307.5566490  +6.5014132     2478.658     4541.554     5580.435     87.55751     174.3538     348.7769      2.098     5.11     1074.285      61.4715      300.177        30     1.703     1.159  71.25   0
       272    902.6333    493.7370 307.5537215  +6.5039770     1716.557     2881.504     3536.149     87.28087     174.4924     348.7076      1.843     5.11     1073.698      61.4715     186.7129        17     1.358     0.901 -87.72   0
       273    942.1955    492.7751 307.5373134  +6.5056890     1027.709     1833.365     1849.504     86.86425     174.1456     348.5689      2.011     5.43     1072.583      61.4715     130.3855         9     1.008     0.825  41.28   0
       274    726.6846    489.8752 307.6269669  +6.4997187     2071.873      4236.49     4681.548     87.55751     174.7694     348.8116      2.152     5.78     1077.451      61.4715     252.6014        27     1.651     1.156 -85.03   0
       275    397.7137    487.9556 307.7637320  +6.4895394     2363.172     4879.846     5027.209      87.4193     174.2844     348.7423      2.144     5.50     1083.545      61.4715     217.0746        33     1.694     1.271 -85.37   0
       276     88.6099    489.0848 307.8921327  +6.4787303     1334.517     2698.707      2764.98     87.00335     174.0762     348.5689      2.201     5.80     1093.309      61.4715     156.5182        21     1.422     1.155 -55.88   0
       277    625.3950    484.4777 307.6692388  +6.4985736     6879.236     14028.18     15772.63     87.00335     173.8677     348.5342      2.165     4.74     1078.986      61.4715     703.2382        46     1.858     1.352 -83.17   0
       278    308.1016    481.8304 307.8011748  +6.4890740     1612.528      3400.46     3887.213      87.4193     174.1456     348.7769      2.163     5.99     1085.295      61.4715     191.2626        28     1.598     1.281  86.10   0
       279    788.3298    480.8430 307.6016533  +6.5055012     11885.55     22812.36     26359.56     87.28087     174.4231     348.8116      2.132     4.64     1076.016      61.4715     1309.659        68     2.184     1.429 -63.42   0
       280    817.0576    478.2820 307.5898013  +6.5075147     1071.775     1939.726     1666.078     87.55751     174.4231     348.7769      1.922     6.62     1075.172      61.4715     110.2507        15     1.173     1.049 -56.16   0
       281    391.0612    478.1467 307.7668268  +6.4933683     999.8875     2159.267      2982.72      87.4193     174.3538     348.7076      2.704     7.73     1082.847      61.4715     129.3671        18     1.460     1.144 -61.14   0
       282    973.3522    475.9300 307.5249302  +6.5136814     1745.311     2987.567     3074.302      87.4193     174.3538     348.7769      1.818     4.99     1071.493      61.4715     187.6764        18     1.283     0.965 -69.46   0
       283    125.6166    473.2608 307.8772905  +6.4865056     3017.104     6379.792     7183.584     86.86425     174.3538     348.5342      2.247     5.29     1091.062      61.4715     356.7712        41     1.780     1.462 -85.99   0
       284    763.5917    471.9034 307.6122333  +6.5083701     1648.256     3139.349     3279.654     87.14222     174.0067     348.5342      2.055     4.73     1075.942      61.4715      200.417        19     1.383     0.964 -66.87   0
       285    283.5508    470.3796 307.8117625  +6.4929822     935.6675     2051.796     2644.322     86.86426     174.4925     348.5689      2.343     7.23     1085.163      61.4715     117.4659        16     1.685     1.041 -61.46   0
       286    361.5604    467.6631 307.7794386  +6.4967124      2025.01      4112.87     4185.934      87.4193     174.3538     348.7769      2.095     4.85     1082.318      61.4715     234.5376        30     1.447     1.362 -35.78   0
       287    717.5290    465.4482 307.6315917  +6.5095027     1219.458     2066.845      2265.39      87.4193     174.3538     348.7769      1.745     6.83     1076.252      61.4715     150.0638        15     1.284     1.019 -77.13   0
       288    843.5619    455.5836 307.5795484  +6.5177713     1129.584     1919.417     1601.205     87.00335      174.215     348.4648      1.764     7.26     1072.974      61.4715     126.1918        17     1.582     0.933 -82.80   0
       289    480.9210    456.8188 307.7302046  +6.5051780     786.6652     1623.422     1432.579     87.00335     174.0762     348.6729      2.027     6.74     1079.696      61.4715     100.7272        11     1.222     1.043  89.14   0
       290    829.0924    454.4389 307.5855998  +6.5177628     1409.961     2867.802      2963.91     87.55751     174.3538     348.8116      1.958     5.77     1073.288      61.4715     156.6361        20     1.421     1.114 -75.05   0
       291    726.5669    452.8044 307.6282605  +6.5150258     10530.69     20819.58     23218.17      86.5854     174.2844     348.4995      2.088     4.55     1075.337      61.4715     1157.607        59     1.844     1.433 -76.86   0
       292    647.6756    448.8685 307.6611767  +6.5140234     1772.453     3878.531     4439.403     87.55751     174.5617     348.7423      2.232     5.37     1076.536      61.4715      184.642        28     1.540     1.253  83.89   0
       293    620.0474    444.0112 307.6728211  +6.5151088     8689.845     22745.08     29483.71     86.86425     174.2844     348.3954      2.791     6.78     1076.808      61.4715      990.766        90     2.541     1.802  46.15   0
       294    951.7159    442.7527 307.5350330  +6.5266658     2986.257      5172.98     5356.587      87.4193     174.4231     348.7769      1.855     4.58     1069.036      61.4715     360.9441        28     1.649     1.039 -84.76   0
       295    391.0157    438.7689 307.7681723  +6.5096303     17728.28     39564.75     45234.12     87.00335     174.1456     348.6729      2.303     5.05     1078.935      61.4715     1750.624        78     2.042     1.604 -86.71   0
       296    137.2354    438.2892 307.8736438  +6.5013381     1509.838     3120.084     3281.552     87.55752     174.3538     348.7423      2.076     6.06     1088.846      61.4715     185.4194        26     1.562     1.190 -86.86   0
       297    906.9394    437.7697 307.5538079  +6.5272360     1106.855     2280.176     2503.001     87.14222     174.4231     348.7076      2.204     7.04     1070.388      61.4715     151.0034        14     1.439     0.964  77.93   0
       298    920.5493    432.9774 307.5483126  +6.5296676      4076.98     7110.113     7573.162     86.86425     174.4924     348.6035      1.854     4.19     1069.939      61.4715     501.1298        32     1.541     1.136 -81.47   0
       299     70.5094    433.3723 307.9015364  +6.5011329     1021.798     1793.297     2020.198     87.55752     174.1456     348.6035      1.841     6.31     1090.569      61.4715     119.8077        13     1.143     0.980 -19.22   0
       300    248.5534    429.4473 307.8276858  +6.5087168     8918.196     19357.87     21783.23      87.4193     174.2844     348.7423      2.270     5.12     1083.645      61.4715     889.5522        58     1.924     1.515 -83.62   0
       301    971.5919    421.5977 307.5274816  +6.5360636     799.5837     1443.263     1563.906     86.72494     174.0762     348.5342      1.899     6.38     1065.669      61.4715     118.2931        11     1.489     0.768  89.90   0
       302    743.0384    423.0649 307.6224140  +6.5278573      603.795     919.9516     1105.914      87.4193     174.3538     348.8116      1.470     3.87     1073.027      61.4715     102.8892         5     0.821     0.524 -62.43   0
       303    360.7629    418.7412 307.7814186  +6.5168910      757.878     1667.901     1367.738      87.4193     174.4924     348.7769      2.115     4.74      1077.92      61.4715     114.3687         6     0.952     0.670 -28.54   2
       304    148.7141    418.0676 307.8695570  +6.5100742     3214.922     7037.635     7399.167     87.55751     174.7002     348.7769      2.257     5.30     1087.503      61.4715     379.7972        40     1.764     1.400 -84.75   0
       305    253.7510    416.9525 307.8259475  +6.5140511     727.1874      1577.81     1842.502      87.4193     174.2844     348.7769      2.192     6.49      1082.69      61.4715     97.25647         8     1.355     0.872 -51.06   0
       306    171.1074    413.8723 307.8603933  +6.5125569     1731.958     3800.558     4113.989     87.28087     174.5617     348.7769      2.260     6.13      1086.51      61.4715     183.2251        29     1.710     1.204 -73.36   0
       307    566.6147    413.6299 307.6960472  +6.5258751     672.3366     1226.783     1140.396     87.00335     174.1456     348.6729      1.703     4.96     1075.339      61.4715     98.92004         6     0.996     0.698  11.29   0
       308    982.6375    407.8340 307.5233523  +6.5421152     760.7259     1444.745     1875.883     87.14222      174.215     348.4995      2.397     5.60      1063.82      61.4715     108.8938         7     1.323     0.667 -84.12   0
       309    394.3583    408.2696 307.7678107  +6.5223386     1462.281     2894.463     2976.857     87.28087     174.4231     348.8116      2.028     6.01     1076.086      61.4715     176.6362        20     1.439     1.096  51.96   0
       310    448.2131    402.2085 307.7456350  +6.5266408     4456.759     10099.33     11486.91     87.00335     174.1456     348.6382      2.315     5.39     1074.897      61.4715     437.5317        54     2.048     1.539 -80.70   0
       311     44.8348    402.9170 307.9132344  +6.5128502     2236.241     4745.411     5817.741      87.4193     174.4231     348.6729      2.396     5.90     1089.942      61.4715     262.7035        39     1.908     1.381 -89.73   0
       312    780.9120    401.2433 307.6074071  +6.5381307     1414.276     3100.605     2984.444      87.4193     174.2844     348.7769      2.151     7.28      1071.35      61.4715      152.033        28     1.798     1.389 -88.17   1
       313    788.7035    399.3526 307.6042326  +6.5391709     9254.893     17867.48     19720.48      87.4193     174.2844     348.9156      2.073     4.58     1071.154      61.4715     975.3889        58     1.900     1.407 -81.84   0
       314    351.3987    398.1221 307.7860048  +6.5250939     623.0617      1324.85     1610.649      86.5854     173.7981     348.5342      2.068     5.24     1076.857      61.4715     86.95935         8     1.346     0.576   2.64   0
       315      1.7711    390.2027 307.9315587  +6.5166569     674.6948     1566.464     2841.912     81.10511     145.4681     270.0719      3.015     4.87     1090.783      61.4715     123.6216         6     0.921     0.730  42.35  26
       316    468.7874    386.2894 307.7376210  +6.5339025     1284.768     2830.864     2927.704     87.14222     174.1456     348.6035      2.274     6.77     1073.889      61.4715     182.4266        22     1.510     1.316 -50.39   0
       317    496.4325    385.5987 307.7261558  +6.5351107     1865.824     4094.213     4208.979      86.5854      174.215     348.4648      2.227     5.80     1073.686      61.4715     192.7141        33     1.662     1.397 -58.68   0
       318    925.1799    385.5407 307.5479780  +6.5494140     760.8256     1222.224     1128.216     87.00335     174.2844     348.6035      1.631     4.81     1066.396      61.4715     101.6896         6     0.988     0.664 -76.77   0
       319    854.0760    382.2861 307.5776372  +6.5483945     25012.11     47830.21     53070.38      87.4193     174.7694     348.8116      2.059     4.55     1068.904      61.4715     2659.296        74     1.941     1.430 -83.54   0
       320    625.9125    374.5879 307.6727174  +6.5439773     1685.091     3610.698     4313.679     87.00335     174.0762     348.6035      2.302     6.02     1071.773      61.4715     186.8872        26     1.513     1.280 -75.11   0
       321     34.1130    375.1572 307.9186282  +6.5239553      713.575     1564.329     1493.793      87.4193     174.2844     348.7769      2.485     6.26     1089.535      61.4715     101.7955         8     1.246     0.885  52.10   0
       322    710.5382    368.3048 307.6377593  +6.5493920     54950.62     110521.8     122658.5     87.14222     174.4925     348.8116      2.141     4.61     1070.094      61.4715     5597.818       101     1.969     1.574 -82.57   0
       323    868.1815    370.0659 307.5721850  +6.5539108     941.9052     1766.948     1573.144     87.00335     174.4231     348.6382      1.926     6.01     1068.216      61.4715     139.6387        11     1.628     0.624 -72.74   0
       324     91.3943    368.3745 307.8950545  +6.5286770     685.1636     1686.657     1432.234     86.86426      174.215     348.5689      2.339     7.77     1087.717      61.4715     91.65515         9     1.716     0.984 -74.50   2
       325    573.0142    365.1851 307.6950171  +6.5460970     1642.768      3688.24     4617.526     87.14222     174.0762     348.6729      2.438     5.84     1071.459      61.4715     193.9791        28     1.585     1.312  73.04   0
       326    110.3801    364.0804 307.8873100  +6.5310867     4041.056     8811.703     10231.78     87.14222     174.0762     348.6729      2.261     5.30     1086.871      61.4715     432.1282        49     1.992     1.399 -89.11   0
       327    556.3346    361.2661 307.7020806  +6.5471592     4662.779     10080.99     11304.61      87.4193     174.4231     348.7769      2.257     5.03     1071.154      61.4715     457.1829        45     1.800     1.430 -84.08   0
       328    419.2076    356.4731 307.7592291  +6.5445613     15887.48     36079.08     41278.13     87.00335     173.9372     348.6035      2.351     5.24     1072.381      61.4715     1483.054        77     2.053     1.628 -84.74   0
       329    285.5998    358.5942 307.8146811  +6.5392190      1614.33     3587.039     4075.695     86.72494     174.0762     348.5342      2.323     5.44     1078.415      61.4715      184.557        30     1.628     1.293 -89.22   0
       330    526.7387    355.0592 307.7145890  +6.5487353     845.4949     1757.627     2066.671      87.4193     174.3538     348.7769      2.355     7.50     1071.052      61.4715      110.866        14     1.401     1.124  84.20   0
       331    399.2350    354.0056 307.7676123  +6.5449131     744.8725     1798.355     3045.692      86.5854     174.1456     348.4995      3.755     7.73      1072.72      61.4715     105.3818        12     1.548     1.080  46.84   0
       332    508.2617    346.9088 307.7225420  +6.5514849     5401.997     11640.38     12918.52      87.4193     174.5617     348.8463      2.256     5.22     1070.823      61.4715     505.5945        49     1.886     1.445 -75.08   0
       333    813.0722    348.9723 307.5957958  +6.5607899     662.0947     1169.036     908.3401     87.14222     174.3538     348.6382      1.769     4.77     1068.317      61.4715     99.64612         6     1.268     0.508  13.49   0
       334    777.3963    345.6024 307.6107357  +6.5609945     2175.773     4592.106     5199.628     86.72494     173.9372     348.4995      2.233     5.59     1068.636      61.4715     232.2423        33     1.633     1.366 -58.24   0
       335    725.0741    345.1715 307.6324952  +6.5594306     720.9365     1243.178     929.2772     87.28087     174.4231     348.7076      1.822     4.03     1069.015      61.4715     115.5011         5     1.095     0.643  76.17   0
       336    932.9589    344.7632 307.5461117  +6.5665146     686.4743     1036.258     1035.523     87.14222     174.4231     348.6035      1.746     3.91     1062.811      61.4715      100.297         5     1.281     0.343  66.11   0
       337    171.1107    337.0012 307.8629876  +6.5443050     773.3886     1649.604     1595.069      86.5854     173.9372     348.4995      2.126     6.15     1083.159      61.4715     122.6007         8     1.319     0.805 -79.84   0
       338    398.2995    331.0781 307.7687736  +6.5543511     4502.974     10162.61     11431.39     87.14222     174.7002     348.7769      2.326     5.35     1071.789      61.4715     484.8816        49     1.893     1.487 -84.27   0
       339    254.0621    331.6889 307.8286949  +6.5492759     1252.099     2970.318     3051.627      87.4193     174.5617     348.8116      2.293     6.81     1078.718      61.4715     137.4059        22     1.534     1.291  77.54   0
       340    765.9862    326.8543 307.6161072  +6.5683581     37636.62     75623.18     82936.98     86.72494     174.3538     348.4648      2.117     4.60     1068.045      61.4715     3967.676        82     1.917     1.484 -84.28   0
       341    437.7656    326.3563 307.7525312  +6.5576197     1486.398     3152.418     3170.313     87.14222     174.4231     348.6035      2.121     6.93     1070.521      61.4715     170.8381        25     1.564     1.282  87.84   0
       342   1000.8783    323.8676 307.5185837  +6.5774011     1249.125     2069.126     2033.465     87.55751     174.4924     348.7076      1.698     4.37     1059.357      61.4715     191.0894        12     1.249     0.658 -72.32   0
       343    941.9091    323.0324 307.5431201  +6.5757873     1616.901     3247.463      3188.22     87.55752      174.215     348.7769      2.024     5.32     1061.652      61.4715     186.9299        21     1.449     1.072 -77.91   0
       344    583.9730    323.4057 307.6918679  +6.5637180     908.7744     1692.874     1807.952     86.86425      174.215     348.5342      1.981     5.80     1068.464      61.4715     104.0988        12     1.134     0.836 -27.45   0
       345    474.6285    322.0935 307.7373549  +6.5606113     672.0256     1739.345     2002.488     87.55751     174.1456     348.6382      2.654     6.21     1069.475      61.4715     92.73865         7     1.288     0.840 -71.61   0
       346    845.3657    316.2093 307.5834736  +6.5753960     929.9226     1644.891     1615.502     86.86425      174.215     348.5689      1.934     5.18      1065.66      61.4715     146.5399         8     1.038     0.730 -59.86   0
       347    424.3589    321.9328 307.7582518  +6.5589988     1151.106     2701.168     2805.601      87.4193     174.3538     348.8116      2.304     6.70     1070.592      61.4715     133.7158        20     1.456     1.205 -11.57   0
       348    764.4554    311.3743 307.6172631  +6.5747007     4195.303     8384.883     9166.896     87.00335     174.4231     348.5689      2.123     4.74     1067.468      61.4715     457.9325        41     1.784     1.286 -78.31   0
       349    455.1545    313.3047 307.7457440  +6.5635909      629.739     1239.253     1275.136      87.4193     174.3538      348.881      2.076     5.35       1069.3      61.4715     86.72046         6     1.231     0.657 -39.35   0
       350    200.7371    312.8940 307.8514897  +6.5552533     1441.971     2919.881     2742.964      87.4193     174.4924     348.8116      2.067     6.00     1081.049      61.4715     173.2915        22     1.577     1.094  59.29   0
       351    780.9904    309.3130 307.6104602  +6.5761024     1793.538     3583.334     3802.062     87.00335     174.0762     348.5689      2.036     5.85      1067.01      61.4715     221.5074        25     1.591     1.172  88.05   0
       352     84.3151    304.9024 307.9001414  +6.5546536     785.0987     1697.331     1943.054      87.4193     174.8386     348.8116      2.299     6.66     1087.039      61.4715     95.14368        12     1.381     0.901  73.47   0
       353    370.1343    304.0596 307.7813891  +6.5645687     1191.556     2840.225     3640.982     87.55751     174.3538     348.7769      2.513     8.77     1071.871      61.4715     152.2504        21     1.700     1.263  35.11   0
       354   1018.9954    300.2281 307.5118456  +6.5877664       4922.5     8321.727     9209.479     86.86425      174.215     330.8423      1.803     4.09     1056.456      61.4715     580.9768        30     1.565     1.042 -84.18  16
       355    497.4555    300.5868 307.7285921  +6.5702558     1234.803     2812.572     2827.849     86.72494     174.3538     348.4648      2.246     7.92     1067.297      61.4715     144.5674        21     1.591     1.101 -76.12   0
       356    259.7274    295.8614 307.8275493  +6.5642623     3529.635     7936.938     9171.783     87.55751     174.4231     348.8116      2.322     5.70     1076.753      61.4715     360.3937        47     1.948     1.457 -86.66   0
       357    785.8377    289.0632 307.6091252  +6.5846273     4087.526      4043.75     4576.825      87.4193     174.4231     348.7423      0.521     0.87     1066.023      61.4715     2628.511         7     0.434     0.408  15.14   0
       358    393.9731    286.6415 307.7720689  +6.5725592     1080.759     2692.155     3490.257     87.00335     174.2844     348.5689      2.794     9.07     1070.164      61.4715     133.6031        24     1.704     1.347 -82.28   0
       359    980.8527    285.6487 307.5281870  +6.5925214     945.3566     1966.299     2016.685     87.55751     174.2844     348.7423      2.191     6.73     1057.675      61.4715     152.6521        12     1.592     0.797 -80.68   0
       360    163.6758    282.3840 307.8679218  +6.5666129     1124.362     2314.972     2127.087     86.86426     174.1456     348.6035      2.139     6.85     1081.872      61.4715     132.4333        17     1.457     1.151  56.86   0
       361    316.7189    282.7448 307.8043067  +6.5715861     846.7598     1622.545     1258.206      87.4193     174.4231     348.7769      1.775     5.48     1073.075      61.4715     115.6957         9     1.383     0.612 -22.71   0
       362    573.3368    278.2892 307.6978058  +6.5819970     1549.041      2853.44     2755.855     87.28087     174.5617     348.7769      1.889     5.79     1065.286      61.4715     171.7213        18     1.283     1.038 -87.13   0
       363    917.1434    277.3978 307.5549428  +6.5938124     1289.883     2320.342     2875.974     86.72494     174.0762     348.4301      2.015     4.77     1060.646      61.4715      180.553        14     1.246     0.828  81.60   0
       364    736.9060    275.5917 307.6299145  +6.5885623     3510.839     7122.574     7283.325     87.00335     174.0067     348.4995      2.079     4.89     1066.382      61.4715     365.9076        38     1.773     1.271 -77.38   0
       365    677.7447    275.4059 307.6545093  +6.5866685     1353.086     2993.244     2838.771     86.86426      174.215     348.3954      2.171     6.84     1066.322      61.4715     168.9604        22     1.588     1.199  86.54   0
       366    932.4547    267.8231 307.5489000  +6.5982759     967.2103     1677.174     1604.678     86.86425     174.4231     348.5342      1.817     5.81     1059.565      61.4715     125.1595        11     1.301     0.732  83.70   0
       367    236.3896    260.9803 307.8384254  +6.5778873     1591.292     3303.992     3495.284     87.00335     174.0762     348.6035      2.146     5.48     1077.339      61.4715     183.1781        27     1.545     1.241 -72.14   0
       368    879.1443    259.5424 307.5713351  +6.5999239     1311.542     2522.794     3052.778     87.55751     174.4924     348.8116      2.012     5.61     1060.694      61.4715     150.7687        17     1.250     1.132 -74.15   0
       369    769.6982    259.0635 307.6168402  +6.5964805     1142.689     2318.323     2699.827     87.28087     174.4924     348.7769      2.436     5.79     1064.508      61.4715     149.3782        18     1.279     1.095  77.78   0
       370    470.5800    250.6532 307.7414429  +6.5899817     14143.96     31756.01     37513.44     86.86426     174.4231     348.5342      2.405     5.32     1064.155      61.4715     1384.635        90     2.296     1.750 -62.40   0
       371    796.3221    249.7701 307.6060865  +6.6012050     9648.215     19164.41     21813.22     87.28087     174.4924     348.7423      2.153     4.60     1063.531      61.4715     1002.061        59     1.859     1.493 -75.65   0
       372    158.6301    243.8394 307.8713206  +6.5823628     1423.544     3085.581     3013.108     86.86425     174.1456     348.6035      2.193     6.46     1082.034      61.4715     181.0072        24     1.482     1.225 -74.71   0
       373    133.9834    243.6490 307.8815700  +6.5816157     685.7847     1357.233     1250.198     86.86425     174.4924     348.4301      2.114     5.61      1083.64      61.4715     103.6873         7     1.460     0.608 -71.98   0
       374    841.6181    245.2337 307.5874122  +6.6045856     3965.856     4101.353      4137.66     86.86425      174.215     348.5342      0.887     2.70      1061.23      61.4715      1181.33         7     0.790     0.419 -62.41   0
       375    932.7380    240.0783 307.5497122  +6.6097445     993.0079     1929.214     2721.511     87.69551     174.4924     348.7423      2.212     5.23     1057.812      61.4715     120.1111        13     1.230     0.760 -88.89   0
       376    594.3771    236.3843 307.6904705  +6.6000060     2898.542     6217.863      6413.84     87.14222      174.215     348.6382      2.184     5.38     1063.114      61.4715     286.0948        36     1.651     1.389 -85.72   0
       377    557.1974    236.5521 307.7059177  +6.5986965     1267.124     2628.395     2552.501     86.72494     174.0762     348.2912      2.069     6.78     1062.713      61.4715     145.8799        25     1.669     1.161 -76.64   0
       378    398.7725    235.5760 307.7717950  +6.5938101     991.5519     2361.434     2114.551     86.86425     174.2844     348.5689      2.401     8.13     1067.195      61.4715     116.9792        15     1.540     1.201 -86.55   0
       379    314.8473    237.5521 307.8066087  +6.5901883     750.9495     1402.058     736.9185      87.4193     174.2844     348.7769      1.846     5.75     1072.268      61.4715     79.32532         8     1.361     0.685 -71.15   0
       380    901.2969    233.0518 307.5630160  +6.6116015     8594.745     15472.31     16742.56     87.28087     174.4231     348.9849      1.939     4.18     1058.349      61.4715     1005.502        47     1.727     1.267 -83.98   0
       381    955.3239    233.3278 307.5405508  +6.6132830     2351.939     3994.139     3954.193     87.69551     174.7002     348.7423      1.806     4.22     1056.435      61.4715     276.2062        25     1.394     1.136 -89.97   0
       382    988.0144    230.7879 307.5270482  +6.6154180     8113.458      14025.4      14891.7     87.28087     174.0762     348.6729      1.848     4.15     1054.922      61.4715      991.389        40     1.685     1.137 -84.91   0
       383     27.6478    229.8329 307.9262292  +6.5837568     16647.36     35774.55     40318.74     87.14222     174.4231     348.6729      2.271     4.85      1089.26      61.4715     1814.091        74     2.051     1.548 -87.11   0
       384    699.4775    230.9912 307.6469690  +6.6057365     1846.554     4021.391     4864.279     87.00335     173.8676     348.5689      2.279     5.51     1063.024      61.4715     226.2919        29     1.609     1.257 -76.97   0
       385    274.9725    229.4098 307.8234556  +6.5922172     661.2986     1452.511     2129.828     87.00335      174.215     348.6035      2.486     4.69     1074.505      61.4715     108.4941         7     1.175     0.530  27.30   0
       386    508.1021    226.3034 307.7266678  +6.6012911     1115.775     2348.088     2509.805      87.4193      175.046     348.5689      2.161     7.02     1061.777      61.4715     132.3158        18     1.347     1.254 -36.94   0
       387    839.5161    222.4808 307.5890493  +6.6139131     1472.903     2603.992     2658.677     87.14222     174.7002     348.8116      1.915     5.32     1059.946      61.4715     162.7977        18     1.446     0.879 -80.14   0
       388    751.5626    218.9919 307.6257235  +6.6124270     27426.44     55454.81     61247.05      86.5854     174.1456     348.4648      2.131     4.57     1062.138      61.4715     2919.443        82     1.932     1.518 -81.50   0
       389    892.0062    221.4334 307.5672672  +6.6160913     1443.369     2732.001     2830.367     86.72494      174.215     348.5342      1.979     6.37     1057.896      61.4715     181.6456        20     1.454     1.066 -84.71   0
       390    520.0265    221.5429 307.7218719  +6.6036552     1598.922      3547.86     3986.953     87.00335     174.4924     348.5689      2.295     6.91     1061.651      61.4715     179.6702        27     1.609     1.293 -66.34   0
       391    354.7433    218.4700 307.7906708  +6.5994033     4146.589      10018.4     12075.87     87.55752     174.4231     348.7076      2.529     6.70     1069.049      61.4715     402.6908        56     2.278     1.476 -77.99   0
       392    985.3332    217.8093 307.5285975  +6.6206894     2337.026     4108.856     4905.024     86.86425      174.215     348.6729      2.053     4.51     1054.477      61.4715     298.4205        24     1.544     0.962 -85.85   0
       393    919.4635    216.0912 307.5560338  +6.6192104     5898.465     10515.31     11303.29      87.4193      174.631     348.8116      1.950     4.11     1056.801      61.4715     721.3914        41     1.679     1.224 -84.84   0
       394   1023.0888    216.2723 307.5129558  +6.6225779      1351.66     2097.345     2029.035     83.31146      148.349     272.8337      1.658     4.88     1052.962      61.4715     182.8462        18     1.502     0.831 -86.40  24
       395    462.9953    215.1227 307.7457917  +6.6044028     3148.031     6913.875     8082.104     87.00335     173.8676     348.5689      2.301     7.06     1062.323      61.4715     325.5321        44     1.979     1.516  72.99   0
       396    120.4661    206.7540 307.8884345  +6.5964003     3248.501     6953.635     7526.875      87.4193     174.3538     348.7769      2.266     5.15     1083.852      61.4715     373.2799        40     1.832     1.336  89.16   0
       397    290.7224    203.3343 307.8177895  +6.6035134     20822.42     47243.05     54026.37     87.55752     174.4231     348.7076      2.362     5.25     1073.995      61.4715     2075.279        81     2.048     1.665 -89.09   0
       398    266.1046    204.3774 307.8279858  +6.6022589     3913.883     8918.848     10261.46      87.4193      174.215     348.5689      2.343     5.34     1075.231      61.4715     432.0327        46     1.870     1.464 -84.49   0
       399    939.9335    204.8437 307.5479025  +6.6245362      633.566     969.7883      2218.79      87.4193     174.3538     348.7769      1.992     5.10     1055.412      61.4715     96.24988         5     1.217     0.605 -76.02   0
       400    414.8126    198.7544 307.7663691  +6.6095536     30380.79     69604.83     79878.77     86.72494      174.215     348.4648      2.349     5.24     1064.122      61.4715     3022.802        90     2.077     1.680 -83.85   0
       401    719.4747    202.1688 307.6396256  +6.6183067     678.1517     1073.207     1005.015     87.28087     174.4924     348.7423      1.717     4.24     1061.841      61.4715     96.94312         6     1.053     0.488 -83.38   0
       402    170.7278    200.1802 307.8677674  +6.6007993     2606.708     5610.487     5860.813     87.00335     174.2844     348.7076      2.215     5.52     1080.625      61.4715     313.0479        40     1.846     1.378 -83.30   0
       403    431.9687    199.8971 307.7592001  +6.6096548      806.701     1763.797     2128.013     87.55752      174.215     348.8463      2.303     7.44     1063.286      61.4715     112.8348        10     1.342     1.155  -2.45   0
       404    318.8224    196.5177 307.8063405  +6.6072686     11274.23      25794.2     29893.24     87.14222     174.0762     348.6382      2.362     5.27     1071.846      61.4715     1175.897        69     2.069     1.579 -85.37   2
       405    326.2629    196.0426 307.8032641  +6.6077137     1404.912     3236.696     3772.189      87.4193     174.3538     348.8116      2.422     7.63       1071.3      61.4715     169.4305        22     1.496     1.251  59.12   3
       406    754.0247    194.8264 307.6255117  +6.6224897     22986.44     46333.49     50905.06     86.86425      174.215     348.6382      2.126     4.64     1060.947      61.4715     2422.104        74     1.888     1.501 -86.70   0
       407    701.9187    196.7600 307.6471044  +6.6199558     730.5937     1301.696      804.957      87.4193     174.4924     348.6729      1.897     4.30     1061.915      61.4715     118.1143         7     0.751     0.700 -15.84   0
       408    802.0745    195.5578 307.6055153  +6.6237870     916.0709     1608.232     1650.121     87.28087     174.4924     348.7769      1.822     6.29      1059.83      61.4715     113.9933        12     1.184     0.938  67.61   0
       409     70.8972    192.3217 307.9095233  +6.6006992     6024.259     13054.19     15022.75     87.14222      174.631     348.7769      2.270     5.17     1086.253      61.4715     672.1469        50     1.940     1.425  81.94   0
       410    105.3781    190.7185 307.8952470  +6.6025172     956.1844     1625.269     1632.146     87.14222     174.0762     348.6729      1.909     5.97     1084.188      61.4715     127.0281        12     1.245     0.804 -58.03   0
       411   1012.3077    188.9613 307.5183518  +6.6335000     844.2797     1448.953     1649.839     87.55751     174.3538     348.8116      2.043     6.18     1052.418      61.4715     101.4016         9     1.222     0.878 -66.95   0
       412      4.7135    178.2556 307.9375054  +6.6042885     775.2811     1676.217     2023.781      87.4193     174.3538     315.6931      2.222     5.64     1090.194      61.4715     124.4982         7     1.425     0.630 -37.40  16
       413   1013.4241    175.4102 307.5183417  +6.6391340     1968.403     3329.694     3516.922     87.00335      174.215     348.6035      1.822     4.78     1051.899      61.4715     241.9933        22     1.534     0.951  73.30   0
       414    289.6485    169.5875 307.8193743  +6.6174150     19101.61     43020.26      49512.4     86.72494     174.3538     348.3954      2.338     5.11     1074.354      61.4715     1912.212        82     2.049     1.653 -83.95   0
       415    604.8036    171.4445 307.6883210  +6.6271746     1327.159     2876.305     3037.348     86.72494     174.0067     348.3607      2.177     5.85     1061.364      61.4715     167.3522        21     1.440     1.095  -1.68   0
       416     35.0001    168.5289 307.9252470  +6.6093216     3030.138     6812.425     8442.107     86.86425     173.8676     348.4995      2.470     6.48     1088.097      61.4715     315.1163        45     2.168     1.296 -86.36   0
       417    132.1841    163.2807 307.8850333  +6.6147473     2966.361     6706.447     7616.291     87.00335     174.1456     348.5689      2.337     5.63     1081.812      61.4715      369.015        41     1.897     1.375 -85.50   0
       418    402.7493    159.0841 307.7727198  +6.6255346     2250.367     5417.325     5860.851      87.4193     174.3538     348.8463      2.385     6.60     1063.223      61.4715     221.4617        36     1.802     1.399 -85.92   0
       419    471.2969    160.5787 307.7441782  +6.6272071     932.7139     1657.583     1265.731     87.28087      174.215     348.5342      1.815     5.66       1060.1      61.4715     120.9357        10     1.171     0.952 -53.82   0
       420    367.3335    157.9578 307.7874780  +6.6248161     1987.816      4452.15     4772.716      87.4193     174.3538     348.8116      2.310     5.83     1067.528      61.4715     223.8632        35     1.729     1.379  68.75   0
       421    121.8711    158.3427 307.8894865  +6.6164411     1068.168     2186.268     2524.635     87.55751     174.4231     348.7076      2.146     7.93     1082.191      61.4715     143.8643        18     1.743     1.010 -66.27   0
       422   1013.6827    151.7248 307.5190275  +6.6489251     1448.591     2367.114     2215.345     87.55752     174.7694     348.8116      1.730     6.36     1050.815      61.4715     171.9672        17     1.402     0.917 -66.47   0
       423    219.1158    147.1599 307.8494468  +6.6243170     3554.188     7598.265     7893.163      87.4193     174.3538     348.6729      2.254     5.21     1079.148      61.4715     369.2596        41     1.833     1.345 -87.36   0
       424    101.8849    146.5894 307.8981904  +6.6206253     1459.928     3091.218      3742.38     87.00335     174.1456     348.5689      2.465     6.36     1082.894      61.4715     161.3893        20     1.484     1.131 -37.76   2
       425    632.8869    143.0898 307.6776016  +6.6398218     6211.169     13644.58     16093.16     87.14222     174.9077      348.881      2.342     5.08      1060.13      61.4715      626.767        49     1.857     1.447  79.39   3
       426    636.5274    134.6473 307.6763723  +6.6434300     35652.62     74223.31     84382.97      87.4193     174.4925     348.7423      2.231     4.80     1059.497      61.4715     3474.341        92     2.059     1.610 -81.77   3
       427    829.0780    145.8279 307.5959601  +6.6452248      848.496      1190.54     1160.234     87.28087     174.4231     348.7423      1.547     4.39     1056.069      61.4715     126.1156         6     0.786     0.696 -67.70   0
       428    360.1029    138.9882 307.7911229  +6.6324088     2343.005     5339.805     6044.115     87.14222     174.1456     348.5342      2.447     5.66     1068.514      61.4715      302.979        42     1.833     1.532 -87.97   0
       429    721.2463    166.0757 307.6401018  +6.6332726     5399.547     11240.85     12883.18     87.28087     174.4924     348.7769      2.230     4.77     1060.674      61.4715     562.5917        50     1.868     1.421 -86.84   0
       430    541.6484    138.0496 307.7156952  +6.6388603     1136.044     2423.216     2389.804      87.4193     174.2844     348.7076      2.118     6.87     1058.501      61.4715     139.9286        19     1.609     1.094 -60.58   0
       431    680.8498    145.9162 307.6575703  +6.6402530     4323.932     8613.569     9485.351      87.4193     174.4231     348.8116      2.105     4.88     1060.287      61.4715     422.0061        40     1.781     1.307 -81.50   0
       432    315.6349    128.3846 307.8099634  +6.6353011     2394.747     5243.254     6050.365     87.00335     174.1456     348.5689      2.270     5.59     1072.907      61.4715     273.7604        34     1.699     1.386  86.98   0
       433     13.1468    111.6412 307.9362540  +6.6320826     751007.5      2029876      2356291     87.28087     174.4924     348.7769      2.541     6.19     1088.895      61.4715     61481.92       424     2.429     1.946 -84.50  28
       434    687.2907    121.9329 307.6556991  +6.6503730     775.1135     1684.639     1449.975     87.55751     174.5617     348.7423      2.107     6.47     1057.967      61.4715     90.58704         9     1.444     0.814  83.64   0
       435    700.8465    118.6576 307.6501745  +6.6521774     2140.003     4224.662     4377.098      87.4193     174.4231      348.881      2.035     5.18     1057.504      61.4715     242.7554        29     1.610     1.237 -80.59   0
       436    442.6915    109.6990 307.7577819  +6.6472654     2613.875     5468.685     6076.604      87.4193     174.9769     348.7076      2.200     5.25     1060.399      61.4715     295.6849        34     1.684     1.334 -69.85   0
       437    915.0373    105.1123 307.5615947  +6.6648996     2927.101     5349.159     5471.246      87.4193     174.2844     348.7423      1.948     4.34     1051.008      61.4715     385.9126        29     1.590     1.089  88.56   0
       438    897.0403    105.9218 307.5690486  +6.6639670     1665.257     3056.071     3610.978     87.28087     174.4231     348.7769      2.123     4.96     1051.793      61.4715     201.8464        25     1.478     1.176  80.36   0
       439    406.1616    101.2589 307.7732503  +6.6495307       1307.5     2588.641     2535.636      87.4193     174.4924     348.8116      2.014     6.66     1062.825      61.4715     160.5385        20     1.469     1.175 -86.35   0
       440     36.1063     96.5950 307.9272204  +6.6390668     8431.391     17799.86      21485.6     87.14222     174.0762     348.4648      2.355     4.93     1086.771      61.4715     921.3257        70     2.273     1.634  73.04   0
       441    154.1192     98.4636 307.8781065  +6.6422515     2045.271     4447.178     5389.135     87.55751     174.4924     348.7076      2.365     5.57      1079.42      61.4715     232.9948        34     1.684     1.373 -73.30   0
       442    715.6181    122.4945 307.6439054  +6.6510848     679.0996     1181.694      915.491     87.28087      174.215     348.6382      1.838     3.47     1057.541      61.4715     94.35352         5     1.105     0.315 -69.57   0
       443    301.6165     97.4273 307.8168344  +6.6476176     869.0864     1935.598     2484.434     87.00335     174.1456     348.6382      2.121     5.35     1074.933      61.4715     101.6311         9     1.404     0.575 -17.23   0
       444    837.4240     90.7210 307.5943403  +6.6682625      4627.12     8912.307     9804.539     87.00335      174.215     348.7423      2.002     4.73     1052.981      61.4715      526.157        40     1.696     1.319  83.24   0
       445    782.4554     91.2698 307.6171714  +6.6662066     2332.723     4458.865     4640.057      87.4193     174.2844     348.6729      1.980     5.26     1054.368      61.4715     249.2523        28     1.694     1.090 -88.30   0
       446    607.2572    103.5048 307.6895862  +6.6553162     1267.584     2442.978     2444.006     87.28087     174.4231     348.9156      2.132     6.88     1057.493      61.4715     136.2485        19     1.335     1.090 -54.47   0
       447     76.4700     88.1554 307.9107291  +6.6439060     2151.045     4337.575     4739.105      87.4193     174.4231     348.7423      2.135     5.31     1082.993      61.4715     247.2288        33     1.741     1.241 -71.37   0
       448    544.6285     89.0704 307.7161049  +6.6591885     759.7368     1506.766     1962.982     87.14222     174.4231     348.7076      2.374     6.18     1057.795      61.4715     103.5408         9     1.486     0.721 -76.26   0
       449     60.7682     88.8778 307.9172310  +6.6430811     679.9221     1233.773     768.8229     87.28087     174.4231     348.7076      1.848     6.22     1084.275      61.4715     72.60339         9     1.336     0.815 -16.73   0
       450     18.6904     84.0171 307.9348845  +6.6436771      1936.54     3856.709     5002.406     87.14222     174.1456     348.6382      2.331     5.91     1087.437      61.4715     217.0851        30     1.693     1.307  86.23   0
       451    599.7208     84.8150 307.6933476  +6.6627839     772.7902     1534.289     1398.555     87.00335     174.1456     348.5342      2.229     5.69     1056.897      61.4715     90.07996         8     0.987     0.924 -36.56   0
       452    776.9863     78.5200 307.6198730  +6.6712904     1502.428     2821.729      3065.59     87.00335     174.1456     348.5342      1.909     4.38     1053.806      61.4715      206.006        20     1.284     1.099  83.36   0
       453    417.8075     79.5822 307.7691401  +6.6588724     726.4451     1752.802     2169.673     87.00335     174.1456     348.5689      2.455     5.81     1061.966      61.4715     92.73706        10     1.353     0.703 -47.22   0
       454    104.0836     72.4769 307.8997818  +6.6513069     6336.498      13470.1     15268.61     87.55751     174.7694     348.8463      2.262     5.06     1080.373      61.4715     634.2871        58     2.039     1.461 -87.62   0
       455    433.2150     72.0654 307.7629890  +6.6624916     1802.562     3719.576      3593.64     86.86425     174.2844     348.6729      2.151     5.18     1061.473      61.4715      183.863        25     1.437     1.217  81.99   0
       456    646.6567     64.3162 307.6745266  +6.6728151     12534.75     25784.11     29097.04      87.4193     174.4231     348.8463      2.177     4.84     1055.642      61.4715     1230.221        60     1.915     1.455 -85.05   0
       457    270.9044     66.6994 307.8306370  +6.6592806     1059.134     2342.163     3618.169      87.4193     174.9769     348.5689      2.473     5.26     1077.627      61.4715        121.5        13     1.228     0.829 -29.64   0
       458    546.4284     60.4687 307.7163194  +6.6710613     3434.064      7144.33     7975.158     87.14222     174.4231     348.6729      2.174     5.11     1056.812      61.4715     350.3254        40     1.767     1.377 -87.92   0
       459    264.8857     60.9898 307.8333315  +6.6614372     1083.118     2802.283     4830.672     87.00335     174.0762     348.5689      4.503     8.91     1077.867      61.4715     128.2468        17     1.884     1.176  77.17   1
       460     14.1216     59.5412 307.9376116  +6.6536320     1046.122     1992.441     2089.538     87.55751     174.4231     348.6729      1.837     6.04     1086.428      61.4715     126.8333        12     1.646     0.624 -74.85   0
       461    452.0412     56.0688 307.7557024  +6.6697272     14510.75     31670.12     36031.34     87.28087     174.4231     348.8463      2.311     5.05     1060.844      61.4715     1532.361        73     2.026     1.603 -87.60   0
       462    272.6622     56.4630 307.8302518  +6.6635670     5959.515     13160.67     16099.25      87.4193     174.4231     348.7769      2.497     5.17     1077.807      61.4715     596.7938        56     1.982     1.527 -84.26   0
       463    929.6319     56.0142 307.5571741  +6.6856630     1545.436     2780.448     3176.722     87.00335     174.1456     348.6729      1.942     5.99     1047.691      61.4715     206.8558        22     1.581     1.053  88.76   0
       464    633.0706     54.7565 307.6804957  +6.6763104     2155.399     4816.873      6432.84     87.28087     174.4231     348.7769      2.667     7.60     1055.738      61.4715     228.9524        34     2.002     1.256  83.87   0
       465     38.1884     56.1620 307.9277227  +6.6558351     1409.958     2838.739     2864.849     86.86425      174.215     348.3954      2.035     5.34     1084.359      61.4715     178.2889        22     1.525     1.034 -77.55   0
       466    260.4901     52.9361 307.8354304  +6.6646162     2023.499     4544.375     6475.878     87.28087      174.631     348.7769      3.066     6.14     1078.069      61.4715      232.192        34     1.846     1.314  87.82   0
       467    950.6823     46.3897 307.5487461  +6.6903377     799.6789     1613.987     2108.779     87.00335     174.0762     348.5689      2.516     5.97      1046.05      61.4715     112.3293        10     1.269     0.790  41.99   0
       468    701.8575     45.6917 307.6522063  +6.6823468     1177.453     2321.033      2296.62     87.28087     174.3538     348.8463      1.997     6.46      1054.73      61.4715     152.8826        16     1.273     1.106 -70.60   0
       469    190.1409     38.5496 307.8651579  +6.6682024     6936.799     14939.32     17166.12      87.4193     174.4231     348.7423      2.282     5.05     1078.467      61.4715     760.4835        57     1.929     1.519 -88.05   0
       470    935.5656     36.0734 307.5553761  +6.6940961     3302.925     5660.446     6500.019     87.28087     174.3538     348.7423      1.918     4.21     1046.217      61.4715     407.3113        29     1.610     1.057  86.20   0
       471    534.3277     36.5402 307.7221549  +6.6805400     1986.042     4223.008     4636.826     87.55752     174.4231     348.7769      2.249     6.00     1056.615      61.4715     197.0314        30     1.657     1.306 -86.89   0
       472      4.5079     38.3907 307.9423232  +6.6620443     646.6588     1396.756     1826.474     87.00335     174.0067     312.6525      2.381     5.98     1085.789      61.4715     97.79858         6     1.199     0.839 -59.81  16
       473    736.5380     34.8452 307.6381541  +6.6879818     1473.517     2695.184     2998.797     87.28087     174.3538     348.8463      1.938     5.46     1054.471      61.4715     191.9785        20     1.452     1.038  85.99   0
       474    472.7456     34.9491 307.7478074  +6.6791412     1214.311     2523.139     2206.419     87.55751     174.4231     348.7769      2.092     7.56      1059.91      61.4715     137.9308        22     1.518     1.173 -78.63   0
       475   1000.2835     32.3286 307.5285976  +6.6977929     1935.103     3087.852     2600.018     87.69551     174.7694     348.7769      1.723     3.92     1042.407      61.4715     226.7299        18     1.191     0.983 -75.72   0
       476    719.8057     28.8135 307.6453124  +6.6899156     5245.491     10267.63      11177.6     87.00335      174.215     348.6035      2.061     4.65     1054.405      61.4715     566.1616        40     1.720     1.311  88.95   0
       477    640.0549     28.4254 307.6784778  +6.6874182     2588.695     5203.802     5351.189     87.00335     174.4231     348.5342      2.046     4.86     1055.088      61.4715     259.7753        34     1.632     1.311  77.16   0
       478    761.3530   1019.7071 307.5947850  +6.2820397      7649.63     12167.36     12389.08     87.28087     174.3538      323.001      1.703     3.87     1100.827      61.4715     982.8359        37     1.538     1.102 -82.02  16
       479      3.4842   1020.4971 307.9095408  +6.2564030     669.4617     1015.396     896.9765      87.4193     168.2119     265.1467      1.781     4.64     1106.825      61.4715     130.7175         7     1.323     0.461 -81.07  16
       480    687.3384     23.1262 307.6590003  +6.6911828     728.7965      1246.17     1381.624     87.55751     174.4231     348.7423      1.709     4.23     1054.349      61.4715     105.3282         6     0.799     0.640 -40.06   0
       481    822.7357   1018.9862 307.5693123  +6.2843792     1058.073     1773.882     1813.559     86.86425      174.215     331.0616      1.805     5.64     1099.655      61.4715     161.7946        13     1.304     0.913 -80.84  16
       482    431.6137   1019.1304 307.7317667  +6.2712886     793.7767     1368.574     1138.141     86.86425     174.2844      329.267      1.831     4.48     1104.601      61.4715     135.5081         8     1.173     0.486  88.47  16
       483    278.1236   1017.1529 307.7955857  +6.2669779     736.8292     1099.261     1533.424     87.28087     174.4924     346.3066      1.829     3.90     1105.333      61.4715     153.4587         6     1.170     0.373  64.98  16
       484    101.8314     18.8476 307.9025309  +6.6733798     984.1728     2226.705     2330.607     87.14222     174.4231     348.6382      2.210     7.44     1078.215      61.4715      106.663        17     1.505     1.029   9.89   0
       485    922.6337   1013.0352 307.5280161  +6.2901574     8596.051     13549.77     14197.58     87.14222     174.1456     348.4648      1.684     3.81     1098.448      61.4715      1113.86        37     1.546     1.051 -87.59   0
       486    896.2296   1009.2282 307.5391114  +6.2908525     11894.85     19002.76     19880.73     86.86425     174.1456     348.4648      1.708     3.98     1098.703      61.4715      1590.29        48     1.599     1.191 -79.16   0
       487    609.0722   1009.9317 307.6583662  +6.2810065     1237.385     2061.911     1711.618     87.55752     174.5617     348.7423      1.696     5.97     1103.785      61.4715     156.1804        15     1.552     0.727 -86.11   0
       488   1017.9935   1008.7368 307.4885489  +6.2950991     4915.969     7549.927     7644.241     86.72494     174.0762      340.319      1.607     4.09     1095.625      61.4715     706.4169        28     1.548     0.911 -89.92  16
       489    540.3516   1008.3907 307.6869623  +6.2793522     3725.892     6411.438     7590.386     86.86426      174.215     348.3954      1.912     4.23     1103.513      61.4715     449.3427        29     1.411     1.155 -77.62   2
       490     75.2170   1007.3979 307.8801903  +6.2642167     680.3528     1291.435     1369.147     87.00335     173.9372     348.5342      2.024     5.42     1105.915      61.4715     111.4359         9     1.371     0.604 -85.46   0
       491    649.8972   1007.6183 307.6414864  +6.2833221     1257.155     1943.903      2096.06     87.28087     174.2844     348.4648      1.740     3.72     1101.897      61.4715     196.0735        12     1.082     0.796 -59.54   0
       492    493.6695   1004.8671 307.7064709  +6.2792505     2064.772     3443.485     3311.914      87.4193     174.4924     348.7423      1.812     4.48     1104.254      61.4715     226.3677        21     1.396     0.995 -83.75   0
       493    928.0342    996.8071 307.5263161  +6.2970394     42379.57     67966.98      71577.8     86.86425      174.215     348.4995      1.688     4.12      1097.42      61.4715     5775.668        60     1.658     1.138 -86.71   0
       494      1.5172    996.8999 307.9111550  +6.2660827     2281.537     3433.444     3399.604     78.37556     142.0191      265.739      1.500     5.08     1106.375      61.4715     369.0386        17     1.637     0.640 -87.20  24
       495    235.3136    995.0247 307.8141126  +6.2746856     1460.294     2462.272     2185.999      87.4193      174.215     348.5689      1.788     5.89     1105.222      61.4715     166.2139        20     1.407     1.076 -83.94   0
       496    634.0447    993.7249 307.6485375  +6.2885323     833.4443     936.4885     768.3737     87.28087     174.4924     348.7769      1.340     4.61     1102.346      61.4715     118.2863         7     0.863     0.698  57.62   0
