#   1 NUMBER                 Running object number                                     
#   2 X_IMAGE                Object position along x                                    [pixel]
#   3 Y_IMAGE                Object position along y                                    [pixel]
#   4 ALPHA_J2000            Right ascension of barycenter (J2000)                      [deg]
#   5 DELTA_J2000            Declination of barycenter (J2000)                          [deg]
#   6 FLUX_APER              Flux vector within fixed circular aperture(s)              [count]
#   9 FLUXERR_APER           RMS error vector for aperture flux(es)                     [count]
#  12 FLUX_RADIUS            Fraction-of-light radii                                    [pixel]
#  13 FWHM_IMAGE             FWHM assuming a gaussian core                              [pixel]
#  14 BACKGROUND             Background at centroid position                            [count]
#  15 THRESHOLD              Detection threshold above background                       [count]
#  16 FLUX_MAX               Peak flux above background                                 [count]
#  17 ISOAREA_IMAGE          Isophotal area above Analysis threshold                    [pixel**2]
#  18 A_IMAGE                Profile RMS along major axis                               [pixel]
#  19 B_IMAGE                Profile RMS along minor axis                               [pixel]
#  20 THETA_IMAGE            Position angle (CCW/x)                                     [deg]
#  21 FLAGS                  Extraction flags                                          
         1    423.0137     19.3415 307.7615192  +6.6823450     6947.378     9862.001     10497.23     77.30196     155.4096     310.5719      1.494     3.60     829.0959      54.7924     1172.705        26     1.401     0.834  51.12   0
         2     23.9527     19.0010 307.9273381  +6.6691259     9195.574     13337.84     13936.28     77.30196     155.1002     310.4172      1.491     3.37      833.764      54.7924      1419.03        32     1.457     0.902  46.51   0
         3    414.5987     14.7721 307.7651690  +6.6839503     886.7977     1231.205     1443.808     77.42613     155.2241     310.6337      1.408     4.98     829.6382      54.7924     147.6348         9     1.286     0.547  54.26   0
         4    319.6075     14.2793 307.8046548  +6.6809784     14275.96     20276.03     21553.14     77.55012     154.9763     310.6337      1.521     3.90     834.2863      54.7924     2299.685        34     1.458     0.887  45.21   0
         5     93.1052     14.5519 307.8987562  +6.6732817     2756.549      3778.37     3884.686     77.79749     155.3478     310.9738      1.437     3.45     833.4384      54.7924     447.1292        19     1.283     0.781  48.87   0
         6     84.4928     13.4942 307.9023701  +6.6734297     1701.429     2459.298     2452.786     77.92088      155.965     310.8192      1.567     4.03     833.3685      54.7924     271.8552        17     1.299     0.844  46.87   0
         7    787.9678     12.6775 307.6100974  +6.6972656     919.8276     1272.477     1493.053     77.79749     155.4714     310.7883      1.509     4.09     822.9399      54.7924     160.6025         7     1.076     0.444  45.27   0
         8    454.0490     12.7185 307.7488459  +6.6861160     614.0182      989.712     724.8417     77.92088     155.4714      310.881      1.572     4.78     827.3878      54.7924      97.7962         7     1.359     0.476  42.99   0
         9    385.7711     12.1375 307.7772354  +6.6840747     2532.945     3832.582     3753.138      77.6739     155.4714     310.7883      1.534     3.91     831.7416      54.7924     355.6379        19     1.399     0.787  48.89   0
        10    646.5668      7.6964 307.6690197  +6.6946126     12149.04     17016.89     17802.25     78.04408     155.3478     307.9625      1.516     3.63      824.025      54.7924     2003.268        33     1.454     0.866  48.65  16
        11     64.6973      8.8463 307.9107513  +6.6746848     696.6299     948.1507     571.3943     77.92088     155.4096     311.0046      1.401     5.35     833.1091      54.7924     137.7114         9     1.162     0.696  70.83   0
        12    980.9135      9.1745 307.5300392  +6.7051267     799.2162     1241.238     775.7372     78.04407     155.2859     310.6956      1.489     4.42     821.0186      54.7924     115.7275         8     0.877     0.634  43.71   0
        13    811.3670      7.2279 307.6005565  +6.7002941     1804.748     2577.374     2765.064     77.42613     155.2241     304.8585      1.583     4.57     822.4546      54.7924     264.4818        16     1.391     0.741  57.36  16
        14    524.2871      7.4094 307.7198389  +6.6906528     1545.382     2316.534     2460.377     77.55012     155.1622     306.2106      1.644     3.63     825.9565      54.7924     263.3584        16     1.253     0.845  56.68  16
        15    246.5961      4.7433 307.8353115  +6.6824726     7210.628     10352.65     10702.36     77.30196     155.2859      281.426      1.524     3.53     834.4217      54.7924       1127.8        31     1.443     1.003  37.21  18
        16    250.2657      2.3300 307.8338679  +6.6835917     846.8963     1144.145     1601.167     77.30196     137.4317      249.507      1.452     3.14     834.4195      54.7924     154.5782         7     0.908     0.517  45.30  19
        17    881.4450      5.0375 307.5715100  +6.7035293     1650.941      2154.87      2673.75      77.6739     155.4714     284.9542      1.416     3.42     822.5065      54.7924     235.3948        13     1.152     0.726  51.82  16
        18    667.9833      2.3249 307.6603004  +6.6975440     9000.152     11959.56     12693.84     76.80322     136.9415      249.353      1.428     3.64     823.9023      54.7924      1372.63        25     1.342     0.844  43.30  27
        19    672.2756      1.2352 307.6585533  +6.6981369      4855.94     5689.927     6189.544     66.47742      122.343     232.4438      0.938     2.56      823.882      54.7924     1430.038        12     1.023     0.520   8.45  27
        20    638.2008      3.1185 307.6726492  +6.6962237     10102.34     14017.47     14888.57     77.17757     145.5788      260.692      1.462     3.66     823.9228      54.7924     1636.374        29     1.400     0.856  47.08  24
        21    408.0486      3.1938 307.7682790  +6.6885116     8933.927      12630.6     12684.82     77.42613     146.7618     261.6852      1.480     3.63     830.3342      54.7924      1428.36        28     1.402     0.851  49.03  24
        22    949.8137      4.0552 307.5431332  +6.7062072      737.301     986.4102     1498.801     77.30196      153.669     273.1103      1.549     4.03     821.6203      54.7924      101.472         8     0.963     0.611  26.38  16
        23    723.7285      2.1277 307.6371434  +6.6994825     2069.175     2575.953     2780.845     76.17522     134.9629     246.3684      1.347     3.79     823.6582      54.7924     353.0494        13     1.206     0.645  38.94  24
        24    150.3173      2.0524 307.8754056  +6.6803594     616.9247     1015.838     762.0033     75.41472     133.8909     245.4308      1.352     3.90      833.267      54.7924     126.9774         6     1.402     0.311  45.96  24
        25    226.6511    982.9431 307.8107467  +6.2779489      1378.35     2114.841     1842.126     77.92088     155.4714     310.8502      1.666     4.03     855.0912      54.7924     172.8865        15     1.334     0.815  40.56   0
        26    544.0622    982.5815 307.6789750  +6.2886977     840.4345     1428.767     2166.087     77.55012     155.4096     310.7265      2.024     5.26     857.4653      54.7924     121.4878        10     1.238     0.631  52.45   0
        27    191.7520    982.6866 307.8252444  +6.2768873     923.5367     1405.029     1420.484     77.92088     155.4096     310.8811      1.653     5.27     854.8179      54.7924     144.4999        12     1.340     0.852  29.28   0
        28     51.6766    980.9893 307.8834562  +6.2728984     2659.518     4302.237     3726.669     77.55012     155.1002     310.6956      1.717     4.07     853.1792      54.7924     306.1464        26     1.364     1.124  42.18   0
        29    945.5084    978.6339 307.5124257  +6.3036861     5855.762     10518.01     11037.87     78.04408     155.3478      310.881      1.921     4.43     851.8099      54.7924     656.2687        36     1.657     1.183  47.14   0
        30    919.1555    970.2549 307.5236469  +6.3062703     2006.549     3450.181     3530.336     77.92088     155.4714      310.881      1.778     4.22     852.4578      54.7924     241.5978        26     1.578     0.993  58.04   0
        31    252.1674    966.7231 307.8006971  +6.2854987     4368.238     6858.411     6967.308     77.79749     155.4714     310.7883      1.650     3.77     855.3866      54.7924     610.0974        28     1.466     0.996  42.88   0
        32    778.5487    966.8705 307.5821411  +6.3029936     1068.806       1895.6     1965.573     77.79749     155.4096     310.8811      1.978     6.53     854.9389      54.7924     156.2265        19     1.725     0.922  49.53   0
        33    640.0723    966.3026 307.6396562  +6.2986184     4472.091     7119.099     6811.061      77.6739      155.595     310.8192      1.710     3.84     855.8075      54.7924     534.8153        34     1.612     1.032  41.37   0
        34     20.7989    964.1481 307.8968417  +6.2788166     2094.833     3404.161     3392.058     77.30196     155.1002     310.4172      1.676     3.96     851.7764      54.7924     272.7526        21     1.393     0.949  54.13   0
        35    990.2168    964.8688 307.4943207  +6.3108538     596.5794     992.3356     1659.675     77.42613     155.3478     310.7574      1.497     3.37     848.8634      54.7924     94.07764         5     0.976     0.336  46.10   0
        36    871.4713    962.9006 307.5436911  +6.3077223     842.8206     1454.546     1508.357      77.6739      155.595     310.8502      1.815     7.05     852.4896      54.7924     116.6321        14     1.530     0.926  49.12   0
        37    462.1400    964.7115 307.7135865  +6.2933431      1146.71     1800.064     2081.726     77.79749      155.595     310.9429      1.615     4.72     857.0925      54.7924     161.4183        14     1.244     0.755  37.70   0
        38    564.5233    958.9254 307.6712709  +6.2991467     1720.437     2554.749     2364.905     78.16707     155.7184      310.912      1.592     4.09     856.7439      54.7924     218.5403        18     1.314     0.918  68.43   0
        39    288.3017    960.3379 307.7859089  +6.2893430     935.1611     1345.174      1428.23      77.6739      155.595      310.912      1.562     5.66     855.8825      54.7924     121.9786        12     1.212     0.745  45.05   0
        40    963.0494    960.6523 307.5057415  +6.3116927     462.5924      612.132     65.20316     78.04407     155.3478     310.8192      1.567     4.68     850.1847      54.7924     88.77008         5     1.353     0.460   5.60   0
        41    943.2001    959.8061 307.5140114  +6.3113830     751.5056     1252.908     1264.093     77.30196     155.1622     310.6647      1.784     5.86      851.207      54.7924     92.17542        10     1.118     0.863  33.21   0
        42    996.1642    957.5388 307.4920953  +6.3140776     653.0447     1256.515     1722.235     77.92088     155.4714     310.8192      2.129     4.01     848.3495      54.7924     91.30939         6     1.012     0.461  57.72   0
        43     53.9463    956.0610 307.8833519  +6.2832661     934.0466     1087.849     1566.438     77.92088     155.4096     310.8192      1.402     4.22     852.0306      54.7924     143.4162        12     1.211     0.735  61.45   0
        44    603.6338    954.9898 307.6551637  +6.3020751     1343.106     1996.449     1796.343     77.42613     155.2859     310.6956      1.545     3.78     856.0441      54.7924       199.36        13     1.134     0.784  30.46   0
        45    283.6998    953.2195 307.7880584  +6.2921280     1427.379     2125.849     2668.976     77.92088     155.3478     310.6337      1.641     4.31     855.5698      54.7924      204.334        14     1.334     0.675  47.42   0
        46    750.7417    949.0350 307.5942822  +6.3094322     916.9016     1482.156     1206.401     77.79749     155.4714     310.8192      1.567     5.41     855.0759      54.7924     146.2158        13     1.602     0.667  51.54   0
        47    888.2228    945.6434 307.5373110  +6.3154040     6318.083     10906.12     11207.27     77.42613     155.3478     310.6647      1.840     4.27     851.6695      54.7924      750.694        39     1.670     1.150  50.43   0
        48    593.3427    943.1253 307.6598333  +6.3066307      544.981     760.3739     1099.443     77.92088     155.4096     310.8192      1.735     5.14     856.1842      54.7924     102.2589         7     1.527     0.489  46.15   0
        49    424.0385    942.9202 307.7301359  +6.3010683      2048.78     2922.679     2511.523     77.79749     155.5332     310.8192      1.536     4.10     855.9919      54.7924     289.3279        18     1.328     0.853  48.17   0
        50    325.7371    941.3581 307.7710026  +6.2984301      9726.33     14656.56     15894.63     77.92088     155.4096      310.912      1.649     3.60     855.4191      54.7924     1304.628        39     1.555     1.034  46.54   0
        51    245.7544    940.1723 307.8042505  +6.2962461      6998.51     11024.95     11731.39     77.42613     155.5332     310.7574      1.683     3.74     854.7034      54.7924     917.1494        35     1.548     1.043  52.83   0
        52    573.9769    934.5411 307.6681612  +6.3095294     1090.419     1624.278     1766.717     77.55012     155.4714     310.7265      1.615     4.31     856.3843      54.7924     149.4656        12     1.263     0.618  45.86   0
        53    903.8242    930.4160 307.5313406  +6.3222095     950.6949     1480.716     1733.986      77.6739     155.3478     310.7883      1.664     5.05     850.8545      54.7924     127.9288        11     1.197     0.782  67.68   0
        54    136.8683    930.1241 307.8497960  +6.2967513     556.1463       875.73     691.3326     78.04407      155.595     310.8502      1.639     5.46     852.5378      54.7924     80.62152         6     1.334     0.631  75.53   0
        55    859.5093    929.1420 307.5497837  +6.3212628     786.0529     1565.564     1357.177     77.79749     155.4714     310.9738      2.135     5.89     851.3914      54.7924     114.0082        11     1.225     0.861  57.27   0
        56    402.9901    929.0406 307.7393401  +6.3060960     719.7267     791.2531     1087.965     77.30196     155.2859     310.5719      1.367     4.56     855.3516      54.7924      108.838         7     0.880     0.671  48.37   0
        57    971.5211    925.8430 307.5033834  +6.3263460     624.2206     1266.231     1795.646     77.79749     155.4714      310.881      2.202     4.47     848.6215      54.7924      101.713         7     0.884     0.642  20.24   0
        58    740.2025    923.7886 307.5995012  +6.3195050     1654.182     2566.344     2835.124     77.55012     155.1622     310.6647      1.716     4.70     854.9727      54.7924     194.0433        18     1.303     0.973  38.14   0
        59    563.9510    924.2753 307.6726674  +6.3134336     905.9959     1265.706      786.972     77.79749     155.5332      310.881      1.483     4.43      856.321      54.7924     146.0499        11     1.262     0.626  28.66   0
        60    604.6340    920.7161 307.6558943  +6.3162590     797.4164     1079.458     770.1454     77.92088     155.3478     310.8192      1.518     5.75     855.8647      54.7924     108.7968        10     1.095     0.850  20.56   0
        61    525.3295    919.6244 307.6888591  +6.3140660     1341.328     2099.386     1925.518     77.55012     155.3478     310.7883      1.702     4.22     856.4551      54.7924     196.7667        15     1.225     0.850  48.99   0
        62    971.2456    919.1702 307.5037201  +6.3290919     1129.976     1900.831     2623.815     77.55012      155.595     310.7265      1.957     6.73     848.6174      54.7924     124.6079        17     1.523     0.910  45.66   0
        63    616.6027    920.4719 307.6509329  +6.3167587     537.1376     808.9548     167.0617     77.42613     155.1002     310.6956      1.527     4.19     855.7215      54.7924     89.71588         6     1.080     0.463  11.03   0
        64    658.9367    917.1829 307.6334650  +6.3195269     2517.288     3836.004      3926.99     77.42613     155.4096     310.6956      1.612     3.85     855.2122      54.7924     371.4324        21     1.312     0.912  47.52   0
        65     55.3144    913.3596 307.8842194  +6.3009413      3077.33     4941.525     4873.946     77.92088     155.4096     310.8192      1.749     3.73     850.4061      54.7924      431.725        27     1.556     0.964  53.77   0
        66    819.8048    913.2952 307.5667986  +6.3264855      757.572     1049.502     967.8804      77.6739     155.1622     310.6337      1.632     4.98     852.7108      54.7924     119.9641         9     1.289     0.545  36.34   0
        67    198.9055    912.3629 307.8246352  +6.3061603     2288.946     3506.284     3076.664     78.04407     155.3478     310.9738      1.652     3.85     853.3221      54.7924     307.3046        21     1.450     0.896  43.25   0
        68     73.0199    912.7738 307.8768880  +6.3017764     1949.927     2865.743     2717.656     77.42613     155.2859     310.7574      1.548     4.00     850.7183      54.7924     270.0642        18     1.372     0.794  43.46   0
        69    937.1289    912.0561 307.5181235  +6.3308962     712.1693     1166.985     871.4148     77.92088     155.4096     310.8192      1.519     5.06     850.0532      54.7924     107.9253         9     1.224     0.592  62.50   0
        70    337.7483    908.3013 307.7671238  +6.3124794     964.7652     1368.924     1999.625     77.79749     155.4714     311.0664      1.429     2.68     854.6175      54.7924     168.6393         8     0.908     0.576  72.39   0
        71    653.4349    906.3468 307.6361116  +6.3238175     7113.152     10723.71      11376.6     77.79749     155.4714     310.8502      1.653     3.72     855.1228      54.7924     1039.447        31     1.482     0.980  45.99   0
        72    232.5444    908.5344 307.8107969  +6.3088663      716.645     983.6207     1097.774     78.04408     155.3478     310.8502      1.532     3.73     853.7784      54.7924     126.1392         6     0.928     0.431  17.84   0
        73    790.6498    906.4648 307.5791325  +6.3283360     602.9007     929.9055     948.2355     77.79749     155.4096     310.8502      1.546     3.88     853.4911      54.7924     92.99164         6     0.903     0.477  88.77   0
        74     13.4505    904.6604 307.9018932  +6.3031299     1234.394     1731.004     1767.566     77.92088     155.4096     310.8502      1.551     4.25     849.5281      54.7924     184.3898        12     1.079     0.790  54.11   0
        75    891.0919    902.2672 307.5375658  +6.3334084     2728.339     4456.421     4565.979     77.79749      155.595      310.881      1.734     3.78     850.6835      54.7924     351.6299        26     1.474     1.037  48.07   0
        76    442.9670    903.7322 307.7235891  +6.3178795     575.2987     821.8652      591.134     77.79749     155.4714     310.8502      1.439     2.44     855.2944      54.7924     115.2086         5     0.772     0.466  57.95   0
        77     26.3354    903.0772 307.8965968  +6.3042154     1005.149     1443.973     1504.068     78.16707     155.4714     310.8502      1.515     4.74     849.7042      54.7924     156.2325        10     1.327     0.660  48.76   0
        78    336.4286    899.5153 307.7679663  +6.3160627     17323.28     25571.34     27069.84     77.92088     155.1622     310.7265      1.631     3.80     854.4443      54.7924     2513.366        47     1.553     1.065  46.83   0
        79     71.0331    900.4162 307.8781283  +6.3068117     1285.662     1979.018     1758.676     77.55012     155.2241     310.7265      1.667     5.29     850.3712      54.7924     160.9968        15     1.381     0.810  55.52   0
        80    207.4471    899.2591 307.8215286  +6.3118561     1275.378     1853.135     1457.081     77.92088     155.4714     310.9429      1.658     5.59     853.0684      54.7924     151.8333        15     1.256     0.794  49.42   0
        81    386.6674    898.2608 307.7471487  +6.3182588     660.1882     903.3286     514.9355     78.04408     155.4096     310.8502      1.592     5.47     854.5647      54.7924     89.91626         9     0.971     0.870  46.03   0
        82    413.7868    890.2765 307.7361558  +6.3224608     1076.733     1473.837     1356.086     77.55012     155.1622     310.6956      1.544     3.77     854.5048      54.7924     169.8839        13     1.097     0.836  52.86   0
        83     99.6671    890.1763 307.8665838  +6.3119984     1571.898      2156.47     1937.026     77.55012     155.4096     310.7883      1.518     4.15     850.6027      54.7924     231.1707        14     1.285     0.709  44.50   0
        84     77.7661    887.3751 307.8757711  +6.3124213     470.9561     675.8848     1127.996     77.30196     155.2859     310.6337      1.598     4.77     850.1635      54.7924     75.35028         5     1.040     0.622 -63.18   0
        85    667.8674    886.1547 307.6307936  +6.3326350     870.3196     1266.062     1360.083     77.92088     155.4096      310.881      1.552     3.53     854.7018      54.7924     158.3699        10     1.070     0.732  49.54   0
        86    881.4878    884.1519 307.5421578  +6.3405686     1985.702     3048.044     3132.892     77.92088     155.3478      310.912      1.694     4.28     850.6129      54.7924     237.0475        23     1.491     0.949  45.45   0
        87    852.0922    883.7817 307.5543763  +6.3397444     1975.694      3190.05     3005.847     77.79749     155.2241     310.7265      1.660     4.07     851.2001      54.7924     246.5825        20     1.295     0.971  55.67   0
        88     83.2015    883.8346 307.8736334  +6.3140651     2382.438     3759.347       4512.5     77.05299     155.2859     310.6337      1.651     4.13     850.1628      54.7924     321.4883        21     1.448     0.902  48.22   0
        89    815.5322    882.9930 307.5695838  +6.3388544     3011.145         4811     5220.134     77.42613     155.2241     310.7265      1.676     3.88     852.3657      54.7924     389.8354        26     1.505     0.992  50.83   0
        90    330.9450    881.8633 307.7708350  +6.3231673     745.9023     1072.264     918.8251     78.04407     155.4096     310.8192      1.365     4.70     854.0758      54.7924     119.2684         8     1.233     0.507  28.38   0
        91    551.5034    874.6767 307.6794951  +6.3334963     349622.6     516459.4     539033.3     77.55012     155.6567      310.912      1.599     3.94     855.1602      54.7924     50984.67       169     1.676     1.230  49.93   4
        92    395.6869    877.2186 307.7441087  +6.3272476     8021.718     11919.47     12775.38      77.6739     155.2241     310.7265      1.593     3.83     854.1189      54.7924     1091.337        31     1.483     0.945  49.82   0
        93    338.9350    875.6846 307.7677246  +6.3259852     13234.57     19934.95     20705.06     78.04407     155.6567      310.912      1.581     3.64      853.928      54.7924     1764.046        42     1.557     1.009  48.15   0
        94    639.3823    877.6008 307.6429074  +6.3352178     1220.317     1938.906     2051.817     77.55012     155.0383      310.541      1.612     5.24     854.8507      54.7924     154.4128        11     1.235     0.627  38.43   0
        95    889.9204    870.7210 307.5391040  +6.3463941     5016.928     8171.015     9343.493     78.16707     155.7184     311.0046      1.782     4.00     850.3995      54.7924     649.5825        31     1.562     1.012  44.79   0
        96    657.3656    871.8988 307.6356307  +6.3381710     3825.117     5856.586     6569.249     77.92088     155.3478     311.0046      1.674     3.58      854.609      54.7924     498.4691        24     1.432     0.855  45.10   0
        97   1022.8588    864.7723 307.4841000  +6.3532648     3861.058      5691.83     6211.287     75.66908     134.8917     246.5633      1.622     4.08     846.1304      54.7924     461.2648        25     1.521     0.919  76.03  24
        98    728.9868    867.9474 307.6060229  +6.3421871     804.2505     1220.052     1308.334     77.30196     155.4096     310.6028      1.626     3.70     853.7936      54.7924     140.0024         8     0.967     0.583  67.43   0
        99    632.1107    866.0206 307.6463139  +6.3397567     3363.242      5222.45      5624.44     77.79749     155.2241     310.7265      1.685     4.12     854.7288      54.7924     449.8492        24     1.485     0.899  48.91   0
       100    820.7289    864.9424 307.5680281  +6.3464799     1571.014     2703.246      2840.43     78.04407     155.4714     310.8192      1.755     4.03     851.9194      54.7924     245.4398        19     1.434     0.944  66.96   0
       101    622.6836    865.0942 307.6502593  +6.3398250     1016.385     1826.497     1661.282      77.6739     155.8418     310.9738      1.566     6.16     854.7862      54.7924      136.261        12     1.400     0.762  53.50   0
       102    174.9328    866.1029 307.8361419  +6.3244570     573.4321     877.9587      718.154     77.92088     155.5332      310.881      1.549     3.68      851.731      54.7924     110.3672         5     1.244     0.314  62.38   0
       103    947.6814    863.9145 307.5153459  +6.3511232     722.7791     1067.076     1313.635      77.6739     155.7801      310.912      1.475     6.65     849.1613      54.7924      107.517        10     1.282     0.969  33.09   0
       104    625.0919    860.4514 307.6494145  +6.3418222     2195.139     3231.474     3980.502     77.79749     155.3478     311.0355      1.626     4.03     854.6052      54.7924     287.2518        19     1.429     0.775  49.98   0
       105    908.7286    858.6506 307.5316964  +6.3520026     3043.462     5010.616     5133.117     77.92088     155.4714      310.881      1.749     4.13     850.0565      54.7924     417.2671        24     1.500     0.952  55.79   0
       106    319.0166    859.3636 307.7765423  +6.3320579      996.575     1542.606     1614.469     77.55012     155.3478     310.6337      1.660     5.20     853.5295      54.7924     169.7305        13     1.294     0.744  47.06   0
       107    366.8639    854.6921 307.7568316  +6.3355853     2789.576     4035.045     3719.664     77.92088     155.6567      310.912      1.540     3.51     853.2987      54.7924     389.4751        18     1.291     0.813  46.21   0
       108    335.1688    846.6236 307.7702627  +6.3378576     594.7765     572.4181     109.0209     77.30196     155.2859     310.6337      1.241     3.57     852.9406      54.7924     99.92596         5     0.999     0.368  85.76   0
       109    503.0245    844.3154 307.7006411  +6.3444147      3352.78     4596.444     3981.464     77.79749     155.2241     310.7574      1.459     3.79     853.7444      54.7924     471.4347        21     1.343     0.846  46.22   0
       110    847.9664    843.5092 307.5574329  +6.3562347     1130.439     1720.147     2266.427     78.04407     155.3478     310.8502      2.061     5.55     850.7806      54.7924     138.1403        16     1.440     0.905  44.16   0
       111    549.9485    840.5503 307.6812825  +6.3475342     6350.554     9518.683     10244.92     78.04407     155.3478     310.7883      1.607     3.65     853.8193      54.7924     877.3844        33     1.561     0.944  49.55   0
       112    568.3270    842.1900 307.6735962  +6.3474699     977.6663     1153.877     794.2425     77.42613     155.1002     310.7265      1.335     3.95     853.9319      54.7924     150.9376         9     0.927     0.704  20.41   0
       113    261.2703    840.7318 307.8011448  +6.3378199     707.0088     1004.246     580.1094     77.92088      155.595     310.8192      1.416     2.98     852.2823      54.7924      133.641         8     0.901     0.591  78.39   0
       114    556.6851    839.7204 307.6785129  +6.3481014     1396.156      2042.64     2345.948     77.79749     155.7801     310.9429      1.516     4.53     853.8029      54.7924     202.1875        14     1.291     0.817  45.64   0
       115    467.7065    839.5108 307.7154673  +6.3452200     1659.368     2276.352     2416.983     77.92088     155.9034      310.912      1.477     3.73     853.4224      54.7924     235.5501        16     1.272     0.749  37.19   0
       116    109.3441    838.5247 307.8643016  +6.3336471     1582.271     2118.971      1905.51     77.79749     155.4096     310.7574      1.529     3.67     849.6364      54.7924     203.8129        15     1.132     0.861  61.88   0
       117    885.4711    838.2516 307.5420343  +6.3596521     1344.021     1937.374     2355.795     77.79749     155.4714      310.881      1.615     4.11     850.0518      54.7924     196.6013        15     1.351     0.746  45.12   0
       118    685.7557    837.3099 307.6249978  +6.3533973     762.0798      1112.93     838.9628     77.92088     155.4096     310.9429      1.582     4.11     853.5672      54.7924     113.8495         8     1.140     0.542  37.62   0
       119    520.6356    834.3599 307.6936615  +6.3491125     20649.22     30427.91     31435.04      77.6739     155.4714     310.6647      1.595     3.74     853.3945      54.7924     3149.925        46     1.523     1.040  47.67   0
       120    361.7744    835.8862 307.7595753  +6.3431795     737.8937     1139.901     802.0903     78.04407     155.2859     310.7265      1.408     3.80     852.5063      54.7924      133.416         6     0.951     0.436  49.98   0
       121    934.2563    832.5957 307.5219644  +6.3636081     3561.767     6025.994     6814.344     77.30196     155.2859     310.5719      1.811     3.96     849.1848      54.7924     502.3422        33     1.576     1.099  50.17   0
       122     54.0673    830.7015 307.8875162  +6.3350253     622.7365     677.1318     360.2706     77.92088      155.595     310.8502      1.399     4.90     848.6328      54.7924      112.623         7     1.051     0.648  65.39   0
       123    406.7796    829.9979 307.7410850  +6.3471137     565.4546     706.3641     582.4233     77.55012     155.1622     310.6028      1.339     3.80     852.7468      54.7924     90.39105         6     0.913     0.455  53.36   0
       124     30.8782    824.9324 307.8973386  +6.3366299      1415.81     2254.514     1896.879     78.04407     155.5332     310.8192      1.574     4.36      848.213      54.7924      211.746        15     1.394     0.728  46.51   0
       125    313.2713    823.1021 307.7801439  +6.3468369     3514.009      4950.64      4852.27     77.79749      155.595     310.8502      1.530     3.67     851.9528      54.7924     498.6354        21     1.376     0.832  52.58   0
       126     13.0970    821.2670 307.9048449  +6.3375472     2184.158     3345.438     3382.156     77.92088     155.5332      310.881      1.565     4.20     847.8978      54.7924     302.6562        20     1.395     0.881  45.85   0
       127    778.7722    818.8373 307.5869894  +6.3641200     55576.94     84318.52     88565.41     77.42613     155.1622     310.6337      1.604     3.64     851.7408      54.7924     7515.722        71     1.609     1.109  47.71   0
       128    717.3030    820.3315 307.6124649  +6.3614575     723.4009     1091.201     1350.518     77.79749      155.595     310.8502      1.581     4.61      853.033      54.7924     99.98853         8     0.925     0.672  21.25   0
       129    235.8922    816.7344 307.8124878  +6.3468788     5547.473     8705.487     10789.72     77.92088     155.6567     310.8502      1.824     3.62     851.0518      54.7924     738.4839        36     1.545     1.173  58.15   0
       130    421.6761    817.5164 307.7353175  +6.3527643     1052.408     1306.731     880.0978     78.04408     155.7801     310.9429      1.385     3.86     852.4896      54.7924     163.8214        10     1.063     0.686  58.09   0
       131    904.0712    814.0394 307.5351177  +6.3702668     8311.117     13062.76     13465.95     77.79749     155.4714      310.912      1.675     3.74     849.4335      54.7924     1105.947        36     1.589     1.014  49.48   0
       132    706.9816    813.4397 307.6169812  +6.3639593     22563.68     34285.89     36381.93     77.55012     155.2859     310.6028      1.626     3.77     852.9342      54.7924     3315.292        45     1.631     1.003  51.96   3
       133    700.6783    809.9467 307.6197153  +6.3651916     91461.36       135131     140578.3     78.04407     155.4714      310.881      1.573     3.62     852.8891      54.7924     12465.74        79     1.610     1.098  51.03   3
       134    345.5642    810.9188 307.7671433  +6.3529461     21970.74     31866.73     33397.98     77.79749     155.5332     310.8192      1.558     3.60     851.3911      54.7924     3091.103        47     1.544     0.993  49.87   0
       135    235.4683    795.2629 307.8133845  +6.3557293     759587.1      1652932      1814991     77.92088     155.4096      310.912      2.222    10.94     850.2487      54.7924     63442.26       617     2.487     2.050  63.78   4
       136    944.6051    807.5905 307.5185004  +6.3742759      2018.88     3415.761     3899.231     77.30196     155.2241     310.6956      1.849     4.67     848.3885      54.7924     290.2087        19     1.424     0.894  45.76   0
       137    901.0057    805.4604 307.5366767  +6.3737070     6478.333     10263.11     10668.68     77.30196     155.3478     310.6337      1.688     4.01     849.3511      54.7924     811.4064        30     1.541     0.961  45.68   0
       138    873.3982    806.2114 307.5481162  +6.3724794     566.0598     1048.528     778.5287     77.55012     155.1622     310.6337      1.865     4.38     849.8583      54.7924     80.28442         5     1.133     0.482  32.37   0
       139    641.4684    804.5609 307.6444826  +6.3654433     6785.784      9623.62     9825.831     77.79749     155.4714     310.9738      1.524     3.58     852.8051      54.7924     1052.758        29     1.402     0.916  48.31   0
       140    430.1789    802.6483 307.7322849  +6.3591867     1864.885     2540.125     2532.092     77.55012     155.4714     310.6956      1.479     3.94     852.0154      54.7924     244.9043        16     1.280     0.769  50.07   0
       141    634.2993    810.1445 307.6472730  +6.3628992     804.1675     1139.251     1210.607      77.6739     155.4714     311.1282      1.486     3.74     852.9573      54.7924     125.8671         8     1.049     0.497  34.14   0
       142    155.6810    802.1841 307.8462824  +6.3502020     942.6368     1251.036     1183.595     77.55012     155.2241     310.7265      1.608     5.79     849.7931      54.7924     134.8647        11     1.419     0.666  41.09   0
       143    594.5803    796.8115 307.6642124  +6.3670804     1055.608     1682.429     1863.624     77.55012     155.1622     310.7574      1.803     5.27     852.3705      54.7924     151.6209        12     1.292     0.645  53.86   0
       144   1023.5308    796.7215 307.4860870  +6.3813838     545.4341     694.1292     1370.512     69.72211     125.9033     236.1749      1.352     4.32     845.8326      54.7924     102.6232         5     0.990     0.537  51.01  24
       145    869.4734    796.3348 307.5500754  +6.3764268     789.5689     1203.917     932.0879     78.04408     155.4714     310.8502      1.581     4.53      849.782      54.7924     120.0582        10     1.152     0.739  53.16   0
       146    676.6057    794.6746 307.6302220  +6.3706955     2538.206     3823.671     3741.213     77.55012     154.9763     310.7265      1.644     3.54     852.5524      54.7924     403.5893        19     1.300     0.822  47.41   0
       147    145.4592    795.5900 307.8507484  +6.3525822       1139.5     1435.391     832.5148     77.30196     155.3478     310.5719      1.463     4.38      849.304      54.7924      138.236        14     1.138     0.895  34.23   0
       148    120.5827    795.2098 307.8610906  +6.3519062      1119.49     1507.696     866.1419      77.6739     155.2241     310.7265      1.584     4.60     848.8175      54.7924     152.7604        13     1.303     0.758  45.74   0
       149    410.3792    791.4017 307.7408834  +6.3631689     57406.24     82863.38     86498.61     77.55012     155.1622     310.5719      1.593     3.66     851.3585      54.7924     9076.791        64     1.538     1.073  45.13   0
       150    952.9623    792.9670 307.5155172  +6.3805912     720.7488      1140.31     1476.355     77.55012     155.2241     310.6337      1.696     4.10     847.8923      54.7924     93.56958         7     0.918     0.522  42.78   0
       151    528.0995    790.3438 307.6920353  +6.3675342     7458.903     11051.52     11136.52      77.6739     155.4714     311.0664      1.539     3.81     851.5164      54.7924     1145.646        31     1.431     0.955  51.13   0
       152    444.9404    789.0876 307.7266094  +6.3652782     4667.582     6935.323      7603.26     77.92088      155.595     310.9428      1.546     3.71     851.3774      54.7924     705.0874        25     1.396     0.994  52.86   0
       153     62.7970    792.0442 307.8851913  +6.3512776     563.3014     828.1631     1121.482     77.30196     155.1002       310.51      1.400     3.83     847.8482      54.7924     93.13867         5     0.813     0.517  32.36   0
       154    773.3358    786.9366 307.5903119  +6.3771101     11955.13     17769.76     18895.12     77.92088     155.4714      310.881      1.581     3.69       851.22      54.7924     1631.759        38     1.542     0.977  51.47   0
       155    668.2488    786.0295 307.6339812  +6.3739865     499.7569     681.7571      444.708     77.55012     155.5332     310.7574      1.231     3.77     852.2918      54.7924     86.09906         5     0.820     0.497  32.65   0
       156    441.5573    782.5964 307.7282317  +6.3678453     2463.015     3677.869     4211.471     77.30196     155.1622      310.541      1.655     3.75     851.0851      54.7924     405.0676        16     1.291     0.716  54.86   0
       157      2.5819    783.3767 307.9104856  +6.3528378     1346.813     1695.753     1783.239      77.6739     140.2685     253.2144      1.437     3.79     846.8408      54.7924      166.407        13     1.124     0.774  39.48  24
       158    794.8608    781.2258 307.5815639  +6.3801840     1294.335     2144.485     2480.679     77.55012     155.4714     310.7574      1.827     5.98     850.4977      54.7924      177.392        17     1.614     0.755  44.25   0
       159    139.0341    779.4472 307.8539586  +6.3590318     3175.355      4986.98     5050.655      77.6739     155.4714     310.7883      1.672     3.84     848.3849      54.7924     439.3202        26     1.477     1.037  55.55   0
       160    131.0187    779.0529 307.8573001  +6.3589262     12000.77     17872.71      18833.3     77.42613     155.5332     310.6647      1.537     3.54     848.2726      54.7924     1773.796        39     1.473     1.026  45.73   3
       161    123.1292    776.5665 307.8606597  +6.3596885     3048.539     4871.841     5413.472     77.79749     155.4714      310.912      1.812     4.29     848.0735      54.7924     436.3657        28     1.684     0.897  41.74   3
       162    963.4297    779.6578 307.5116139  +6.3864339     553.5495     1047.184     815.2755      77.6739     155.5332     310.7265      1.491     3.50     847.4488      54.7924     86.11066         5     1.041     0.340  68.55   0
       163    968.1410    775.5691 307.5097936  +6.3882784     1497.379     2126.621     2291.168      77.6739     155.4714     310.8192      1.609     4.97     847.2929      54.7924     208.4787        20     1.501     0.926  54.79   0
       164    918.8983    775.4888 307.5302457  +6.3866760     6549.579     9874.959     10704.63     77.92088     155.9034     310.8502      1.654     3.83     848.3121      54.7924     880.9629        31     1.527     0.979  47.54   0
       165    407.4516    808.7432 307.7415181  +6.3559115     23929.97     34431.25     35766.96     77.92088     155.4714     310.8502      1.561     3.75     852.0562      54.7924     3521.079        46     1.515     0.982  47.79   0
       166    674.2669    773.1303 307.6319132  +6.3795126     1790.661      2463.58     2874.279     77.92088     155.5332     310.8502      1.451     3.77     851.9227      54.7924     311.4208        14     1.252     0.717  47.57   0
       167    561.2554    772.3205 307.6788701  +6.3760811     2460.301     3361.293     3312.012     78.04408     155.4714     310.8811      1.394     3.26     851.0883      54.7924     417.1722        16     1.199     0.742  53.47   0
       168    409.1062    772.0087 307.7420619  +6.3711331     1142.073     2051.394     2543.095     77.55012     155.1002     310.6647      2.101     4.64     850.4368      54.7924     161.4649        15     1.372     0.778  48.05   0
       169    123.2765    770.0199 307.8608185  +6.3623963      2069.66     3103.314     3466.723     77.55012     155.1622     310.7883      1.526     3.69     847.7701      54.7924      322.399        19     1.338     0.839  47.77   0
       170    394.5353    810.9288 307.7468082  +6.3545778     1556.429     2065.791      2300.65     77.92088     155.5332      310.912      1.405     2.90     851.9583      54.7924     274.4336        11     0.996     0.726  42.14   0
       171    973.1643    766.9589 307.5079944  +6.3920002     1851.995     2946.707     2982.511      77.6739     155.4714     310.6956      1.802     4.31     847.1124      54.7924     266.1227        20     1.338     1.021  50.52   0
       172    942.6858    766.9904 307.5206506  +6.3909750     2930.256     4868.714     5212.003     77.55012     155.1622     310.6956      1.718     4.31     847.6398      54.7924     395.5826        27     1.631     0.996  54.90   0
       173    912.9383    767.5587 307.5329852  +6.3897522     3116.001     4925.042     5265.677     77.92088     155.4714      310.912      1.696     3.80     848.2711      54.7924     406.7848        24     1.456     0.923  54.21   0
       174    665.4524    766.8161 307.6357846  +6.3818260     1317.764     1710.356     1388.233     77.42613     155.5332     310.5719      1.392     4.11     851.7453      54.7924     241.5862        14     1.370     0.650  43.98   0
       175    812.8090    765.2818 307.5746426  +6.3873639     1001.057     1358.492     1484.804     77.55012     155.1002     310.6956      1.514     4.33     849.9836      54.7924     160.1309        11     1.212     0.703  44.74   0
       176    238.1372    762.0680 307.8133905  +6.3695234     2325.136     4362.187     6956.366     77.92088     155.4096      310.881      3.625     4.22     848.6368      54.7924     311.8754        33     1.827     1.196  68.43   0
       177    887.8130    762.7300 307.5435802  +6.3909110      824.736     1183.648     1582.192     77.42613     155.2241     310.7265      1.459     5.00     848.7258      54.7924     128.8597        10     1.293     0.550  39.99   0
       178    258.3223    757.6631 307.8051564  +6.3720171     748.1189     1035.996     1104.543     78.16708     155.5332     310.8502      1.659     4.83      848.814      54.7924     115.7158         8     1.276     0.519  69.63   0
       179    930.8024    756.7892 307.5259256  +6.3947921     1076.976     1712.889     1800.318     77.55012     155.1622     310.6647      1.677     4.86     847.5955      54.7924     141.9254        13     1.408     0.700  68.76   0
       180    153.2218    757.0082 307.8488212  +6.3687709      808.552     1178.829      1169.85     77.55012     155.2859     310.6337      1.613     5.26     847.4553      54.7924     111.0746        10     1.230     0.636  54.42   0
       181    957.5835    754.7281 307.5148725  +6.3965326     2375.708     3876.693     4141.638     77.42613     155.4096     310.7574      1.685     4.14     847.2031      54.7924     322.2673        22     1.549     0.858  46.78   0
       182    904.6294    755.7906 307.5368281  +6.3943349      1040.59     1767.178     1876.174     77.42613     155.2859     310.6647      1.686     4.93     848.1707      54.7924     152.1786        14     1.392     0.771  51.10   0
       183    677.0754    753.7059 307.6313961  +6.3876259     1047.356     1507.881     2648.913     77.79749     155.6567     310.8502      1.598     4.74     851.3755      54.7924     134.1324        12     1.283     0.705  38.62   0
       184    999.0719    748.0394 307.4978657  +6.4006718     1811.713     2723.022     3113.422     77.79749     155.4714      310.912      1.630     3.80     846.7021      54.7924     215.3771        16     1.215     0.821  54.28   0
       185    625.7766    747.9410 307.6528919  +6.3882972     755.0908     1092.297      763.409     77.55012     155.4714     310.7265      1.490     5.38     851.1924      54.7924     102.4915         9     1.152     0.709  70.24   0
       186    468.3224    749.1581 307.7182372  +6.3825442     600.3209     667.2015     716.2349     77.79749     155.4714      310.912      1.594     4.42     849.5162      54.7924     91.22168         5     1.148     0.485  32.39   0
       187    800.3448    746.7073 307.5804387  +6.3946182     1184.583     1564.262     1577.653     77.79749     155.4096     311.0046      1.374     3.39     849.9507      54.7924     214.2266        13     1.181     0.697  52.52   0
       188    893.5731    747.1475 307.5417078  +6.3975360     541.5046     760.1292     816.1688     77.55012      155.595     310.7883      1.297     4.22     848.2369      54.7924     91.55365         5     0.951     0.535  41.25   0
       189    886.8663    744.0980 307.5445947  +6.3985722     1639.711     2363.662     2328.763     77.92088     155.5332      310.881      1.538     4.20     848.3494      54.7924     218.4064        16     1.320     0.777  47.50   0
       190    861.2389    739.0610 307.5554054  +6.3998000     900.7065     1178.054     1478.558     77.92088     155.4714      310.881      1.420     3.77     848.8822      54.7924     154.5261         8     1.059     0.472  36.73   0
       191    843.8129    735.5949 307.5627579  +6.4006518     1661.607     2455.435      2724.33     77.55012     155.2241     310.7265      1.575     4.52     849.0991      54.7924      260.532        17     1.468     0.782  52.90   0
       192     42.6243    734.5754 307.8955002  +6.3743278     2561.093     3763.489     4090.145     77.42613     155.2859     310.7574      1.592     4.47     845.7755      54.7924     335.3822        19     1.356     0.847  44.73   0
       193    106.7022    733.3843 307.8689321  +6.3769664     955.7471     1627.925     1922.344     77.92088     155.2241     310.6337      1.955     6.67     846.1837      54.7924     117.8567        14     1.794     0.695  61.01   0
       194    454.9938    732.9600 307.7243147  +6.3887869     601.8293     996.9615     1425.707     77.17757     155.1622     310.5719      1.485     3.40     848.7842      54.7924     126.7069         5     0.979     0.356  56.16   0
       195    560.6083    729.4023 307.6805748  +6.3937791     668.9062      763.999    -33.19565     77.30196     155.1622     310.6647      1.170     4.71     849.5341      54.7924     108.7953         7     1.178     0.552  34.08   0
       196    655.4467    722.9023 307.6414076  +6.3996235     6598.528     9385.383     9509.976     77.92088     155.3478     311.0046      1.496     3.71     850.2735      54.7924     998.3727        25     1.410     0.806  45.67   0
       197    602.2117    722.2868 307.6635358  +6.3981038      1561.28     2468.149       2616.5     77.55012     155.2241     310.7265      1.572     3.91     849.9734      54.7924     294.1938        15     1.402     0.693  49.98   0
       198    524.0398    723.1628 307.6959697  +6.3951357     807.5198     1211.823     1287.905      77.6739     155.4714     310.7265      1.595     4.98     848.9165      54.7924     120.5287         8     1.141     0.616  54.47   0
       199    513.2119    722.5735 307.7004860  +6.3950178     748.8777     1323.391     1747.717     77.55012     155.2859     310.7883      1.980     5.65     848.8525      54.7924     112.6993        11     1.407     0.640  20.49   0
       200    118.2339    718.8137 307.8646333  +6.3833682     3871.817      5818.94     5884.436     77.42613     155.2241     310.7574      1.583     3.76     845.8353      54.7924     527.9891        26     1.478     0.927  48.03   0
       201    992.3917    718.0300 307.5016397  +6.4128402     2544.121     3775.882     3251.387     77.42613     155.2859     310.6337      1.597     3.83     846.7648      54.7924     306.2366        21     1.298     0.966  52.04   0
       202    629.3865    718.5679 307.6523749  +6.4005448     2229.099     3071.104     3425.028     77.55012     155.2241     310.7883      1.449     3.79     850.0047      54.7924     397.4638        15     1.202     0.771  52.44   0
       203    305.4029    719.3576 307.7868911  +6.3894061     734.3064     989.7714     882.9238     77.30196     155.1002     310.5719      1.429     5.13     847.6033      54.7924     132.9539        10     1.362     0.546  49.53   0
       204    772.3020    714.9570 307.5931445  +6.4067942     21064.65     30750.13     31856.54     77.92088     155.4096     311.0664      1.554     3.71     849.6392      54.7924     3033.905        46     1.531     0.992  51.15   0
       205    240.7766    718.3284 307.8137626  +6.3876700     817.8915     1227.115     977.4789     77.55012     155.3478     310.8502      1.520     4.58      846.635      54.7924     123.3779         9     1.156     0.570  19.63   0
       206    902.4334    714.7021 307.5391101  +6.4112264     3724.026     5735.859      6039.08     77.92088     155.3478     310.9738      1.705     4.02     847.5677      54.7924     524.6571        25     1.523     0.881  46.80   0
       207    454.4486    716.4591 307.7250938  +6.3955814     552.6864     736.3658     784.9111     77.92088     155.4714      310.912      1.195     4.01     848.2464      54.7924     116.6318         5     1.133     0.406  55.26   0
       208    499.6875    714.7894 307.7063630  +6.3977804     1035.693     1428.051     1452.077     77.55012     155.2241     310.6956      1.408     3.56     848.5714      54.7924     146.0132        12     1.106     0.761  45.48   0
       209    471.1335    715.2419 307.7182057  +6.3966408      1507.61     2170.596     2321.892     77.92088     155.4096      310.912      1.451     3.91     848.3809      54.7924     274.9945        12     1.301     0.599  39.48   0
       210    316.8279    714.8965 307.7822963  +6.3916298     756.3046     1069.105     687.8565     78.04407     155.2241     310.7883      1.551     5.14     847.3984      54.7924      110.639        10     1.326     0.562  52.69   0
       211    273.9824    715.0713 307.8000828  +6.3901253     526.6972     682.8321     291.4338     77.42613     155.4096     310.7883      1.218     3.57     847.0824      54.7924     104.1084         5     0.976     0.377  59.21   0
       212    652.8391    707.7207 307.6429981  +6.4058046      7454.22     10882.51     11114.88     77.79749     155.5332     310.8192      1.530     3.58      849.604      54.7924     1090.951        32     1.474     0.911  52.15   0
       213    635.1743    708.9678 307.6502924  +6.4047012     1054.086      1513.32     1487.509     77.42613     155.2241     310.6956      1.543     5.52     849.5477      54.7924     134.0721        11     1.090     0.788  74.28   0
       214    245.7852    708.6974 307.8120060  +6.3918138     6721.757     9765.305     9976.047     77.79749     155.2241     310.6337      1.530     3.44     846.3196      54.7924      954.598        28     1.405     0.916  44.05   0
       215    348.0542    707.7079 307.7695700  +6.3956413     853.6816     1243.904     814.4147     77.79749     155.3478     311.0046      1.345     4.41     847.0844      54.7924     154.8026        10     1.263     0.601  43.88   0
       216    912.7256    700.4383 307.5353114  +6.4174575     1314.108      1846.01     2032.304     77.79749     155.5332      310.912      1.493     4.65     847.2221      54.7924      167.285        14     1.221     0.769  40.11   0
       217    724.6354    696.3415 307.6135619  +6.4128937      3858.46     5804.203     6329.742     77.79749     155.4714     310.8502      1.670     3.91     849.3133      54.7924     579.6689        26     1.498     0.874  54.46   0
       218    679.9028    696.7101 307.6321268  +6.4112521     1064.211     1460.824     2235.002     77.92088     155.9034     310.8502      1.459     4.04     849.2868      54.7924     196.2722        12     1.310     0.652  51.35   0
       219    990.8335    692.6866 307.5031312  +6.4232522     8527.669     13476.23     13813.25     77.92088     155.3478     310.8502      1.684     3.80      846.766      54.7924     1133.024        36     1.581     1.022  48.45   0
       220    929.3733    693.2930 307.5286358  +6.4209607     2384.588     3792.324     4352.304     78.04408     155.2241     310.6956      1.742     3.75     846.9303      54.7924     356.4155        22     1.440     0.862  48.08   0
       221    731.7051    693.5875 307.6107178  +6.4142661      657.204      1120.03     792.9072      77.6739     155.2241     310.6956      1.852     4.09     849.2473      54.7924     113.5458         7     1.184     0.753  45.44   0
       222      9.9312    692.7534 307.9104828  +6.3904982     1985.571     3254.275     3719.596     77.92088     155.4096     310.8502      1.767     4.11     844.5515      54.7924     281.2361        19     1.485     0.792  33.16   0
       223    543.7593    691.2260 307.6888495  +6.4089791     731.9402      975.568     1008.662     77.55012     155.2859     310.6647      1.651     5.10     848.0474      54.7924     136.8289         8     1.252     0.589  36.98   0
       224    426.0929    690.6746 307.7377332  +6.4052803     666.8287     972.4046     858.8579     77.92088      155.595     310.8192      1.530     4.56     846.9922      54.7924      117.138         5     0.954     0.620 -73.88   0
       225    529.5285    688.6325 307.6948461  +6.4095753     2312.588     3281.578     3423.879     77.79749     155.4714     310.8192      1.555     4.03     847.9597      54.7924     353.7957        18     1.381     0.739  49.44   0
       226     68.1505    687.7679 307.8864745  +6.3945079      27096.5     39819.82     41450.25      77.6739     155.4714     310.7883      1.563     3.66     844.7982      54.7924     3694.281        50     1.537     1.021  44.88   0
       227    498.3604    685.8247 307.7078839  +6.4096948     1486.819     2182.238     2157.176     77.55012     155.2859     310.6337      1.578     4.02     847.8238      54.7924     215.7925        17     1.182     1.074 -15.12   0
       228    919.0709    684.4821 307.5332082  +6.4242563      849.756     1183.115     1042.548     78.16707     155.7801      310.881      1.511     5.17     847.0203      54.7924     133.6892        10     1.312     0.623  48.31   0
       229    714.1349    679.8522 307.6184736  +6.4193521      3686.84     5318.711     5507.427     77.92088     155.4096     310.8192      1.550     3.70     848.6763      54.7924     551.9329        23     1.456     0.843  48.38   0
       230    538.2351    682.1568 307.6914471  +6.4125392     1112.723     1494.438     1670.363      77.6739     155.4714     310.6956      1.449     4.07     847.7639      54.7924     164.1415         9     1.035     0.610  31.64   0
       231    736.2310    678.1207 307.6093549  +6.4208025     4329.793     6133.239     6306.047     77.79749     155.4714     310.8192      1.490     3.45     848.6455      54.7924      747.535        24     1.339     0.852  43.29   0
       232    403.6941    676.5900 307.7475070  +6.4103474     1482.268      2353.19     2608.692     77.55012     155.1002     310.6647      1.752     4.12     846.0898      54.7924     216.4745        15     1.381     0.693  48.09   0
       233    567.6868    675.9517 307.6794237  +6.4160832     3504.163     4910.633     4781.743     77.92088     155.3478      310.881      1.467     3.77     847.6096      54.7924     515.5565        20     1.390     0.753  48.55   0
       234    228.2382    675.5657 307.8204050  +6.4049056     1897.856     2664.656     3065.234      77.6739     155.2859     310.6337      1.640     3.68     844.7209      54.7924     264.5536        16     1.280     0.766  54.68   0
       235   1009.1484    674.2125 307.4961403  +6.4314877     4814.876     7621.056     7561.513     77.30196     155.4096     310.5719      1.641     3.90     846.7361      54.7924      704.548        28     1.500     0.950  50.31   0
       236    311.9095    675.0956 307.7856738  +6.4078977     1431.817     2112.923     2053.696     77.92088     155.9034     310.8502      1.595     3.74     845.1371      54.7924     193.6005        15     1.256     0.775  35.60   0
       237    974.5314    673.0439 307.5105561  +6.4308210     8038.965     12344.75     12031.06     77.92088     155.4096      310.912      1.654     3.77     846.7873      54.7924     1040.873        40     1.590     1.080  46.67   0
       238    528.4012    674.3677 307.6957918  +6.4154271     579.4633     993.4805     1161.201     77.30196     155.2859     310.6028      1.881     4.11      847.522      54.7924      94.4176         5     1.156     0.418  54.25   0
       239    694.4254    671.8735 307.6269256  +6.4219900     986.3929     1570.849     1677.769     77.55012     155.3478     310.7883      1.426     3.78     848.3307      54.7924     230.6095        10     1.370     0.505  42.74   0
       240     85.6407    669.8951 307.8798124  +6.4024728     811.5706     961.4733     1049.812     77.92088     155.4096     310.9738      1.320     4.52       844.47      54.7924     141.2789         7     0.979     0.593  44.00   0
       241    419.7538    667.5195 307.7411416  +6.4146286     3173.758      4523.45     5039.132     77.92088     155.4714     310.8502      1.558     4.10     846.0188      54.7924     487.9321        19     1.361     0.807  50.10   0
       242    132.9053    666.6269 307.8602946  +6.4054051     25775.52      37138.4     37869.03     78.04407     155.2241     310.7265      1.524     3.59     844.5091      54.7924     3521.986        42     1.482     0.976  46.95   0
       243    801.1295    667.0949 307.5827703  +6.4275143     1076.103     1657.876     1911.581     77.79749     155.5332     310.8502      1.466     5.39     848.1631      54.7924     187.1717        12     1.560     0.525  42.16   0
       244    637.5121    667.2464 307.6507165  +6.4220047     499.7918     680.6622     809.1732     77.92088     155.3478     310.8811      1.674     3.42     847.7296      54.7924     98.08929         5     1.084     0.312  67.92   0
       245    719.9901    666.4687 307.6164891  +6.4250727     473.9055     462.3881     159.7757     77.42613     155.2859     310.6956      1.080     3.27      848.228      54.7924     95.04156         5     0.756     0.598 -88.58   0
       246    594.8933    661.9478 307.6685934  +6.4227720     527.1392     587.0501     436.2189     77.79749     155.4096     311.0664      1.468     3.69     847.2892      54.7924     100.4877         5     1.037     0.378  56.90   0
       247    969.2717    655.9579 307.5133100  +6.4377007     6843.164     11297.08     12176.39     77.79749     155.4714      310.881      1.738     4.14     845.9182      54.7924     967.1516        35     1.721     0.972  44.78   0
       248   1023.4514    650.6310 307.4909856  +6.4416987     52734.81     64415.05     66299.32     69.99715     126.6641     237.3112      1.153     3.05     845.3278      54.7924     11357.48        42     1.388     0.749  86.65  24
       249     14.2204    655.5225 307.9099543  +6.4060129     1377.254     2194.111     2349.863     77.55012     155.2241     310.8192      1.688     4.54     843.9169      54.7924     208.1213        16     1.428     0.780  36.75   0
       250    562.9355    651.3850 307.6822189  +6.4260677     52289.67     74168.16     77171.68     77.42613     155.3478     310.7265      1.492     3.62     847.0211      54.7924     8064.157        61     1.523     0.983  46.60   0
       251    927.6624    652.7455 307.5306982  +6.4376450     824.2297     1026.308     622.4738     78.04408     155.4096     310.8192      1.336     5.54     846.0057      54.7924      118.604        11     1.454     0.596  30.44   0
       252    206.6585    652.7874 307.8301314  +6.4135878     597.7359     823.1354     887.4876     77.30196     155.4096     310.5719      1.334     4.31     844.4243      54.7924     103.1477         7     1.213     0.437  51.15   0
       253    522.5331    651.6430 307.6989895  +6.4246137     763.7101     921.7014     676.4976     77.92088     155.4096      310.881      1.397     4.68     846.9329      54.7924     132.8898         9     1.281     0.485  43.35   0
       254    787.9934    651.0190 307.5887626  +6.4337146     561.5953     794.4927      991.048     77.55012     155.1622     310.6647      1.325     3.48     847.7908      54.7924     122.5924         5     1.510     0.231  32.79   0
       255    170.5137    648.1030 307.8452991  +6.4143121     3112.464      4503.33     4560.279     77.92088     155.8418      310.912      1.554     3.72     844.3837      54.7924     474.7178        21     1.405     0.835  44.09   0
       256    493.1436    648.3795 307.7113043  +6.4249806     700.2712     1084.729     1283.902     77.55012     155.4714     310.6647      1.602     4.15      846.704      54.7924      123.317         6     1.171     0.420  34.22   0
       257    974.2328    647.0486 307.5115465  +6.4415439     484.8283     764.1956     798.1481      77.6739     155.4714     310.7883      1.479     4.25     845.4183      54.7924     78.01227         5     1.005     0.537  53.59   0
       258     63.0239    642.1874 307.8901362  +6.4131542     1482.078     1938.834     1952.453      77.6739     155.2859     310.7883      1.439     4.28     843.8952      54.7924      191.942        13     1.224     0.729  40.17   0
       259    460.2022    635.1746 307.7254272  +6.4293331     68528.75     96946.76     101131.4     77.55012     155.1622     310.6647      1.521     3.73     845.8578      54.7924     11113.41        71     1.524     1.050  48.75   0
       260      3.6610    636.8972 307.9149661  +6.4133484     1897.866     2562.292     2644.199      77.6739      151.084      268.391      1.453     3.67     843.6686      54.7924     273.7968        17     1.190     0.927  37.87  24
       261    646.1035    632.3215 307.6483162  +6.4367104     910.8979     1186.816      986.401      77.6739     155.7184      310.912      1.355     3.93     846.9945      54.7924     189.5411         9     1.191     0.584  68.36   0
       262    134.5170    630.4058 307.8608426  +6.4204132     1808.333     2589.769     2716.085     77.55012     155.1002     310.6337      1.611     4.21     844.0457      54.7924     252.0824        15     1.245     0.848  60.15   0
       263    413.9064    627.9153 307.7448972  +6.4307846     892.4371     1347.504     1058.685     77.79749     155.9034     310.9738      1.525     4.64     844.9054      54.7924     157.0239        11     1.163     0.789  42.85   0
       264    929.9418    628.1434 307.5305718  +6.4478784     610.4878     996.5661     841.1301     78.04407     155.4714      310.881      1.664     3.80     844.9024      54.7924      84.3501         5     0.842     0.493 -59.24   0
       265    606.2069    626.9095 307.6650668  +6.4376154     976.6453     1346.042     1363.528     77.55012     155.1622     310.6337      1.463     5.26     846.6866      54.7924     144.2647        11     1.248     0.642  52.86   0
       266    314.0488    626.8155 307.7864050  +6.4279023      512.738     914.5761     1445.973     77.30196     155.4714     310.5719      1.445     4.31     844.2517      54.7924     82.54572         5     1.057     0.500  36.11   0
       267      6.5722    626.4050 307.9141102  +6.4177777     839.6278     1080.901     1138.017     77.42613     155.2859     299.8381      1.312     4.26     843.5535      54.7924     136.5547         7     1.179     0.507  52.44  16
       268    305.5137    624.5443 307.7900259  +6.4285546     2268.127      3425.42     3419.671     77.92088     155.4714     310.9738      1.674     3.84      844.236      54.7924     322.2666        20     1.313     0.945  56.24   0
       269     13.3864    624.8351 307.9113332  +6.4186543     642.6299     1223.451     1498.717     77.42613     155.2859     310.6956      2.005     4.87     843.5508      54.7924     86.94629         8     1.108     0.606  32.92   0
       270    457.6136    623.0714 307.7269077  +6.4342437     932.7096     1501.902     1993.698     77.42613     155.3478     310.7265      1.941     5.34     845.4564      54.7924     125.5447         9     1.385     0.581  46.22   0
       271    732.2026    618.6282 307.6130154  +6.4452313     5625.291     7959.626     8312.352     77.42613     155.2241     310.6647      1.489     3.53     846.9921      54.7924      915.567        26     1.360     0.849  51.13   0
       272   1002.9006    614.5324 307.5007234  +6.4559209     959.3583     1330.535       1015.9     77.92088      155.595     310.8192      1.408     5.00     843.3315      54.7924     154.2326         9     1.150     0.616  61.59   0
       273    785.8217    613.9072 307.5909037  +6.4489648     14666.47     21163.19     21630.13     77.92088     155.2859     310.6647      1.501     3.56     846.8673      54.7924     2142.976        38     1.471     0.947  49.96   0
       274    528.3025    613.3492 307.6978754  +6.4406164     1257.424     2207.376     2437.319     77.79749     155.4096     311.0355      1.974     6.41     845.9413      54.7924     196.5648        16     1.832     0.973  87.71   0
       275     30.7169    613.5501 307.9045159  +6.4238943     776.1171     1073.456     1425.502     77.92088     155.4714      310.912      1.612     4.85     843.4303      54.7924      125.433         9     1.248     0.534  45.43   0
       276    609.6689    611.9506 307.6641294  +6.4439069     3198.773     4232.778     4056.096     77.92088     155.4096     310.8502      1.405     3.62     846.4424      54.7924     466.2413        17     1.291     0.730  49.07   0
       277    927.1527    608.1481 307.5323969  +6.4560413     1059.933     1924.027     2677.177     78.04407     155.3478      310.881      2.053     5.77      844.116      54.7924     136.9029        13     1.343     0.697  51.48   0
       278    185.6997    606.4785 307.8403908  +6.4320054     731.2245     961.1395     693.6752      77.6739     155.7184      310.881      1.487     4.62     843.9893      54.7924      127.027         9     1.170     0.720  51.67   0
       279    368.0692    605.6080 307.7646815  +6.4384634     1101.543     1579.648     1704.649     77.42613     155.1622     310.7574      1.528     5.29     843.8281      54.7924     161.3289        11     1.278     0.619  39.21   0
       280    222.1143    605.5364 307.8252995  +6.4336129      1379.69     1888.489      1934.75     78.04407      155.595     310.8502      1.486     4.25     843.9563      54.7924     189.5803        12     1.140     0.739  54.90   0
       281    861.7623    597.2515 307.5599192  +6.4583671     2893.721     4098.452     4557.668      77.6739     155.4714     310.8192      1.529     3.63     845.2899      54.7924     422.9315        21     1.327     0.864  44.98   0
       282    820.5308    594.6648 307.5771304  +6.4580641     2681.862     3955.402     4202.736     77.92088     155.5332      310.881      1.563     3.61     845.8615      54.7924     435.4496        19     1.298     0.828  44.76   0
       283    791.5109    590.5559 307.5893206  +6.4587952     2767.959     4192.661     5275.189     77.92088     155.4096      310.881      1.718     3.62     846.0291      54.7924     453.2628        19     1.344     0.807  48.53   0
       284    734.3433    590.9240 307.6130518  +6.4567408     793.2213     1206.401     1820.689     77.92088     155.4096     310.7883      1.727     3.32     846.2038      54.7924     151.1632         8     1.041     0.518  35.40   1
       285    248.5693    589.6554 307.8148459  +6.4410546     8532.057     12056.93      12139.1     77.79749     155.5332     310.8192      1.526     3.64      843.348      54.7924     1356.975        28     1.400     0.870  47.33   0
       286    801.1482    585.7716 307.5854776  +6.4610912     168242.8       239603       249552     77.55012      155.595     310.7574      1.499     3.54     845.7903      54.7924      24679.9       113     1.601     1.115  50.43   0
       287    182.7713    584.2682 307.8423530  +6.4410770     62993.56     90414.14     95115.24      77.6739     155.4714     310.7883      1.548     3.64     843.4419      54.7924     9062.747        80     1.572     1.125  48.72   0
       288    731.2391    587.2166 307.6144650  +6.4581682     697.4312     1016.136      1953.65     77.55012     155.3478     310.6337      1.872     5.09     846.0652      54.7924     97.57294         8     1.120     0.653  33.86   0
       289    106.7096    580.4083 307.8740713  +6.4401236     6660.816     9400.899     9921.169     77.55012     155.1622     310.6337      1.529     3.60     843.2277      54.7924     971.5431        28     1.373     0.915  45.69   0
       290    972.1241    577.6613 307.5147349  +6.4701223     1424.563     2132.616     2470.977     78.16707     155.4714     310.8502      1.688     5.08     842.9085      54.7924     206.6278        14     1.361     0.682  45.67   0
       291    992.9279    576.4359 307.5061349  +6.4713190     890.4746     1214.477     1186.314     77.79749     155.4714     310.8502      1.500     4.63     842.6299      54.7924     123.9276         8     1.102     0.552  46.90   0
       292    221.2376    575.7379 307.8266643  +6.4458862     808.5472     904.5022     1435.992     77.92088     155.5332     310.8502      1.197     3.03     842.8585      54.7924     144.8909         8     0.896     0.610   8.65   0
       293    837.7663    573.1322 307.5706906  +6.4675275     4505.416     6263.634     6088.668     77.79749     155.5332     310.9429      1.488     3.76     844.9388      54.7924     644.6218        21     1.374     0.795  47.93   0
       294    356.1698    571.3180 307.7707734  +6.4522228     18627.48     26210.29     27746.66     77.79749     155.2859     310.8192      1.494     3.63     842.6026      54.7924     2988.779        46     1.485     1.020  49.05   0
       295    445.9828    571.0905 307.7334797  +6.4553166     958.5075     1131.177     1446.569      77.6739     155.2241     310.7574      1.212     2.68     843.9266      54.7924      197.592         8     0.834     0.627  46.25   0
       296    157.9773    570.2181 307.8531222  +6.4460477     2037.436     2732.425     2702.056      77.6739     155.4096     310.7883      1.388     3.68     843.3423      54.7924     301.9834        15     1.297     0.671  43.20   0
       297    233.1440    568.1291 307.8219749  +6.4494259     952.2516     1679.025     2188.875     77.92088     155.4096     310.8192      1.866     4.60     842.5153      54.7924     152.5696        10     1.267     0.687  46.63   0
       298    791.6434    566.3907 307.5900724  +6.4687768     6075.703     8707.686     9148.543     77.42613     155.2859     310.6028      1.524     3.66     845.0386      54.7924     1033.025        25     1.406     0.835  47.22   0
       299    522.5496    566.2245 307.7018424  +6.4598808      7019.14     9768.702     9844.573     77.55012     155.4714     310.7574      1.483     3.69     844.6006      54.7924      1108.67        28     1.444     0.842  49.48   0
       300    163.2382    567.3966 307.8510321  +6.4473887     714.8795     1115.036     1524.998     77.05299     155.2859     310.6028      1.633     4.76     843.2736      54.7924      148.612        10     1.155     0.727  52.88   0
       301     95.2415    567.5162 307.8792675  +6.4450620     1012.908     1328.024     1642.336     77.92088     155.4096     310.7574      1.413     4.13     843.0963      54.7924     153.3721        11     1.242     0.695  36.29   0
       302    380.6886    562.9821 307.7608697  +6.4564836     1454.899     2092.126     1796.781      77.6739     155.2241     310.7574      1.531     3.72     842.6971      54.7924     224.4913        15     1.199     0.795  45.59   0
       303    567.3633    559.1703 307.6834660  +6.4642879     2565.981     4163.655     4811.169     77.55012     155.2241     310.6956      1.735     3.68        844.6      54.7924      383.963        23     1.266     1.130  27.46   0
       304    169.5336    559.3808 307.8486869  +6.4509088     7469.462     10492.06     10654.27     77.55012     155.4714     310.7574      1.527     3.63     843.0154      54.7924     1176.045        28     1.430     0.869  46.46   0
       305    850.9581    559.2545 307.5656746  +6.4736959      671.918     996.9517     1052.826     77.79749     155.4714      310.881      1.538     5.56      844.459      54.7924     98.26038         8     1.077     0.810  39.33   0
       306    808.1739    558.8500 307.5834583  +6.4724401     1521.089     2336.436     2695.061     77.55012     155.5332     310.7574      1.573     3.89      844.643      54.7924      249.974        16     1.364     0.755  46.72   0
       307     41.0450    558.1132 307.9020917  +6.4471278     5558.971     8160.039     8511.058     77.92088     155.3478     310.8502      1.559     3.65     843.2296      54.7924      811.948        27     1.460     0.906  46.54   0
       308    264.7332    555.8315 307.8092683  +6.4555598     94117.61     134262.2     139028.9     77.79749     155.4714     310.8192      1.511     3.55     842.0611      54.7924     13688.85        80     1.545     1.054  47.75   0
       309    554.3141    553.7116 307.6890685  +6.4661064     992.4792     1558.672      1615.48      77.6739     155.7184     310.9738      1.519     5.09      844.367      54.7924     184.0539        11     1.410     0.632  63.78   0
       310    248.5725    550.9669 307.8161434  +6.4570276      1641.59     2242.761     2331.515     77.42613     155.2241     310.6337      1.466     3.83     841.8719      54.7924     253.3837        14     1.268     0.646  47.36   0
       311    964.1872    549.4597 307.5189715  +6.4815025     1544.294     2309.783     2700.772     77.30196     155.4096      310.541      1.580     3.84     842.4764      54.7924     245.7136        15     1.289     0.714  40.24   0
       312    787.8903    548.1693 307.5922397  +6.4761751     17136.21     24447.28     25483.92     78.04407     155.2859     310.8192      1.505     3.72     844.3735      54.7924     2561.099        40     1.462     0.942  48.36   0
       313    491.4958    546.6082 307.7153969  +6.4669436     43670.13     66039.46      69756.6      77.6739     155.1002     310.6337      1.638     3.92     844.0496      54.7924     6327.661        73     1.661     1.176  39.38   0
       314    642.1055    544.8677 307.6529012  +6.4726843     1140.102     1742.849     1985.573     77.79749     155.6567      310.881      1.605     4.38     844.2228      54.7924     175.9432        11     1.150     0.776  43.20   0
       315    203.9116    543.3333 307.8349483  +6.4586849     1916.011     2984.197     3564.006     78.04407     155.6567     310.8192      1.799     4.55     842.0189      54.7924     267.5598        18     1.485     0.754  54.92   0
       316     39.6170    543.5344 307.9031752  +6.4530989     1325.842      1909.41     2175.974     77.42613     155.3478     310.7265      1.609     4.79     843.1954      54.7924     189.8293        14     1.310     0.725  48.85   0
       317    661.5784    541.6736 307.6449200  +6.4746518     1550.253     2162.248     2943.265     77.55012     155.2859     310.7883      1.609     5.29     844.0138      54.7924     233.8721        17     1.605     0.847  41.56   0
       318    713.7526    540.8995 307.6232755  +6.4767091     1402.796     2281.487     2278.793     77.92088     155.3478     311.0664      1.760     4.77     844.4491      54.7924     254.0479        16     1.578     0.644  57.26   0
       319    651.4425    541.8240 307.6491248  +6.4742520     3099.676      4508.14     4873.588     77.55012     155.3478     310.6337      1.540     3.41     844.0776      54.7924     504.2203        20     1.293     0.803  50.55   0
       320     90.1787    542.9400 307.8821965  +6.4550388     722.5823     891.6293     896.9869     77.55012     155.4096     310.7574      1.415     4.60     842.9619      54.7924     124.4228         6     1.266     0.474  36.93   0
       321    389.1410    537.4330 307.7582158  +6.4673143     1896.837     2814.826      2812.48     77.79749     155.5332     310.8192      1.570     3.76     842.0254      54.7924     314.6215        18     1.335     0.807  53.13   0
       322     70.5117    539.0939 307.8904938  +6.4559676      722.654      1264.26     1053.243     77.92088     155.9034      310.912      1.668     4.74     843.0331      54.7924     118.6566         8     1.144     0.558  51.58   0
       323    320.7048    535.6658 307.7866987  +6.4657570     4185.342     5943.251     6072.081     77.92088      155.595      310.881      1.539     3.90      841.549      54.7924     623.5962        20     1.346     0.825  48.04   0
       324    135.8625    534.2502 307.8635155  +6.4601567     27873.89     39876.17     41176.82     77.92088     155.4096      310.912      1.523     3.64      842.689      54.7924     3880.749        49     1.478     1.019  45.47   0
       325    500.6029    534.9327 307.7120055  +6.4720679     2299.841      3161.71     3138.214     77.30196     155.1622     310.6647      1.482     3.72     843.6805      54.7924     378.9466        17     1.333     0.782  43.95   0
       326    863.8551    534.3771 307.5611480  +6.4843960     1723.257     2297.048     1891.862     77.55012     155.4714     310.6647      1.487     4.07     843.8028      54.7924     229.9897        15     1.286     0.758  35.28   0
       327    100.9612    532.5281 307.8780685  +6.4596986     3093.986     4105.467     4389.622     77.79749     155.4714      310.912      1.485     3.75     842.8717      54.7924     424.7427        21     1.274     0.886  46.31   0
       328    337.6986    530.4908 307.7798143  +6.4684616     1042.406     1548.566     2027.292     77.92088     155.9034     310.8192      1.512     3.76     841.4718      54.7924     172.7867        10     1.089     0.622  51.55   0
       329    961.3165    528.5936 307.5208594  +6.4900223     5397.145     7854.768     8045.804     77.55012     155.1622     310.7265      1.607     3.71     842.2223      54.7924     819.9745        28     1.435     0.916  49.46   0
       330    534.6938    521.3073 307.6983023  +6.4788307     1309.038     1808.456     2105.358     77.92088      155.965     310.8192      1.497     4.22     843.3297      54.7924     205.0208        14     1.352     0.671  47.83   0
       331      1.4069    519.2378 307.9198619  +6.4618486     11977.98     14414.39     14979.67     68.18958     124.5223     234.9514      1.083     2.96     843.2453      54.7924     2863.044        19     1.225     0.613  86.06  24
       332    432.8060    515.3466 307.7408205  +6.4778913     46067.68     65199.56     67664.81     77.42613     155.2241     310.5719      1.512     3.72     841.7773      54.7924      6621.28        60     1.505     1.013  45.75   0
       333    640.8939    514.9629 307.6544045  +6.4849907     13310.55     18526.48     19049.01     78.04407     155.3478     310.9428      1.455     3.57     843.2977      54.7924     2019.929        37     1.448     0.899  47.18   0
       334    280.4578    515.2618 307.8040992  +6.4728353     1000.129     1714.323     2329.795     78.04408     155.4096      310.881      1.660     5.33     841.1931      54.7924     139.7495        11     1.395     0.575  40.08   0
       335    197.9700    512.9479 307.8384367  +6.4710309     20462.54     30640.71     32470.24      77.6739      155.595     310.7883      1.545     3.75     841.5284      54.7924     3219.554        44     1.584     0.974  44.07   0
       336    163.7594    514.1224 307.8526058  +6.4694007     1912.298     2683.891     2595.867     77.79749     155.4714      310.881      1.517     3.67     841.9011      54.7924     300.9987        17     1.294     0.808  51.35   0
       337    974.7495    513.1826 307.5157936  +6.4968312     1225.872     1783.394     1711.332     77.42613     155.5332     310.6337      1.511     4.25     841.9572      54.7924     179.3892        14     1.315     0.692  44.88   0
       338    562.6191    511.7822 307.6870225  +6.4836947       2923.8     3917.478     4001.019      77.6739     155.2859     310.7883      1.458     3.98     843.1633      54.7924     474.1804        19     1.314     0.801  57.06   0
       339    902.9103    512.6145 307.5456521  +6.4946793     665.0305     843.6689     1395.287      77.6739     155.2859     310.6956      1.550     4.18     842.5988      54.7924       99.565         7     1.092     0.457  46.89   0
       340    814.8082    512.8541 307.5822384  +6.4916512     991.4168     1488.476     1274.921     77.42613     155.4096     310.5719      1.648     4.62     843.3644      54.7924     169.4514         8     0.892     0.680  58.00   0
       341    936.5845    508.8206 307.5317915  +6.4973646     4696.577     7027.286     7308.988     77.55012     155.1622     310.7265      1.590     3.68     842.0519      54.7924     725.2778        27     1.507     0.878  40.89   0
       342    609.6130    507.3170 307.6676529  +6.4871050     7136.984     9816.646     10293.88     77.55012     155.2241     310.6956      1.473     3.95     843.1262      54.7924     1109.499        28     1.360     0.866  45.26   0
       343     97.1756    508.0756 307.8804630  +6.4696671     1160.623     1726.484      1274.57     77.55012     155.3478     310.8192      1.470     4.46     842.8076      54.7924      158.936        11     1.154     0.694  40.62   0
       344    209.1119    506.9724 307.8340098  +6.4738708     554.6193     907.8326     1091.723     78.04407     155.2241     310.7574      1.763     4.49     841.3162      54.7924     123.8724         6     1.225     0.467  44.93   0
       345    508.3671    506.6135 307.7097291  +6.4840190     500.3424     860.7277     608.2506     77.42613     155.2241     310.7574      1.518     4.75     842.7921      54.7924     77.48022         7     1.356     0.472   5.40   0
       346    959.1426    501.0814 307.5226796  +6.5013092     3516.258     5070.236      4981.88     78.04407     155.4714      310.881      1.502     3.45      841.866      54.7924     576.3473        22     1.381     0.845  50.54   0
       347    367.8199    498.7570 307.7683682  +6.4825699     3013.684     4257.321     4152.714     77.42613     155.3478     310.6956      1.489     3.87     840.8961      54.7924     438.6142        22     1.448     0.789  47.85   0
       348    521.8486    498.5425 307.7043998  +6.4878011      7994.85     11136.34     11971.45     77.92088     155.4714     310.9738      1.483     3.58     842.6149      54.7924     1175.173        27     1.457     0.824  52.86   0
       349    397.5524    500.2000 307.7559706  +6.4829674     811.1411     1205.266     1766.866     77.17757     155.1002     310.3862      1.807     4.24      840.806      54.7924     119.5208         7     1.074     0.478  42.97   0
       350    737.3855    498.7367 307.6148684  +6.4949037     578.8066     910.6581     1265.948     77.42613     155.3478     310.6956      1.449     3.95     843.1339      54.7924     126.9332         6     0.903     0.495  44.29   0
       351    878.2954    494.3065 307.5564871  +6.5014201       3288.3     4871.085     5234.968     77.92088     156.0266     310.7883      1.559     3.82     842.5707      54.7924     586.3887        24     1.553     0.758  43.20   0
       352    531.0149    495.2240 307.7007037  +6.4894769      641.344     1024.929      1088.65      77.6739     155.2859     310.7883      1.282     4.15      842.548      54.7924     114.0099         8     1.038     0.536  51.63   0
       353    226.4338    493.7273 307.8272603  +6.4799188     674.1714     1127.696     843.0359     77.79749     155.4096     310.8192      1.530     4.56      841.023      54.7924     111.8493         6     1.436     0.411  53.93   0
       354    885.7449    488.6779 307.5535806  +6.5039916     2190.968     3121.259     3188.781     78.04408     155.4714     310.8811      1.477     4.01     842.3382      54.7924      333.329        15     1.315     0.722  45.38   0
       355    925.2121    488.1342 307.5372051  +6.5055277     1367.178     1780.486     1571.028     77.42613     155.2859     310.7574      1.467     4.19     841.7775      54.7924     224.4481        13     1.286     0.727  42.05   0
       356    104.7139    488.3056 307.8779969  +6.4780818     834.4597      1186.41     811.5067     77.92088     155.8418      310.912      1.518     4.70     842.5358      54.7924     119.7651         9     1.111     0.600  43.26   0
       357    263.8496    487.0614 307.8119439  +6.4839227     575.5231     659.8323    -16.86218     77.92088     155.4096      310.912      1.437     3.99     840.8207      54.7924     88.33215         6     0.993     0.459  53.80   0
       358    709.6880    484.7612 307.6268399  +6.4997516     3192.199     4471.799      4250.04     77.92088     155.4096      310.881      1.457     3.52     842.4946      54.7924     529.8253        20     1.390     0.745  45.94   0
       359     71.5604    483.9889 307.8919117  +6.4787530     1917.599     2851.819     3015.337     77.30196     155.2859     310.6028      1.601     4.06     842.8124      54.7924     291.9688        16     1.249     0.825  45.40   0
       360    420.8327    483.1940 307.7468712  +6.4907661     1246.105     1736.316     2283.133     77.30196     155.2859     310.6647      1.476     4.59     840.1066      54.7924     174.4331        13     1.219     0.777  25.86   0
       361    380.6221    483.0597 307.7635772  +6.4894784      3866.58      5491.01     5708.697     77.55012     155.4096     310.7265      1.491     3.74      840.382      54.7924     578.8536        21     1.366     0.803  45.38   0
       362    608.3439    479.5321 307.6691096  +6.4985342     10981.47     15035.19     15622.22     78.04408     155.3478     310.7883      1.474     3.66     842.1735      54.7924     1832.056        28     1.377     0.841  46.62   0
       363    771.0071    476.0827 307.6016599  +6.5053759     17390.84     24414.75     25302.21     77.55012     155.1622     310.7265      1.475     3.72     842.3539      54.7924     2783.479        36     1.431     0.888  48.98   2
       364    774.8475    471.3099 307.6002241  +6.5074743     1477.084     2227.925     2833.102     77.92088     155.3478     310.9738      1.593     4.25     842.1483      54.7924     228.0554        16     1.392     0.752  27.20   2
       365    414.9148    476.4162 307.7495564  +6.4933668     552.4942     957.0365     1631.865     77.55012     155.2241     310.7574      1.845     3.74     839.7752      54.7924      88.0213         6     1.171     0.343  49.49   0
       366    290.5107    476.3681 307.8012293  +6.4892291     2974.111      4131.71     3938.378     78.04408     155.2859     310.8502      1.551     3.84     840.4661      54.7924       452.26        19     1.322     0.802  46.54   0
       367    722.8374    474.6788 307.6217151  +6.5043522     509.1564     530.5233     798.6437     77.79749     155.5332     310.8502      1.370     5.06     842.1225      54.7924     79.89081         6     1.096     0.662  23.94   0
       368    800.0308    473.0445 307.5897057  +6.5075960     1567.121     1998.898     1923.169     77.55012     155.5332     310.7265      1.442     3.85     842.3483      54.7924       262.93        14     1.311     0.699  49.47   0
       369    373.8252    473.1902 307.7667313  +6.4933261     1796.947     2508.221     3055.332     77.55012     155.2859     310.7265      1.479     3.55     840.1009      54.7924     246.6337        17     1.275     0.792  47.62   0
       370    956.1865    470.9159 307.5249132  +6.5136656     1788.263     2531.727      2310.73     77.55012     155.2859     310.6956      1.465     4.23     841.1182      54.7924     264.7827        14     1.350     0.669  52.80   0
       371    704.1235    470.1232 307.6296405  +6.5056099     663.0483     1099.493     1158.561     78.16707     155.7184     310.9428      1.849     5.46     841.8422      54.7924     116.1293         9     1.394     0.602  31.24   0
       372    108.3578    468.0615 307.8771642  +6.4865617     4578.969      6780.37     7534.917     77.92088     155.4714     310.9429      1.562     3.65     842.0803      54.7924     736.0912        27     1.460     0.910  41.54   0
       373    362.1693    468.9099 307.7717161  +6.4947038     744.0272     1036.977     781.9283     78.04407     155.2859     310.8192      1.920     4.33     840.0619      54.7924     132.0903         7     1.349     0.396  33.74   0
       374   1010.2682    465.6170 307.5026253  +6.5176492     4068.798     6784.523     7042.552     77.42613     155.4096     310.7574      1.749     4.47     840.7995      54.7924     561.8843        33     1.781     0.951  41.89   0
       375    746.5073    466.8996 307.6121433  +6.5083520     2492.934     3598.365     3764.669     77.92088      155.965     310.7883      1.523     3.82     841.8356      54.7924     392.7475        20     1.419     0.766  41.20   0
       376    266.1373    465.1594 307.8117290  +6.4930416     1494.228     2227.604     2349.495     77.92088     155.4096      310.881      1.574     4.05     840.1216      54.7924     243.3654        13     1.345     0.597  48.14   0
       377    344.4117    462.8306 307.7792958  +6.4966203      3341.32      4612.58     4601.061     77.42613     155.2241     310.7574      1.477     3.51     839.9085      54.7924     525.7733        20     1.261     0.836  46.13   0
       378    700.3728    460.4089 307.6315232  +6.5094958     1690.578     2340.653     2884.992     77.55012     155.2859     310.7265      1.404     3.53     841.3814      54.7924     259.9141        14     1.214     0.700  51.93   0
       379    974.0692    459.0020 307.5178822  +6.5191785     688.0812     1122.756     1275.584     77.42613     155.0383     310.6956      1.864     4.96     840.4995      54.7924     131.7281         8     1.111     0.999  66.47   0
       380    232.0477    458.3768 307.8261159  +6.4947014     975.4043     1089.504      814.925     77.55012     155.4714     310.7265      1.232     3.90       839.93      54.7924     143.0818         8     0.934     0.629  64.13   0
       381    442.8912    454.6689 307.7386651  +6.5032797      595.795     728.2864      554.961     77.92088      155.595     310.8502      1.555     4.38     839.5187      54.7924     129.0967         6     1.260     0.433  51.26   0
       382    541.9380    453.2301 307.6975726  +6.5071792     962.6235     1229.803     1230.778      77.6739     155.4714     310.8192      1.368     4.73     840.2448      54.7924      153.382         9     1.132     0.584  44.42   0
       383    826.4356    450.5378 307.5794892  +6.5177667     1646.536     2224.794     2072.508     77.92088     155.4714     310.8192      1.472     3.48     841.2377      54.7924     290.4299        16     1.227     0.829  49.07   0
       384    463.9416    451.5888 307.7300248  +6.5052542     1350.823     1791.362     1514.156     77.30196     155.3478     310.5719      1.346     3.64     839.6797      54.7924     234.9094        11     1.189     0.590  45.26   0
       385    812.1576    449.6382 307.5854501  +6.5176632     2176.371     3049.039     3115.414      77.6739     155.4714     310.7265      1.442     3.51      841.289      54.7924     326.7338        13     1.141     0.754  42.14   0
       386    709.5103    447.7845 307.6281497  +6.5150123     16086.87     22413.94     23635.39      77.6739     155.2859     310.6956      1.482     3.65     840.8561      54.7924     2574.706        33     1.408     0.881  48.08   0
       387    630.5859    443.7510 307.6610680  +6.5140484     2948.029     4026.677     3938.125     77.30196     155.4096     310.5719      1.427     3.77     840.0132      54.7924     476.9343        17     1.302     0.714  52.27   0
       388    625.1547    443.0211 307.6633484  +6.5141688     574.6061     970.8858      637.967     77.55012     155.4096     310.6956      1.751     4.57     839.8632      54.7924     94.44263         7     1.253     0.473  42.88   0
       389    611.7873    449.8081 307.6686738  +6.5109211     762.7612     1054.349     1119.017     77.55012     155.2859     310.7574      1.630     4.38     840.1429      54.7924     124.8064         8     1.191     0.458  46.49   0
       390    602.9580    438.9699 307.6727039  +6.5151015     13671.98     26435.84     30302.79     77.55012     155.4096     310.6956      2.135     7.34     839.3405      54.7924     2583.501        51     2.413     0.897  37.55   0
       391    373.8866    433.7225 307.7680295  +6.5096229     31215.07     44047.05     45826.79     77.92088     155.7801     310.9429      1.495     3.66     838.6135      54.7924     4455.446        51     1.481     0.990  47.35   0
       392    411.1523    435.3346 307.7524965  +6.5102022     598.9667     628.0801     1153.186     77.79749     155.4096      310.881      1.204     4.11     838.5305      54.7924     102.3063         6     1.175     0.411  34.67   0
       393    889.4677    432.2092 307.5539183  +6.5274298     1472.875     2814.054     3426.832     77.42613     155.2859     310.7574      2.246     7.86     839.7914      54.7924     251.9393        24     2.590     0.667  48.80   0
       394    119.9810    433.2572 307.8735068  +6.5013202      2655.37     3983.518     3803.913     77.55012     155.4096     310.6647      1.542     3.89     841.0557      54.7924     337.5317        20     1.283     0.867  43.68   0
       395     53.2973    428.7265 307.9013561  +6.5009561     1634.501     2596.759     2861.523     77.55012     155.6567     310.8502      1.772     4.34      842.283      54.7924     245.3991        21     1.572     0.851  39.06   0
       396    903.4955    428.0177 307.5482311  +6.5296266     5364.623      7541.35     7649.895     77.79749     155.2859     310.6956      1.474     3.57     839.4506      54.7924     821.1163        24     1.349     0.859  41.11   0
       397    934.8304    437.6940 307.5348920  +6.5266727     4004.417     5565.738     5878.351     78.04407     155.2241     310.8192      1.509     3.78     839.6046      54.7924     583.2961        20     1.393     0.770  48.84   0
       398    231.3698    424.2916 307.8275422  +6.5087511      15195.3     21457.87     22207.05     78.04408     155.2241     310.8192      1.527     3.62      838.579      54.7924     2455.512        35     1.453     0.906  48.99   0
       399    959.3431    425.2651 307.5251241  +6.5326186     593.4203     753.3657     990.3362     78.04408     155.4096     310.8502      1.225     4.35     838.8737      54.7924      110.382         5     0.756     0.713  44.54   0
       400    726.2573    417.9983 307.6221889  +6.5278678     980.4257     1326.655     1335.548     77.30196     155.1622     310.6028      1.524     4.24     839.4908      54.7924     137.8131        13     1.191     0.755  47.19   0
       401     66.8888    418.3376 307.8960604  +6.5057007     862.6838     1172.718      1149.32     77.92088      155.595      310.912      1.512     5.01     841.7693      54.7924     147.6706        10     1.232     0.577  47.15   0
       402    954.6041    416.3691 307.5273893  +6.5361341     1129.814     1608.228      1654.89     77.42613     155.3478     310.6337      1.523     3.18     838.4664      54.7924     169.6008        12     1.025     0.757  45.71   0
       403    694.3186    417.0362 307.6354880  +6.5272014     646.7681     655.5314      565.985     77.92088     155.5332     310.8192      1.240     3.17     839.4445      54.7924     165.6924         7     1.093     0.404  35.74   0
       404    344.3500    414.1418 307.7809548  +6.5167199     1444.217     2198.334     2082.899     77.92088     155.4714      310.881      1.605     4.26     837.8713      54.7924     242.1808        16     1.322     0.799  44.21   0
       405    131.6245    412.8815 307.8693557  +6.5101224     5403.707     7604.028     7714.609      77.6739     155.2241     310.8192      1.459     3.51     840.5654      54.7924     766.7371        24     1.363     0.851  47.00   0
       406    371.9070    413.6001 307.7695266  +6.5178645     687.8049     1117.095     1156.002     77.42613     155.0383       310.51      1.717     4.27     837.8223      54.7924     91.64014         7     1.112     0.468  47.16   0
       407    177.0717    413.7088 307.8504510  +6.5113028     735.5557     998.0353     957.9481     77.79749     155.6567     310.8502      1.680     4.72     839.8151      54.7924     110.5601         8     1.213     0.521  62.94   0
       408    624.9522    411.6132 307.6644833  +6.5271294     535.0556     786.5021     1225.482     77.30196     155.3478     310.5719      1.517     4.36     838.0603      54.7924     90.14539         7     1.151     0.470  47.25   0
       409    599.8423    412.4094 307.6748870  +6.5259637     442.7814     601.7499     81.62452     77.30196     155.2859     310.6028      1.393     4.40     837.6658      54.7924     88.83191         5     0.961     0.574  45.55   0
       410    236.5173    411.7678 307.8258247  +6.5140938     1434.806     2047.951     2026.342     77.92088     155.2859     310.7265      1.494     3.36     838.1627      54.7924     225.8486        12     1.021     0.803  44.93   0
       411    428.9061    411.1485 307.7459328  +6.5207807     716.3233       897.83      941.963     77.79749     155.4096     311.0664      1.284     2.69     837.6506      54.7924     138.6599         8     0.834     0.615  48.87   0
       412    818.2011    409.4006 307.5842833  +6.5344773     752.1335     914.6652     635.8301     77.30196     155.0383      310.541      1.376     4.14     839.4979      54.7924     131.4116         8     1.122     0.513  38.03   0
       413    153.7156    408.6448 307.8603224  +6.5126114      2507.63     3999.641     3886.995     77.92088     155.4096     310.8502      1.694     4.04      840.326      54.7924     377.4651        22     1.417     0.948  67.12   0
       414    549.0781    407.7922 307.6961282  +6.5261772     1090.756     1337.897      795.055     77.55012     154.9763     310.6337      1.257     4.39     837.4105      54.7924     156.8986        12     1.318     0.613  46.84   0
       415    377.1223    403.4252 307.7677016  +6.5222396     2241.301     2987.846     3143.733     77.55012     155.4096     310.8192      1.417     3.42      837.298      54.7924     366.5245        17     1.248     0.770  46.26   0
       416    265.1764    403.7498 307.8141899  +6.5183630     876.9741     1098.276      965.721     77.55012     155.5332     310.7574      1.343     3.83     837.8336      54.7924      134.343         9     0.997     0.709  47.90   0
       417    965.6840    402.3371 307.5232546  +6.5422956     945.8593     1553.767     1895.289     78.04408     155.5332     310.8192      1.780     5.51     837.7358      54.7924      121.847        14     1.250     1.022 -14.75   0
       418    311.1089    401.1504 307.7951982  +6.5209723     606.6339     895.0087     1058.268     77.92088     155.2859     311.0046      1.416     4.57     837.4707      54.7924     99.12085         7     1.192     0.499  53.63   0
       419    584.5786    399.5705 307.6816569  +6.5307555     569.3964     882.9709      656.737     77.42613     155.2859     310.7265      1.541     5.06     837.2594      54.7924     106.6355         7     1.459     0.497  47.76   0
       420     27.3869    397.9042 307.9131552  +6.5128124     3344.948     5637.918     5867.884      77.6739     155.2241     310.6647      1.780     3.93     842.4679      54.7924     482.2755        30     1.403     1.322  83.89   0
       421    431.0088    397.0811 307.7455309  +6.5266589      8083.82      11388.9     11358.42     77.55012     155.1002     310.7265      1.459     3.45     837.0327      54.7924     1300.518        31     1.415     0.904  48.03   0
       422    771.6402    394.3773 307.6041263  +6.5391308     13949.33     19179.29     20191.01     77.55012     155.2859     310.6337      1.489     3.58      838.819      54.7924     2346.999        37     1.504     0.876  50.75   0
       423    763.5776    395.9665 307.6074224  +6.5382064     2073.857     2917.577     3348.668     77.42613     155.2859     310.6337      1.474     3.56     838.8067      54.7924     349.7201        15     1.289     0.682  46.67   0
       424    334.9716    393.0524 307.7855579  +6.5251134     1151.235      1464.49     1315.331      77.6739      155.595     310.7574      1.412     4.75     836.9466      54.7924     195.2181         9     1.101     0.580  43.60   0
       425   1015.5370    389.4157 307.5029760  +6.5492858      3751.74     5328.529     5611.198     77.42613     155.4096     310.6956      1.586     3.85     836.1299      54.7924     555.0233        23     1.359     0.887  37.99  16
       426    896.0440    387.6283 307.5526740  +6.5460547     2427.123     2617.251     2835.276     77.55012     155.5332     310.7574      0.630     2.10     838.0182      54.7924     1007.983         5     0.679     0.201  87.57   2
       427    897.2375    384.6017 307.5522792  +6.5473440     536.9431      817.155     849.3339     77.05299     155.2859     310.6647      1.288     4.07     837.9107      54.7924     101.4833         6     0.940     0.503  40.42   2
       428    946.1440    385.5935 307.5319299  +6.5485595     606.4147     912.8862     1262.785     77.42613     155.3478     310.5719      1.529     3.33     837.4102      54.7924     118.5556         7     0.858     0.600  32.24   0
       429    180.3274    385.3855 307.8500505  +6.5231053     914.6204     1174.763     717.0649     77.42613     155.2241     310.7265      1.523     4.53     839.2011      54.7924     163.3525         9     1.286     0.600  47.85   0
       430    479.1414    380.6779 307.7260871  +6.5350381     3395.734     4771.428     4993.743     78.04407     155.4714     310.7883      1.489     3.68     836.6151      54.7924     571.5569        18     1.351     0.742  47.85   0
       431    451.3458    381.2256 307.7376148  +6.5338841     2469.258     3544.397     3854.365     77.55012     155.5332     310.6956      1.533     3.83       836.45      54.7924       444.04        17     1.352     0.735  48.34   0
       432    908.0875    380.5754 307.5479063  +6.5493669     1053.333     1324.551     1382.242     78.04407     155.2859     310.7265      1.383     3.80      837.725      54.7924     150.7346        11     1.072     0.677  46.86   0
       433    837.0282    377.2263 307.5775367  +6.5483873     34113.13     51468.44     53902.37     77.42613     155.2859     310.6956      1.588     3.73     838.1177      54.7924     4791.614        55     1.566     1.058  55.84   0
       434    982.7578    377.5503 307.5169884  +6.5530964     626.6346     870.1856     644.9465     78.04408     155.4714     310.8502      1.286     2.59      836.176      54.7924     117.7418         5     0.717     0.437  24.81   0
       435    329.4461    373.3075 307.7885157  +6.5330805     938.1635     1081.231     756.9786     77.92088     155.4096     310.9738      1.347     5.18     836.0695      54.7924     137.2868        11     1.271     0.597  47.43   0
       436     54.6358    373.3218 307.9026643  +6.5238749     685.7015     945.4001     1081.085     77.79749     155.5332     310.8502      1.334     4.04     841.2767      54.7924     94.38043         6     0.892     0.524  45.82   0
       437    608.7170    369.6973 307.6726297  +6.5438939     2951.466     4231.959     4417.972     77.92088     155.8418      310.912      1.540     4.04     836.4674      54.7924     468.9938        20     1.427     0.746  41.73   0
       438     16.6857    370.0262 307.9185384  +6.5239630     1120.857     1749.171     2024.131     78.04407     155.2241     310.7265      1.860     4.21     842.0836      54.7924     157.3881        12     1.202     0.654  44.13   0
       439    140.5702    368.4488 307.8671338  +6.5287662     611.9891     720.3239     384.7867     77.55012     155.5332     310.7574      1.539     4.22     839.8331      54.7924     92.76776         7     1.067     0.476  81.75   0
       440    851.6481    364.6521 307.5718832  +6.5540650     1412.256     1923.226     1727.573     78.04408     155.3478     310.8502      1.380     4.00       837.47      54.7924       216.66        12     1.285     0.591  50.19   0
       441    693.4428    363.2365 307.6376505  +6.5493845     86597.61     119782.8     123888.9      77.6739     155.4096     310.7265      1.481     3.61     836.7214      54.7924     14936.98        69     1.512     0.980  46.74   0
       442     72.5812    362.7172 307.8955672  +6.5288545     1323.883     2071.146     1960.842     77.55012     155.1622     310.8192      1.624     3.86     840.6978      54.7924     223.9999        12     1.216     0.733  45.06   0
       443    934.7282    360.0528 307.5375240  +6.5587254     784.0496     1114.454     950.0021     77.79749     155.4096     310.8192      1.391     3.96     836.8203      54.7924     130.7563         8     1.186     0.477  48.82   0
       444    555.8499    360.0654 307.6949132  +6.5461078     2882.003     4193.298       4525.2     77.79749     155.3478     310.8502      1.501     4.01      835.836      54.7924     418.4234        19     1.362     0.759  48.80   0
       445     93.1203    358.8832 307.8871648  +6.5311257      6675.47     9487.105     9560.773     77.92088     155.7184     310.9428      1.484     3.46     840.2042      54.7924     986.8677        27     1.423     0.868  48.54   0
       446    754.2141    358.3991 307.6125673  +6.5534052     640.3718     829.2995     759.1851     77.55012     155.1622     310.6337      1.406     4.25      837.093      54.7924     109.4558         8     1.198     0.516  45.87   0
       447    539.1289    356.1923 307.7019888  +6.5471491     7761.421     10733.37     10688.09     77.42613     155.0383     310.7574      1.462     3.63     835.6523      54.7924     1259.292        27     1.343     0.873  48.89   0
       448    268.0971    353.9183 307.8146499  +6.5390340     2828.072     4166.375     3475.474     77.79749     155.8418      310.912      1.538     3.68     835.9817      54.7924     450.5745        20     1.368     0.802  48.18   0
       449    402.0636    351.3493 307.7590877  +6.5445730     28464.63     39824.63     41052.13     77.92088     155.4096     310.8811      1.490     3.57     834.8423      54.7924     4524.203        49     1.507     0.961  46.60   0
       450    580.5578    350.4726 307.6849706  +6.5508923     817.6521       1036.3     997.1075     77.79749     155.5332      310.881      1.515     5.28     835.6004      54.7924     104.8073        11     1.037     0.943  28.31   0
       451    509.6044    349.8824 307.7144646  +6.5487692     1406.675     1879.154     1914.562     77.42613     155.1002     310.5719      1.478     4.46     835.4963      54.7924     200.2414        13     1.226     0.689  50.78   0
       452    382.0691    349.4495 307.7674570  +6.5446893     1373.839     1863.942     2548.383     77.92088     155.4096     310.8502      1.513     3.89     834.7783      54.7924     234.2678        12     1.158     0.688  41.85   0
       453    668.6679    349.4640 307.6484027  +6.5542455     506.2847     694.1351     486.2549     77.92088     155.4714      310.912      1.368     4.29     835.8215      54.7924     85.03851         5     0.999     0.526  41.87   0
       454    481.5977    346.9035 307.7261985  +6.5490644     1214.393     1745.647     1704.525     77.55012     155.1622      310.541      1.461     4.32     835.4266      54.7924     211.7444        11     1.295     0.549  45.09   0
       455    796.9303    343.6939 307.5953137  +6.5608981     1018.094     1384.277     1278.913     77.79749     155.5332     310.8502      1.545     4.73     837.2839      54.7924     152.5161        12     1.228     0.740  73.58   0
       456    378.9824    344.0922 307.7689189  +6.5467980     877.4409     1319.637     1438.377      77.6739     155.2241     310.7265      1.467     4.37     834.6102      54.7924     136.4445         8     1.049     0.518  51.21   0
       457    632.8091    343.5289 307.6634974  +6.5555010     764.0342     983.4979     808.8195     77.42613     155.0383     310.6956      1.370     4.13     835.4614      54.7924      118.089         7     1.034     0.490  46.98   0
       458    491.1742    341.7773 307.7223921  +6.5515004     9270.449     12929.37     13062.61     77.42613     155.3478     310.7883      1.450     3.49     835.0991      54.7924     1411.182        26     1.374     0.846  47.50   0
       459    760.3565    340.5312 307.6106127  +6.5609867      3469.57     4854.644     5074.368     77.92088     155.4096      310.912      1.549     3.52     836.5995      54.7924     606.5779        21     1.406     0.799  45.92   0
       460    915.9090    340.2575 307.5460023  +6.5662730     794.4525     895.5528     1129.018     77.79749     155.4096     310.9429      1.181     2.86     836.2892      54.7924     186.5384         9     0.969     0.614  52.54   0
       461    707.7296    339.8222 307.6324985  +6.5595274     899.3023     1123.383     1445.004     77.55012     155.4096     310.8502      1.305     5.18     835.8137      54.7924     147.6824        10     1.141     0.676  55.93   0
       462    317.6350    338.6576 307.7945847  +6.5469912     1151.491     1643.326     1427.709     77.79749     155.4714      310.881      1.360     4.28     834.8016      54.7924     185.9186        12     1.227     0.712  50.79   0
       463    205.1120    339.8604 307.8412853  +6.5427302     549.0203     646.7433     480.9754     77.79749     155.6567      310.912      1.335     4.30     837.4695      54.7924     96.46313         5     1.046     0.504  35.14   0
       464    153.4453    332.4441 307.8629961  +6.5440621     1290.229     1829.661     1810.375     77.92088     155.4714     310.7883      1.628     4.53     839.0731      54.7924     192.6259        12     1.228     0.658  37.10   0
       465    429.9116    331.9103 307.7481715  +6.5535288     492.6607     649.5873     255.0538      77.6739      155.965     310.9428      1.349     3.60     834.2026      54.7924     88.04932         5     1.005     0.372  56.80   0
       466    381.0225    325.9995 307.7686783  +6.5543359     8188.535      11647.2     11920.34     77.55012     155.1622     310.5719      1.461     3.50     833.9946      54.7924     1224.677        30     1.434     0.887  46.33   0
       467    236.9340    326.6693 307.8285099  +6.5492413     2161.731     3007.643      2774.05     77.92088     155.5332     310.8502      1.499     3.60     836.2808      54.7924     308.8943        17     1.303     0.761  48.30   0
       468    734.7045    325.9454 307.6217565  +6.5661549     1106.611     1677.527     1390.819     77.79749     155.4096     311.0664      1.560     3.96     835.8204      54.7924      194.869        12     1.105     0.877  35.58   0
       469    748.9310    321.7494 307.6159867  +6.5683609     59378.67     82048.96     84973.96     77.79749     155.3478     310.8502      1.458     3.68     835.8721      54.7924     8796.326        67     1.516     0.981  47.97   0
       470    420.4225    321.3318 307.7524679  +6.5575793     2575.505     3575.251     3567.936     77.55012     155.4096     310.8192      1.479     3.76     833.7078      54.7924     454.6838        19     1.353     0.754  49.93   0
       471    983.6815    318.6774 307.5185674  +6.5774342     1778.078     2471.422     2272.137     78.16707     155.7184     310.9738      1.476     3.82     834.0522      54.7924     262.8226        15     1.246     0.766  38.31   0
       472    924.7504    318.0437 307.5430704  +6.5757383     2469.481     3336.052     3332.976     77.92088     155.4096      310.881      1.458     3.98     835.3585      54.7924     337.2214        18     1.311     0.804  51.91   0
       473    566.6423    318.6394 307.6918169  +6.5635711      1303.68     1596.551     1438.941      77.6739     155.4714     310.7265      1.300     4.53     833.7159      54.7924     223.6068        11     1.114     0.650  40.62   0
       474    457.5632    317.5968 307.7371646  +6.5603616     1147.727     1569.934     1253.428     77.05299     155.2859     310.6647      1.304     3.72     833.6619      54.7924     247.1232         9     1.224     0.529  36.83   0
       475    407.0377    316.9053 307.7581765  +6.5589598     2183.989     3065.724     3349.497     78.04407     155.3478     310.9738      1.459     3.64     833.5863      54.7924      355.247        16     1.274     0.738  37.11   0
       476    287.0374    316.5469 307.8080370  +6.5550966     763.9438      1048.95     1538.754     77.79749     155.4714     310.8502      1.373     4.46     834.3922      54.7924     129.4962         9     1.215     0.544  46.48   0
       477    828.2525    311.2878 307.5833840  +6.5753196     1360.782     1847.002     1698.016     77.92088     155.3478     310.9738      1.438     4.24     835.6191      54.7924     195.0908        12     1.135     0.712  59.19   0
       478    457.4645    311.9231 307.7373958  +6.5627008     765.0447     1216.282     1043.532     78.16707     155.4714     310.8502      1.491     4.26     833.3514      54.7924     120.6819         8     1.053     0.548  39.03   0
       479    959.8085    309.1227 307.5288037  +6.5805862     442.5934     993.5481     840.1101     77.55012     154.9763     310.6956      1.862     4.58     834.3356      54.7924     78.71594         6     1.455     0.409  67.63   0
       480    437.4868    308.3569 307.7458143  +6.5635061     1336.015       1890.7     2165.354     77.92088     155.3478      310.881      1.421     3.38     833.1754      54.7924     260.8561        13     1.172     0.748  46.64   0
       481    183.5963    308.2732 307.8512842  +6.5550508     2433.776     3507.886     3660.859     77.42613     155.0383     310.6956      1.491     3.99     837.7701      54.7924     355.8359        17     1.325     0.766  54.26   0
       482    747.4221    306.3045 307.6171297  +6.5746874     6578.525     9050.672     9039.418     77.92088     155.2859     310.6956      1.491     3.71     835.3883      54.7924     1101.069        27     1.389     0.861  47.25   0
       483    219.0458    306.4999 307.8366181  +6.5569697     712.1273     948.1656     1326.703     77.92088     155.4096     311.0664      1.474     4.21     836.7358      54.7924     140.5078         8     1.198     0.608  42.42   0
       484    337.6503    305.8862 307.7873701  +6.5611903     676.5055     975.0299     960.0106     77.92088     155.3478     310.9429      1.384     3.40     833.5708      54.7924     116.0027         5     0.801     0.417  70.23   0
       485     79.9170    305.7056 307.8944381  +6.5526377     1229.464     1794.769     1647.779      77.6739     155.7801     310.9738      1.573     3.45     840.0594      54.7924     185.6954         9     0.978     0.615  52.28   0
       486    763.7968    304.2591 307.6103956  +6.5760769       2870.3     4127.944     4244.356     77.30196     155.2859     310.6028      1.505     3.78     835.4037      54.7924      442.001        17     1.302     0.736  40.85   0
       487    465.6242    303.3227 307.7342944  +6.5665240     649.9837     934.0889     734.1472     77.55012     155.3478     310.8192      1.395     3.30     832.8599      54.7924     118.4769         5     0.960     0.341  67.45   0
       488    353.3845    299.2273 307.7810575  +6.5644655     1848.337      3211.55     3527.854     77.55012     155.2859     310.7574      1.857     7.09     833.2383      54.7924      257.061        21     1.685     0.836  13.76   0
       489     67.0807    299.7766 307.8999696  +6.5546552       1325.2     1795.478     1722.812     77.55012     155.1622     310.7883      1.347     3.85     840.3891      54.7924     219.0415        12     1.221     0.620  34.63   0
       490   1002.0077    295.0886 307.5117405  +6.5877819     6057.055     8997.757     9663.639     77.42613     155.1622     310.6028      1.538     3.75     833.2908      54.7924     917.4235        29     1.457     0.926  45.46   0
       491    480.1411    295.0912 307.7285397  +6.5704071     2217.067     3192.823     3035.565     77.79749     155.4096     310.9738      1.469     3.84     832.3422      54.7924      317.795        16     1.282     0.721  47.26   0
       492    242.5684    290.7680 307.8273753  +6.5642519     6470.978     9397.872      10033.5     77.42613     155.2241     310.5719      1.547     3.59     835.6379      54.7924     999.0057        29     1.426     0.912  47.54   0
       493    910.1328    289.6869 307.5500892  +6.5869603     416.5945     598.7294     809.4606     78.04407     155.7184      310.881      1.597     3.45     834.2617      54.7924     103.6886         5     0.979     0.350  46.75   0
       494    807.1212    288.7614 307.5929150  +6.5839171     649.3975     962.3988     943.8061     77.79749     155.5332     310.8502      1.358     3.33     834.8531      54.7924     135.7961         5     0.945     0.339  45.51   0
       495    934.0750    286.2505 307.5402573  +6.5891746     497.9025     616.0082      111.216     77.92088     155.5332     310.8502      1.362     4.64     833.9319      54.7924     86.01428         5     0.963     0.634  31.60   0
       496    761.9852    284.1899 307.6118188  +6.5843025     927.3207     1378.546     1479.791      77.6739     155.2241     310.7883      1.609     4.23     834.5627      54.7924     177.8823         9     1.051     0.575  53.49   0
       497    219.2867    283.4739 307.8372917  +6.5664841      690.132     964.9308     1199.651     78.04408     155.7801     310.8502      1.314     4.02     836.5422      54.7924     114.4354         7     0.975     0.510  54.27   0
       498    376.6587    281.2735 307.7719914  +6.5726557     1907.216      2782.88     3085.317     78.04408     155.4714     310.8502      1.585     4.12     832.6226      54.7924     312.5847        17     1.373     0.713  55.12   0
       499    963.4320    280.3198 307.5282589  +6.5925985     1050.399     1474.346     1652.684     77.79749     155.4096     310.8192      1.512     5.05     833.3623      54.7924     154.7136        11     1.458     0.495  45.03   0
       500    298.9301    277.5002 307.8044076  +6.5716151      1203.22     1670.551     1495.825     77.92088      155.595      310.881      1.636     4.28     833.2888      54.7924     164.8295        12     1.215     0.722  47.25   0
       501    146.3988    277.4279 307.8677729  +6.5665397     2081.819     2906.626     2400.633     77.42613     155.2241     310.6647      1.510     3.66     838.1635      54.7924     333.6219        17     1.272     0.799  44.70   0
       502    182.9415    277.6805 307.8525844  +6.5676592     555.3085      794.355     656.8464     77.92088     155.5332     310.8192      1.260     2.30     837.2926      54.7924     113.5121         5     0.832     0.465  -2.54   0
       503    556.1834    272.9807 307.6976906  +6.5820731     2460.511     3308.963     3343.298      77.6739     155.2241     310.7574      1.406     3.34      831.556      54.7924     401.0952        16     1.192     0.741  47.65   0
       504    899.6564    271.9582 307.5550331  +6.5939317     1937.112     2974.427     2955.972     77.79749     155.4096      310.881      1.708     5.62     833.4402      54.7924     294.4764        18     1.528     0.814  35.98   0
       505    719.7840    270.4951 307.6298085  +6.5885518     5643.733     7727.904       8023.5      77.6739     155.2859     310.7265      1.483     3.80     833.1511      54.7924     918.8478        25     1.437     0.783  46.02   0
       506    660.5934    270.4017 307.6544016  +6.5866187     2436.776     3304.732     3656.027     77.30196     155.1622     310.6647      1.444     3.52     831.8005      54.7924     430.5444        15     1.335     0.649  50.61   0
       507    957.7349    269.9674 307.5309710  +6.5966835     696.6446     979.0378     759.4319     77.79749     155.4714     310.8192      1.373     4.36     833.0335      54.7924     102.2439         7     1.103     0.492  44.57   0
       508    375.2282    264.4482 307.7731500  +6.5795544     667.0426     1037.987     815.1723     77.55012     155.5332     310.7883      1.766     5.48     832.3638      54.7924      104.034         8     1.248     0.680  42.50   0
       509    915.5684    262.4368 307.5487402  +6.5983917       998.35     1409.178      1191.89     77.55012     155.2241     310.6028      1.391     4.73     832.9432      54.7924     145.5137         9     1.228     0.516  42.65   0
       510    219.1634    255.9113 307.8382690  +6.5778594     2548.979     3554.022     3438.078     77.92088     155.4096     310.8502      1.465     3.41     836.1271      54.7924      394.291        19     1.327     0.777  51.56   0
       511    862.3364    254.7108 307.5711132  +6.5998120     1875.891      2479.43     2166.918     77.79749      155.595      310.881      1.496     4.09     832.5865      54.7924     263.3379        17     1.320     0.887  36.71   0
       512    752.3013    254.2071 307.6168439  +6.5963592     1854.826     2557.521     2458.089      77.6739     155.1002     310.6647      1.471     3.79     832.5607      54.7924     341.9364        14     1.271     0.697  49.44   0
       513    453.1846    245.7088 307.7413932  +6.5898952     25155.98     35291.54     36386.55      77.6739     155.2859     310.7265      1.481     3.53     830.7838      54.7924     3867.558        45     1.474     0.959  46.93   0
       514    240.3646    249.1676 307.8296882  +6.5813531     670.6581     938.3531     1035.079     77.55012     155.2241     310.6028      1.488     1.74     835.3057      54.7924      152.226         5     0.669     0.445  68.37   0
       515    779.1624    244.6456 307.6060040  +6.6012008      14424.5     20547.28     23027.69      77.6739     155.4096     310.7574      1.542     3.58      831.998      54.7924      2177.57        47     1.523     1.106  39.87   0
       516    314.0691    247.2561 307.7991339  +6.5846078     638.3224     849.1542      1002.59     78.04407     155.3478     310.8192      1.685     4.10     833.0832      54.7924     105.5161         6     1.171     0.409  34.09   0
       517    717.7488    240.5598 307.6316548  +6.6008433     878.9477     1252.834      743.233     77.92088     155.4714     310.8192      1.462     4.95     831.4854      54.7924      137.621         9     0.975     0.711  68.86   0
       518    458.8462    240.2211 307.7392252  +6.5923499     1693.411     2452.876     2924.892     77.55012     155.4714     310.6956      1.457     4.35     830.5526      54.7924     229.9734        14     1.303     0.657  50.57   0
       519    141.2722    239.0111 307.8711942  +6.5822285     2530.351     3791.498     3642.277     77.42613     155.1002     310.6956      1.533     3.63     837.7439      54.7924     371.8228        19     1.366     0.815  43.24   0
       520    116.0554    237.9575 307.8817051  +6.5818186     1228.719     1902.943      2077.91     77.79749     155.4714      310.881      1.683     3.93     838.6911      54.7924     219.8171        14     1.268     0.736  52.02   0
       521    168.4645    237.0332 307.8599646  +6.5839558     863.2841     1306.063     924.5716     77.79749     155.4714     310.8192      1.659     5.40     836.8059      54.7924     131.8705        12     1.374     0.767  54.94   0
       522    915.5627    235.1553 307.5496528  +6.6096552     1537.549     2351.072     2404.795      77.6739     155.4714     310.7574      1.527     4.04     831.6963      54.7924     273.1931        14     1.351     0.696  52.84   0
       523    772.4597    236.8866 307.6090479  +6.6041812     774.5399     1350.434      1951.92     77.92088      155.595     310.9738      2.180     5.66     831.4599      54.7924     90.77631        11     1.546     0.583  22.28   0
       524    577.1191    231.3212 307.6903880  +6.5999711     5155.232     7245.501      7308.23     78.16707     155.7184     311.0355      1.454     3.82     830.5229      54.7924     848.8059        23     1.366     0.788  44.04   0
       525    297.4915    232.1068 307.8065293  +6.5903079     1130.367     1555.731     1407.316     77.92088      155.965     310.8502      1.313     3.83     833.2651      54.7924     193.8498        10     1.212     0.548  48.00   0
       526    539.9835    231.3419 307.7058151  +6.5987238     2396.801     3428.666     3075.052     77.30196     155.4096     310.6028      1.463     3.72     830.3777      54.7924     338.7767        16     1.303     0.713  42.61   0
       527    884.3500    227.9573 307.5628607  +6.6115896     12055.76     16991.48     17641.25     78.04407     155.4714     310.8502      1.506     3.61     831.1997      54.7924      1841.51        36     1.498     0.899  51.99   0
       528    381.6466    230.4861 307.7716230  +6.5937904     1776.048      2152.75      2205.11     77.92088     155.3478     310.8502      1.389     3.75     831.5776      54.7924     273.3853        13     1.162     0.684  42.89   0
       529    938.0853    228.4278 307.5405201  +6.6131812     3015.501     4013.158     4385.967     78.04407     155.1622     310.7265      1.426     3.46     831.4382      54.7924     437.8735        22     1.396     0.829  43.62   0
       530    311.9050    228.3808 307.8006666  +6.5923282     1005.869     1262.497     837.9169     77.79749     155.2859     310.6647      1.399     5.16     833.0587      54.7924     156.4926        11     1.280     0.644  57.54   0
       531    559.5737    228.0940 307.6977852  +6.6007183     929.7158     1160.374     1189.852     78.04407     155.2241     310.6956      1.439     4.81     830.3774      54.7924     150.6089        10     1.290     0.614  36.54   0
       532    970.9128    225.7286 307.5269715  +6.6153862      10191.5     14693.11     15191.38     78.04407     155.7184     310.8502      1.525     3.72     831.3474      54.7924      1415.26        36     1.520     0.941  47.41   0
       533    203.1493    227.9635 307.8458607  +6.5888616     813.4399     1042.326     1148.908     77.79749     155.4096     310.7574      1.304     3.48     835.9874      54.7924     170.4551         7     0.903     0.510  40.99   0
       534     10.3801    224.7181 307.9260495  +6.5837416     27172.41      39354.3     41408.39     77.55012     155.1622     310.7883      1.563     3.65     842.5535      54.7924     4034.198        50     1.527     1.005  46.93   0
       535    682.3968    225.7943 307.6468355  +6.6057620     3105.692     4290.065     4719.177     77.30196     155.1622     310.6956      1.456     3.88     830.6303      54.7924     474.1035        18     1.307     0.773  50.11   0
       536    256.6412    225.7376 307.8237135  +6.5915709     1288.102     1808.463     1673.511     77.92088     155.4096      310.912      1.492     3.81     834.4639      54.7924     225.6917        10     1.143     0.556  52.13   0
       537    490.8468    220.6408 307.7265871  +6.6015022     2086.911     3166.865     3289.249     77.79749     155.4714     310.6647      1.623     4.07     829.8655      54.7924     322.3325        18     1.388     0.814  40.87   0
       538    875.1578    216.4699 307.5670632  +6.6160268     2347.094     3307.253     3519.078     77.79749     155.4714      310.912      1.477     4.25     830.6059      54.7924     356.0533        17     1.367     0.789  58.52   0
       539    822.8480    217.3282 307.5887672  +6.6139329     2185.364      3056.72     3269.288     77.92088     155.5332      310.881      1.384     3.87      830.493      54.7924     379.5439        14     1.251     0.645  42.54   0
       540    502.9173    216.5801 307.7217086  +6.6035816     2960.641     4122.738     4445.611     77.55012     155.1622     310.7883      1.464     3.67     829.7789      54.7924     466.7094        21     1.303     0.836  50.60   0
       541    622.4493    217.3852 307.6720222  +6.6072362      435.994      452.219     310.7029     77.30196     155.4096     310.5719      1.302     3.91     830.3973      54.7924     77.91705         5     1.025     0.427  14.50   0
       542    734.4398    213.8741 307.6256126  +6.6124167      43875.2     60861.34      63203.1     77.79749     155.4714     310.8811      1.464     3.62     830.2298      54.7924     6739.785        54     1.490     0.945  46.40   0
       543    337.4555    213.3418 307.7905568  +6.5993915      6128.65     12073.13     12704.77     78.04408     155.4714     310.8502      2.056     6.75     832.5082      54.7924     825.1573        41     1.871     1.190  89.20   0
       544    968.2477    212.5355 307.5285188  +6.6207447     2975.526     4217.583     4178.283     77.79749     155.3478      310.912      1.538     3.77     830.7048      54.7924     438.4998        24     1.437     0.896  48.94   0
       545    902.3535    210.9065 307.5559500  +6.6192278     7959.808     11337.74     11716.55     77.79749     155.4096     310.9738      1.498     3.72     830.4978      54.7924     1279.703        27     1.431     0.833  50.47   0
       546    445.8832    210.2321 307.7456158  +6.6042983      5536.75      7802.14     8113.826     77.92088     155.2859     310.7265      1.492     3.78     829.8182      54.7924     780.8929        26     1.472     0.863  48.89   0
       547   1006.4998    211.1459 307.5126726  +6.6225887      1668.79     2642.652     2391.785      77.6739     155.4714     311.1282      1.693     4.81     830.6037      54.7924     222.0074        16     1.380     0.767  40.54   0
       548    220.4900    207.0825 307.8393585  +6.5980629     854.3374     1245.791     1333.172      77.6739     155.7184     310.9429      1.569     5.24     835.4274      54.7924     118.6066        11     1.205     0.643  39.84   0
       549    103.1834    201.5674 307.8882765  +6.5964109     5400.774     7676.432      7662.53     77.55012     155.2241     310.7265      1.502     3.68     838.2529      54.7924      819.761        26     1.402     0.869  48.17   0
       550    923.0000    201.0872 307.5476997  +6.6239681     794.4073     1091.415     1070.594     77.17757     154.9763       310.51      1.316     4.11     830.0831      54.7924     146.2015         8     1.061     0.495  53.83   0
       551    273.5084    198.1677 307.8176323  +6.6035176     37560.38     53020.27     55108.79     78.04407     155.2859      310.881      1.509     3.58     834.0609      54.7924     5933.233        55     1.493     1.019  46.05   0
       552    248.8481    199.2465 307.8278409  +6.6022471     7229.581     10345.99     10630.64     77.92088     155.3478     310.8502      1.503     3.52     834.6611      54.7924     1123.156        27     1.394     0.882  47.36   0
       553    599.6981    199.8059 307.6820627  +6.6137355     810.5618     1268.966     1732.516      77.6739     155.1002     310.6337      1.750     4.22     829.9979      54.7924     121.3754         8     1.049     0.530  36.92   0
       554    702.8480    197.4160 307.6392880  +6.6181596     1028.615     1198.725     1185.525     77.42613     155.4714     310.6337      1.286     3.59     829.8904      54.7924     161.8956        11     1.037     0.726  44.93   0
       555    397.5904    193.6489 307.7662350  +6.6095317     55218.35      77889.8     80689.67     77.42613     155.2859      310.541      1.514     3.62     830.4539      54.7924     8876.686        61     1.503     1.010  45.95   0
       556    153.5081    194.9516 307.8675927  +6.6008283     4387.199     6421.787     6806.888     77.92088     155.3478     310.9738      1.536     3.47     836.5792      54.7924     638.2534        24     1.434     0.813  42.67   0
       557    414.9352    194.2606 307.7590086  +6.6098586     1697.201     2118.458     1864.554     77.92088     155.4096      310.881      1.398     3.79     829.9912      54.7924     269.7496        12     1.155     0.626  47.99   0
       558    301.5674    191.3333 307.8062050  +6.6072778     20409.19     28578.67     29445.47     77.79749     155.5332     310.7883      1.513     3.60     833.3441      54.7924     3227.263        38     1.455     0.925  47.83   0
       559    685.1646    191.5049 307.6468326  +6.6200111     1142.895     1674.378     1268.621     78.04407     155.3478     310.9429      1.561     4.58     829.9202      54.7924     168.4621        12     1.121     0.818  62.99   0
       560    568.1880    192.9648 307.6953828  +6.6155092     577.2737     670.3066     625.1944     77.42613     155.2859     310.6956      1.385     3.98     829.3943      54.7924     103.8878         5     0.866     0.522  43.30   0
       561    308.8717    191.4691 307.8031659  +6.6074660      2370.99     3790.304     4605.788     77.92088      155.595     310.7883      1.867     3.70     833.1048      54.7924     378.1202        18     1.347     0.779  43.37   0
       562    535.3817    192.1484 307.7090397  +6.6147519     383.9142     700.3619     598.8875     77.42613     155.5332     310.6028      1.850     4.49     828.9978      54.7924     74.96277         5     1.177     0.488  32.99   0
       563    785.1840    190.3241 307.6053174  +6.6238289     1238.434     1938.526     2549.656     77.42613     155.2241     310.7265      1.610     3.98     829.4455      54.7924     217.0406        14     1.267     0.753  40.63   0
       564     24.4690    190.5838 307.9213460  +6.5983064      671.931     1152.115     1689.909     77.42613     155.3478     310.7574      2.050     5.77     842.2536      54.7924      100.039         9     1.451     0.647  38.61   0
       565    561.0386    188.7856 307.6984930  +6.6169961     542.3644     770.3419     947.6451      77.6739     155.2859     310.5719      1.873     5.62     829.1649      54.7924     81.61896         8     1.417     0.629  55.56   0
       566     53.6133    187.2057 307.9093525  +6.6006784     9979.766        14288     14800.93     77.55012     155.2241     310.7265      1.520     3.64     840.4367      54.7924     1485.827        32     1.463     0.898  46.23   0
       567    736.8907    189.7708 307.6254001  +6.6224498     36194.04     50341.14      52480.3     78.04407     155.2241     310.7883      1.454     3.63     829.4017      54.7924     5409.887        52     1.477     0.963  49.82   0
       568     87.6293    185.1395 307.8952908  +6.6026718     1648.319     2256.339     1886.473      77.6739     155.4714     310.8192      1.487     4.20     838.2769      54.7924     262.9559        13     1.179     0.707  44.23   0
       569    995.5241    184.1864 307.5181316  +6.6333550     1086.057     1592.915     1914.819     77.55012     155.2241     310.6956      1.538     5.16     829.2383      54.7924     195.9089        12     1.315     0.600  53.79   0
       570    721.3855    177.8236 307.6322415  +6.6268660     713.0256     1006.458     938.1077      77.6739     155.2859     310.7574      1.492     5.33     829.1892      54.7924     126.5073         9     1.367     0.586  36.66   0
       571    570.6451    174.4394 307.6949823  +6.6232396     867.0757     1178.706     1223.759      77.6739     155.4714     310.7574      1.544     3.45     828.8997      54.7924     148.0711        10     1.091     0.624  53.20   0
       572    996.4404    170.3237 307.5182131  +6.6391090     2309.462     3655.271      3903.67     77.79749     155.4714      310.881      1.656     4.02     828.5303      54.7924     345.7461        21     1.437     0.927  51.57   0
       573    579.2665    168.0361 307.6916148  +6.6261708     1067.711     1622.205     1628.727     77.79749     155.4714      310.912      1.556     4.28     828.9124      54.7924     159.2794        11     1.172     0.654  58.37   0
       574    272.4044    164.4290 307.8192241  +6.6174098     33815.09      47975.3     50362.89     77.42613     155.2859     310.6956      1.551     3.59     834.3122      54.7924     5517.857        57     1.528     1.026  50.80   0
       575     17.6105    163.2907 307.9251142  +6.6093442     5014.471     7313.569     7641.093      77.6739     155.1002     310.6337      1.601     3.86      842.886      54.7924     715.1321        29     1.570     1.181  82.40   0
       576    587.6317    166.2110 307.6882005  +6.6272033     2309.737      3130.91      3387.48     77.42613     155.2241     310.7265      1.372     3.45     829.0724      54.7924     374.8468        16     1.298     0.695  42.52   0
       577    331.7726    166.0720 307.7945043  +6.6187171     1173.139      1599.07     1405.412      77.6739     155.4096     310.7574      1.422     3.93     831.9835      54.7924     181.5544        11     1.160     0.624  50.35   0
       578    704.0558    160.9016 307.6400073  +6.6332754     8803.391     12010.54     12647.61     77.79749     155.4714     311.0664      1.437     3.58     828.9655      54.7924     1398.561        27     1.411     0.826  50.19   0
       579    181.6729    162.4877 307.8569834  +6.6151743     1101.629     1579.762     1354.596     78.04408     155.7184     310.8502      1.342     4.46     835.6505      54.7924      158.597        11     1.204     0.614  40.36   0
       580    258.1531    159.2952 307.8253172  +6.6190525     866.2847     1227.345     1418.538     77.79749     155.4096     311.0046      1.493     4.19     834.4769      54.7924     144.6996        10     1.104     0.657  43.07   0
       581    114.7882    158.1772 307.8849151  +6.6147134     5214.883     7451.535     7867.818     77.55012     155.2859     310.7574      1.516     3.96     836.4312      54.7924     781.5273        23     1.413     0.813  47.22   0
       582    576.3191    156.0507 307.6932407  +6.6310208     843.6732     1539.318     1531.576     77.92088     155.5332     310.8502      1.921     5.18     828.4461      54.7924     132.5756        10     1.030     0.911   9.08   0
       583    453.9172    155.4240 307.7441156  +6.6271947     1567.737     1996.698     1667.968     77.79749     155.2241     310.7883      1.382     3.53     828.4979      54.7924     252.2746        12     1.111     0.680  45.90   0
       584    385.4737    154.1384 307.7725944  +6.6254390      4310.73     6744.354     7152.843     78.04407     155.4714     310.8502      1.680     3.94      830.258      54.7924     695.3362        30     1.619     0.953  57.95   0
       585    642.7859    154.8099 307.6656672  +6.6337491     876.0235      1257.45     1621.588      77.6739     155.2241     310.7883      1.679     4.20     829.1447      54.7924     145.4867         9     1.049     0.616  30.34   0
       586    349.9468    153.1192 307.7873885  +6.6246724     3567.236     4761.444     4654.934     77.92088     155.4714      310.912      1.395     3.53     831.2867      54.7924     600.8742        21     1.350     0.760  47.90   0
       587    104.2759    153.0296 307.8894555  +6.6164862      1990.23     3127.102      3378.27     77.79749     155.5332      310.881      1.595     3.62     836.4035      54.7924     298.8946        19     1.356     0.813  55.55   0
       588    562.1044    152.5598 307.6992634  +6.6319879     681.8503     1007.117     956.4131     77.92088     155.3478     311.0046      1.750     5.55      828.018      54.7924     104.1577         7     1.095     0.793  79.57   0
       589    740.4224    151.0586 307.6252270  +6.6385503     648.4913     735.7937      391.195     77.55012     155.4714     310.6956      1.269     3.85     828.1092      54.7924     110.4545         7     1.037     0.461  44.25   0
       590    665.8311    150.7766 307.6562275  +6.6361823     893.3299      900.252     1103.648     77.30196     155.2859     310.6028      1.214     4.07     828.9171      54.7924     178.0132         7     1.069     0.444  34.59   0
       591    996.7628    147.0663 307.5188547  +6.6487220     1651.707     2294.728     2034.162     77.79749     155.4096      310.912      1.536     3.84     827.6403      54.7924     246.4421        14     1.225     0.725  47.74   0
       592    722.5584    146.3858 307.6328054  +6.6398847     579.3707     849.9261     652.2727     77.42613     155.2859     310.6028      1.734     4.91     828.1056      54.7924     90.96777         6     1.401     0.488  61.96   0
       593    201.8265    142.0973 307.8492960  +6.6242673     6083.189     8603.739     8315.848     78.04407     155.2241     310.7883      1.494     3.64     835.1093      54.7924     879.2375        26     1.415     0.849  49.76   0
       594     84.6446    141.9930 307.8979826  +6.6203847     2394.743     3464.265     4015.031     77.42613     155.2859      310.541      1.497     3.61     837.1295      54.7924      340.293        17     1.304     0.765  45.62   0
       595    812.0138    140.6103 307.5958312  +6.6452468     1068.515     1423.732     1038.672     77.55012     155.2241     310.7883      1.382     3.88     827.7531      54.7924     157.7823        10     1.097     0.660  50.26   0
       596    615.7626    137.9870 307.6774577  +6.6397938     10288.44     14785.74     16249.32     77.42613     155.2859     310.5719      1.495     3.68     828.1774      54.7924     1523.899        35     1.481     0.889  47.84   0
       597    250.2327    138.4690 307.8293074  +6.6273856     902.1733     1129.242     828.2426     77.79749     155.4714     310.8811      1.519     4.11     834.5932      54.7924     138.9746        12     1.269     0.646  33.46   0
       598    554.2157    137.4272 307.7030478  +6.6379724     713.7698     1090.943     1099.662     77.55012     155.2859     310.7574      1.635     4.22      827.329      54.7924     132.7229         8     1.283     0.441  51.49   0
       599     14.0753    137.1643 307.9274625  +6.6200117     907.5385     1501.824     894.0676     77.79749     155.5332      310.881      1.645     4.87     842.7484      54.7924     129.9474        11     1.276     0.711 -87.10   0
       600    663.6730    140.6955 307.6574614  +6.6402725     6697.321     9267.103     9312.644     77.79749      155.595     310.8502      1.464     3.78     828.3481      54.7924     1085.986        29     1.467     0.832  45.91   0
       601    342.9421    133.7552 307.7909486  +6.6324327      3896.97     6203.561     6597.522     77.79749     155.4714      310.912      1.667     3.80      832.281      54.7924     570.3867        31     1.373     1.192  48.95   0
       602    524.8380    133.0439 307.7154003  +6.6388020     2017.638     2569.825     2381.325      77.6739     155.4714     310.6956      1.343     3.69     827.2387      54.7924     309.8696        15     1.237     0.706  38.32   0
       603    619.3569    129.4987 307.6762485  +6.6434182      59111.3     81940.52      85043.8     77.92088     155.3478     311.0664      1.497     3.66     827.6653      54.7924     10108.47        64     1.522     0.971  49.43   0
       604    989.2282    132.2405 307.5224797  +6.6545929     635.5056     944.5705     882.1072     77.55012     155.2859     310.6956      1.411     3.88     827.1566      54.7924     131.8903         6     0.823     0.524  42.94   0
       605    298.4750    123.3498 307.8097725  +6.6352416     3953.589     5492.107     5920.104     77.92088     155.5332      310.881      1.535     3.77     834.0778      54.7924     671.2596        22     1.411     0.812  46.48   0
       606    698.3331    117.5826 307.6438338  +6.6509697      980.275     1357.043     1346.028     77.42613     155.4096     310.7265      1.595     3.42     827.0677      54.7924     174.5564        10     1.043     0.693  49.55   0
       607    669.6555    116.6977 307.6557786  +6.6503796     1535.199     2237.283      1939.81     77.79749     155.4714     311.0664      1.456     3.70     826.9825      54.7924     266.2827        14     1.235     0.712  56.83   0
       608      2.5445    105.4333 307.9333216  +6.6327248     7040.751     17298.92     28431.35     77.79749     139.7883     252.6066      4.153    13.56      843.043      54.7924     1390.671       149     5.251     1.842  89.12  24
       609    683.7879    113.5382 307.6500125  +6.6521549     3414.358     4824.725     4352.569     77.42613     155.2859     310.6028      1.491     4.00     826.8426      54.7924     550.9415        19     1.343     0.770  47.26   0
       610    252.3813    113.5875 307.8292507  +6.6377299      504.025     865.4001     1367.671      77.6739     155.1622     310.7574      1.252     3.41     834.6235      54.7924     75.50275         5     1.098     0.307  69.08   0
       611    425.4858    104.4606 307.7576370  +6.6472857     4628.208     6356.089     6658.075     78.04408      155.595     310.9429      1.519     3.75     828.0829      54.7924     722.3414        20     1.321     0.798  49.19   0
       612    879.9470    100.7552 307.5689365  +6.6639610     2230.098     3113.879     3357.839     77.92088     155.4714     310.8502      1.442     3.81     825.9084      54.7924     352.4244        16     1.386     0.699  46.91   0
       613    898.0726     99.7304 307.5614394  +6.6649866     4171.777     5784.457     5728.362     78.04407      155.595     310.8502      1.485     3.27     825.8669      54.7924     647.2821        26     1.396     0.895  49.51   0
       614    590.2090     98.3803 307.6894008  +6.6552939     2041.711     2884.522     2656.104     77.55012     155.2241     310.6956      1.414     3.20     825.9596      54.7924     382.2567        17     1.259     0.740  58.60   0
       615    236.0989     97.8515 307.8365442  +6.6436816     991.7501     1418.707     1837.859     77.92088     155.4714     311.0664      1.482     4.10     834.7238      54.7924     147.6627        12     1.159     0.737  45.66   0
       616     79.4481     97.5165 307.9016382  +6.6385724     537.7551     675.1425     469.6747     77.92088     155.4714      310.881      1.253     4.53     836.4733      54.7924     95.27441         6     1.124     0.572  44.82   0
       617    388.8588     96.3404 307.7731271  +6.6494144     2138.264     2933.018     2853.222     77.92088     155.4714      310.881      1.435     3.50     830.3906      54.7924     343.8221        15     1.225     0.718  41.31   0
       618    136.7635     93.3873 307.8779648  +6.6421981     3528.051     5148.826     5147.417     77.42613     155.2859     310.5719      1.547     3.85     834.7607      54.7924     497.9971        20     1.355     0.785  52.25   0
       619     18.6416     91.1838 307.9271139  +6.6391476     13252.89     19449.37     20957.68     77.42613     155.2859     310.6337      1.571     3.66     840.9402      54.7924     1954.927        43     1.619     0.968  47.75   0
       620    284.9376     91.6741 307.8164606  +6.6478662     1433.215     2255.862     2793.266     78.16707     155.4714     310.8502      1.662     4.09     834.5152      54.7924     218.9245        16     1.339     0.856  41.54   0
       621    753.6390     90.1934 307.6217704  +6.6641194      641.589     686.9655      923.751     77.17757     155.1622     310.5719      1.440     4.12     826.2373      54.7924     126.5575         7     1.380     0.351  45.33   0
       622    558.1856     90.7198 307.7029628  +6.6573885     810.1128     1061.074     952.1917     77.55012     155.2241     310.6647      1.420     3.29     825.9985      54.7924     161.8851         7     0.843     0.715  50.90   0
       623    545.9959     90.4606 307.7080362  +6.6570888      953.251     1148.907     1346.309     77.30196     155.2859     310.6028      1.380     4.30     826.0632      54.7924     153.2211        11     1.114     0.766  53.04   0
       624    148.1479     89.4784 307.8733664  +6.6441932     661.3895     781.1799     796.2534     77.92088     155.4714     310.8502      1.398     4.12     834.6719      54.7924     105.6521         6     1.028     0.471  58.76   0
       625    820.3436     85.6358 307.5942068  +6.6682210     6631.143     9429.471      9694.39     77.79749     155.4714      310.881      1.515     3.81      825.801      54.7924     1088.785        28     1.398     0.885  48.25   0
       626    577.8007    100.1172 307.6944982  +6.6541630     884.6413      1205.73     962.0521     77.17757     154.9763      310.541      1.544     5.15     826.0823      54.7924      141.841        10     1.233     0.608  39.59   0
       627    887.2487     86.9393 307.5663638  +6.6699079     689.8877     859.6247     707.1888     77.92088     155.4096      310.912      1.355     3.66      825.397      54.7924     131.4128         5     1.202     0.320  41.76   0
       628    765.4582     85.9654 307.6170008  +6.6662584     3455.898     4829.385     5260.168     77.79749     155.4714     310.8502      1.475     3.89     826.0723      54.7924      538.233        19     1.400     0.728  47.97   0
       629    410.8931     86.8224 307.7642916  +6.6540802     1217.232     1631.978      1512.32     77.92088     155.2859     310.6956      1.384     4.26     828.7031      54.7924     195.4904         9     1.020     0.681  43.80   0
       630     90.2220     86.2052 307.8975427  +6.6436034     621.9661     895.4362     1019.486     77.55012     155.2241     310.6647      1.409     3.70     835.2356      54.7924     104.0641         5     1.284     0.307  58.35   0
       631    752.4520     85.4305 307.6224228  +6.6660463     688.1128     902.0619     759.8568      77.6739      155.595     310.7883      1.525     5.03     826.0716      54.7924     89.78534        10     1.349     0.530  45.82   0
       632    528.1003     84.2608 307.7156794  +6.6590514      1244.28      1481.71     1721.748      77.6739     155.4096     310.9738      1.389     4.22      826.309      54.7924     216.7698        13     1.304     0.710  50.53   0
       633     43.4420     84.0686 307.9170499  +6.6429170     1074.531      1508.51     1053.925     77.79749     155.4096     310.9429      1.359     3.42      838.534      54.7924     184.9293        10     1.102     0.590  43.96   0
       634     58.9193     83.0585 307.9106537  +6.6438530     3524.656     4808.646     4736.424     77.92088     155.5332     310.8502      1.452     3.51     837.3362      54.7924     545.8237        19     1.300     0.779  46.81   0
       635    647.4532     82.8022 307.6661377  +6.6636339     714.1971     1004.887     1915.896     77.30196     155.2241     310.4481      1.642     4.26     825.5583      54.7924     120.5574         7     1.184     0.452  50.57   0
       636    420.0605     82.4170 307.7606305  +6.6562053       1177.6     1660.026      1563.32     77.42613     155.4096     310.6337      1.534     3.43     828.2352      54.7924     224.3958        10     1.032     0.615  61.10   0
       637    582.6056     79.2978 307.6931990  +6.6629187     1425.176      1913.66     2011.734      77.6739     155.1622     310.5719      1.352     3.75     825.7172      54.7924     243.3185        12     1.169     0.781  53.14   0
       638      1.7142     78.6390 307.9345690  +6.6437588     2702.219     3695.568     4564.696     72.29275     129.1428     239.9281      1.567     3.65     840.8697      54.7924     488.9478        15     1.338     0.638  70.36  24
       639    709.6995     76.4143 307.6404881  +6.6683451     548.7755     660.2068     665.1272     77.92088     155.2241      310.541      1.620     5.60     825.6609      54.7924     83.48993         6     1.261     0.701  39.71   0
       640    760.1066     73.3824 307.6196451  +6.6712754     2107.458     2855.585     3016.979     77.79749     155.2859     310.7265      1.496     4.05     825.6217      54.7924     343.5628        16     1.304     0.694  45.28   0
       641    651.7509     73.1192 307.6646761  +6.6677749     612.4172     954.1045     1627.652     77.92088     155.5332      310.881      2.105     5.57     825.3539      54.7924     98.69061         7     1.252     0.699  65.20   0
       642    400.5428     73.5577 307.7690370  +6.6592108     1102.844     1360.836     1124.502     77.79749     155.4096      310.881      1.408     3.87     829.7258      54.7924     186.2374        11     1.154     0.688  40.51   0
       643     73.5645     73.8736 307.9048783  +6.6481360     883.1223     1330.711     1127.831     77.79749     155.4714     310.8192      1.494     3.17     835.9047      54.7924     163.6545        10     1.045     0.723  45.87   0
       644     98.0357     72.5257 307.8947567  +6.6495129     969.9056     1266.663     1394.373     77.79749     155.5332     310.8502      1.398     3.39     834.4863      54.7924     150.8982        10     1.061     0.733  45.29   0
       645     86.6515     67.3390 307.8996611  +6.6512725     10451.87     14890.75     15363.81     77.92088     155.4096     310.8502      1.527     3.66     834.9146      54.7924     1596.933        33     1.476     0.904  44.63   0
       646    415.7454     66.9872 307.7629409  +6.6624314     2807.644     4031.237      3991.66     77.30196     155.4096     310.5719      1.463     3.40     828.6461      54.7924      403.789        19     1.313     0.822  46.19   0
       647    237.1307     66.9650 307.8371534  +6.6564676     726.4227     926.6042     1064.086     77.79749     155.4714     310.9738      1.610     4.55     834.6167      54.7924     155.4522         7     1.205     0.489  54.75   0
       648    629.4335     59.2143 307.6744144  +6.6727718     20274.19     28668.89     30666.09     77.55012     155.2241     310.7574      1.499     3.80     825.0677      54.7924      3434.45        43     1.468     0.946  46.30   0
       649    253.3116     61.3510 307.8306192  +6.6593269     1606.222     2303.257     3056.578     77.92088     155.3478     310.9429      1.617     3.34     834.5663      54.7924     245.4352        15     1.185     0.788  37.47   0
       650    659.0441     60.4281 307.6620704  +6.6732576     649.6098     945.1362     1126.487     77.55012     155.5332     310.7574      1.586     4.69     825.0881      54.7924     111.4127         7     1.120     0.558  63.55   0
       651    529.2515     55.3364 307.7161702  +6.6710314      5736.44     7688.603      7458.14     77.92088     155.4096     310.8192      1.458     3.60     826.1776      54.7924     991.2985        21     1.402     0.740  50.18   0
       652    247.3289     55.7817 307.8332920  +6.6614259     2240.399     3227.478     4053.757     77.42613     155.3478     310.7883      1.641     4.01     834.5635      54.7924     307.4878        18     1.340     0.807  42.52   0
       653    685.7556     54.1631 307.6511812  +6.6767342      571.447     660.0289      1124.31      77.6739     155.4714     310.7265      1.081     3.39     825.0076      54.7924     109.3324         5     0.954     0.347  45.02   0
       654    615.7908     49.6071 307.6804046  +6.6762834     3567.197     5947.951     6748.646     77.30196     155.2859     310.6956      1.856     5.02     824.8837      54.7924     527.7605        29     1.996     0.846  65.57   0
       655    255.3560     51.3779 307.8301049  +6.6635127     10213.17     14649.86     16152.31     77.42613     155.3478     310.6647      1.541     3.79     834.5401      54.7924     1634.616        36     1.542     0.907  49.06   0
       656    434.7996     50.9218 307.7555629  +6.6697006      24823.4     35153.41     36234.09     77.17757     154.8523     310.6028      1.466     3.52     828.1737      54.7924     3792.808        45     1.473     0.937  46.70   0
       657    315.2028     51.7994 307.8052251  +6.6653409     1137.378     1756.111     2008.965     77.30196     155.0383     310.6028      1.684     4.79     834.1968      54.7924      164.953        14     1.249     0.749  52.85   0
       658    912.5820     50.8096 307.5570436  +6.6856667     1997.519     2806.705     2804.754      77.6739     155.2241     310.7265      1.508     3.67      824.047      54.7924     312.9791        18     1.356     0.792  46.82   0
       659    519.7906     51.0655 307.7202443  +6.6724790     667.3193     968.7534     868.7643     77.42613     155.2859     310.7574      1.344     4.66     826.2133      54.7924     103.5992         8     1.306     0.473  47.46   0
       660     20.6916     50.9822 307.9276160  +6.6558133     2341.519     3335.733     3079.016      77.6739     155.2241     310.7265      1.463     3.51     836.8893      54.7924     341.1224        18     1.348     0.771  45.65   0
       661    547.9021     50.5771 307.7085803  +6.6736187     722.3801     891.8015     244.6263     77.92088     155.2241     310.6956      1.490     4.73     826.0143      54.7924      90.9281         9     1.166     0.545  61.94   0
       662    243.2871     47.9208 307.8352355  +6.6645360     3367.765       4686.5      5224.79      77.6739     155.7801     310.9738      1.481     3.67     834.5453      54.7924     488.9764        21     1.365     0.814  50.96   0
       663    296.5088     45.7849 307.8131942  +6.6671987     1237.692     1725.503     2197.539      77.6739     155.2859     310.6956      1.562     4.25     834.4125      54.7924     164.9439        14     1.292     0.726  51.00   0
       664    933.3870     41.0139 307.5487256  +6.6904024     1030.244     1329.027     887.6355     77.79749     155.1622     310.7883      1.487     4.48     823.5647      54.7924     148.6724        11     1.238     0.816  38.10   0
       665     89.8124     41.5141 307.8992169  +6.6620401     619.7575     936.6685      992.054     77.55012     155.3478     310.6956      1.480     4.21     834.1205      54.7924      99.9873         7     1.121     0.451  49.97   0
       666    684.6949     40.3834 307.6520829  +6.6823880     1986.083     2955.596     3088.197     77.79749     155.2859     310.6956      1.539     4.13     824.6922      54.7924     324.7517        14     1.381     0.630  45.79   0
       667    195.7795     36.2473 307.8553666  +6.6677650     967.3408     1305.223     1149.593     77.55012     155.4714     310.6647      1.587     4.69     834.1955      54.7924     151.8539         8     1.019     0.611  63.02   0
       668    250.2027     35.0965 307.8327930  +6.6700620       759.75      1123.47     1526.425      77.6739     155.1622      310.541      1.443     3.15     834.5048      54.7924     129.6111         6     0.758     0.555  44.92   0
       669    172.8180     33.4161 307.8650020  +6.6681648     12148.15     17309.33      17470.3      77.6739     155.1622     310.7883      1.508     3.64     833.9036      54.7924     1742.775        31     1.420     0.909  50.08   0
       670    918.4937     31.0224 307.5552476  +6.6940326     4379.677      6175.92     5944.114     77.92088     155.2859     310.6647      1.492     3.65     823.2866      54.7924     654.0336        21     1.332     0.807  49.65   0
       671    517.0779     31.5121 307.7220267  +6.6804612     3111.138      4213.65     4573.066     77.92088     155.7801     310.9738      1.456     3.48     826.0961      54.7924     502.9946        17     1.382     0.667  48.90   0
       672    719.4403     29.6771 307.6380038  +6.6879656     2160.384     3020.904     3066.215     77.79749     155.4714      310.881      1.514     4.20     824.4535      54.7924     320.5366        16     1.377     0.705  42.14   0
       673    455.4189     29.9480 307.7476989  +6.6790484     1991.784     2703.616      2915.21     77.42613     155.5332     310.6647      1.369     3.47     827.3698      54.7924     318.7462        15     1.254     0.678  52.90   0
       674    983.3391     27.2005 307.5284300  +6.6977649     2001.864     3035.655     2966.425     77.17757     155.2859      310.541      1.583     3.57     821.9988      54.7924     270.9803        18     1.217     0.870  56.64   0
       675    702.6398     23.7377 307.6451834  +6.6898581     7967.884      11004.3     11084.44     77.92088     155.4714      310.912      1.454     3.66     824.3104      54.7924     1290.437        29     1.392     0.843  45.67   0
       676    622.8261     22.9523 307.6783737  +6.6875226     4020.146     5620.204     6008.974     77.55012     155.5332     310.7574      1.437     3.45     824.3317      54.7924     595.3937        20     1.340     0.775  50.74   0
       677    324.9109     22.9036 307.8021616  +6.6775952     995.2945     1294.294      2042.98     77.92088     155.9034      310.881      1.348     4.57     834.2113      54.7924     141.8669         9     1.211     0.490  54.90   0
       678    378.7312     21.1487 307.7798581  +6.6801191     716.6512     807.2689     685.2298     77.79749     155.3478     310.7883      1.276     5.07     832.1285      54.7924     112.2834         9     1.249     0.583  62.47   0
       679    539.9084   1015.3499 307.6796034  +6.2750302     4240.631     6852.338     7514.215     77.79749     155.3478     311.0355      1.747     3.71     857.9429      54.7924     576.8616        30     1.521     1.052  53.86  19
       680    537.1529   1007.6680 307.6810044  +6.2781099     8106.419     12891.46     14187.71     77.92088     155.4096     310.8192      1.710     3.82      857.836      54.7924     1065.635        39     1.617     1.063  50.49   2
       681    669.9183     18.0257 307.6589710  +6.6911262     963.1821     1165.035     1019.278     77.79749     155.2241     310.8502      1.371     4.97     824.2295      54.7924     171.6293        12     1.497     0.651  47.88   0
       682    498.7685     15.9268 307.7301568  +6.6862846     1117.163     1384.207     1608.988     77.79749     155.4714      310.881      1.328     3.91     825.9273      54.7924     172.0554        10     0.910     0.866 -83.32   0
       683    744.5482   1014.8510 307.5946565  +6.2820526     7217.332     12214.43     13214.91     78.04407     155.3478     310.8502      1.825     4.10     855.8447      54.7924     837.6907        40     1.687     1.111  46.21  16
       684    510.1092   1016.3091 307.6919434  +6.2736405     962.1706     1836.252     2389.259     77.92088      155.965     310.9429      2.160     6.27     857.9108      54.7924     137.6497        12     1.359     0.992  32.52  16
       685    289.9682   1014.3249 307.7834065  +6.2671096     14848.55     23244.81     24318.51     77.79749     155.5332     310.8192      1.679     3.61     857.8515      54.7924     2024.687        44     1.548     1.125  51.50  18
       686    294.8201   1011.6820 307.7814808  +6.2683629     950.1899     1277.329     1542.643      77.6739     155.1622     310.7883      1.503     4.79     857.7975      54.7924     126.0214        12     1.186     0.790  45.01   3
       687    414.4744   1014.4280 307.7317117  +6.2712260     893.4235     1312.864     649.1313     77.79749     155.4096     310.7883      1.528     3.75     858.1488      54.7924      144.347        10     1.075     0.786  68.67   0
       688    805.8547   1013.8325 307.5692366  +6.2845125      1155.48     1722.952     1317.014     77.79749     155.4714     310.7883      1.590     4.83     855.7439      54.7924     162.0923        13     1.231     0.740  32.19   0
       689    261.5774   1012.1590 307.7952661  +6.2670547      1037.72     1739.511      1778.42     77.55012     155.2859     310.6337      1.870     4.87     856.7824      54.7924     148.0316        13     1.380     0.914  33.95   0
       690    905.7668   1008.2087 307.5279410  +6.2901553     7217.507      12917.4     13770.82     77.42613     155.2859     310.6956      1.881     4.39     854.1635      54.7924     792.8177        42     1.674     1.250  56.70   0
       691   1001.1389   1003.9012 307.4884859  +6.2951008     3833.132     7418.472     8312.253      77.6739     155.4096     310.9738      2.059     4.91      849.267      54.7924     389.8456        37     1.619     1.316  47.91   0
       692    879.3851   1004.4324 307.5390205  +6.2908379     10834.17     19483.53     21075.23     77.55012     155.2241     310.7574      1.923     4.40     854.0926      54.7924     1186.989        50     1.699     1.301  44.06   0
       693    592.0101   1004.7082 307.6583275  +6.2811606     1295.959     2098.118     2347.417      77.6739     155.1002     310.6028      1.725     4.18     856.4482      54.7924     176.0647        15     1.141     0.969  64.55   0
       694    523.7402   1003.6114 307.6867089  +6.2793375     3967.888     6854.005      7797.32     77.30196     155.3478     310.5719      1.951     4.28     857.7677      54.7924     534.2383        37     1.700     1.181  27.97   0
       695    632.9224   1002.7053 307.6414082  +6.2833507     1373.676     2215.445     2511.694      77.6739     155.6567      310.912      1.827     5.84     856.0034      54.7924     164.3242        17     1.465     0.880  38.59   0
       696     58.4751   1002.2368 307.8799195  +6.2643541     758.4167      1280.16     1476.714     77.79749     155.5332     310.8811      1.782     4.69     854.2941      54.7924      105.001         8     1.378     0.452  41.59   0
       697    476.6614   1000.0242 307.7063753  +6.2792482     2252.418     3451.841     3125.528     77.55012     155.4096     310.7574      1.619     4.05     857.6927      54.7924     294.3636        20     1.365     0.918  42.64   0
       698    911.1508    991.9499 307.5262475  +6.2970470     37741.56      67601.8     72730.87     77.92088     155.3478     310.7883      1.925     4.34     853.4573      54.7924     4325.422        71     1.824     1.305  50.08   0
       699    218.4654    990.6126 307.8138878  +6.2745087      1643.64     2416.797     2763.256     77.42613     155.2859     310.7574      1.745     4.02     855.1107      54.7924     228.6934        17     1.282     0.827  58.02   0
       700    106.4869    989.2828 307.8604223  +6.2713102     746.6446     1102.279     412.3136      77.6739     155.6567      310.912      1.527     4.79     854.4852      54.7924     100.5844         9     1.004     0.763  43.20   0
       701    617.5566    988.4568 307.6482642  +6.2887215     813.3422     1241.644     1061.396     77.79749     155.4096      310.912      1.625     5.26     855.9516      54.7924     115.6774        11     1.301     0.602  43.02   0
       702    809.1959    985.7358 307.5687867  +6.2962239     2134.204     3720.681     3609.245     77.17757     155.2241     310.6337      1.777     4.46     854.9297      54.7924     264.1915        26     1.489     1.078  46.05   0
       703    757.3376    983.6479 307.5903881  +6.2953610     6148.065     10383.49     11388.36     77.79749     155.4096      310.912      1.833     4.00      855.438      54.7924     798.1332        41     1.658     1.193  53.31   0
