#   1 NUMBER                 Running object number                                     
#   2 X_IMAGE                Object position along x                                    [pixel]
#   3 Y_IMAGE                Object position along y                                    [pixel]
#   4 ALPHA_J2000            Right ascension of barycenter (J2000)                      [deg]
#   5 DELTA_J2000            Declination of barycenter (J2000)                          [deg]
#   6 FLUX_APER              Flux vector within fixed circular aperture(s)              [count]
#   9 FLUXERR_APER           RMS error vector for aperture flux(es)                     [count]
#  12 FLUX_RADIUS            Fraction-of-light radii                                    [pixel]
#  13 FWHM_IMAGE             FWHM assuming a gaussian core                              [pixel]
#  14 BACKGROUND             Background at centroid position                            [count]
#  15 THRESHOLD              Detection threshold above background                       [count]
#  16 FLUX_MAX               Peak flux above background                                 [count]
#  17 ISOAREA_IMAGE          Isophotal area above Analysis threshold                    [pixel**2]
#  18 A_IMAGE                Profile RMS along major axis                               [pixel]
#  19 B_IMAGE                Profile RMS along minor axis                               [pixel]
#  20 THETA_IMAGE            Position angle (CCW/x)                                     [deg]
#  21 FLAGS                  Extraction flags                                          
         1      3.2385    124.8413 307.9360849  +6.6320705     713304.3      1443548      1534003     79.72298     151.4376     269.4163      2.084     8.03     893.5314     56.23785     62404.21       345     2.671     1.625 -71.43  28
         2    644.7844     22.1188 307.6729639  +6.6960465     7596.428     13681.56     14970.52     79.59594      159.319     318.9237      1.907     5.53     866.5422     56.23785     1045.347        41     1.871     0.973 -29.89   0
         3    253.5433     23.3808 307.8355214  +6.6823707     5466.833     10106.18     11085.82     79.46869     159.5094     318.8602      2.015     5.42     884.3222     56.23785     694.7637        43     2.135     1.014 -30.85   0
         4    414.6886     22.1013 307.7685939  +6.6883234     6885.905     12422.39     12942.92     79.97648     160.0162     319.0506      1.891     5.37     872.5779     56.23785     871.4446        38     1.824     0.998 -30.66   0
         5    676.8021     19.7376 307.6597375  +6.6981031     12589.88     25805.63     32697.76     79.34123     159.3825      318.765      2.449     8.53      866.533     56.23785     1670.064        65     2.787     0.995 -35.22   0
         6     61.0122     15.3171 307.9158084  +6.6792040     2650.993     4851.567     5095.447     79.59594      159.319     318.8919      1.965     5.47     884.4223     56.23785     351.8477        27     1.813     0.888 -28.44   0
         7    942.7094     15.2145 307.5493732  +6.7088766     601.1785     1464.866     1902.495     79.72299     159.3825     318.8919      2.280     5.54     859.1115     56.23785     91.85864         8     2.067     0.419 -34.84   0
         8    151.7696     12.5680 307.8781851  +6.6834006     4432.632       7962.6     8550.783     79.46869      159.319     318.7967      1.919     5.21     883.6682     56.23785     553.1419        34     1.799     1.012 -33.81   0
         9    778.7240     11.2147 307.6176652  +6.7050364     1113.923     1855.743     1563.072     79.46869      159.319     318.8919      1.886     6.22     863.7609     56.23785     147.4855        15     1.760     0.618 -33.37  16
        10    885.9365      8.9949 307.5731799  +6.7095428     1631.172     2815.921      3310.64     79.34123     159.3825     318.8602      1.919     5.64     860.9356     56.23785     227.4229        23     1.808     0.831 -24.04  16
        11    222.9430      9.0196 307.8487270  +6.6872641      972.169     1663.626     1298.171     79.59594     159.5094     318.8602      1.728     6.03     883.9861     56.23785     137.7233        13     1.484     0.690 -35.42  16
        12    631.8361      8.1567 307.6788184  +6.7013721     1003.639     1660.111     1721.512     79.72298     159.5094     318.0339      1.619     5.45     866.0198     56.23785     169.6032        11     1.401     0.599 -34.25  16
        13    738.5024      6.3899 307.6345455  +6.7056788     1337.016     2169.682     2015.418     79.72299     159.1919     306.1985      1.741     6.85     866.2061     56.23785     180.0543        16     1.834     0.717 -30.41  16
        14    971.5040      6.1543 307.5377112  +6.7135776     689.6791     1314.381     1545.813     79.97648     159.5094     304.2754      2.244     5.61     856.1293     56.23785     103.7338         8     1.400     0.633 -25.73  16
        15    793.9653      1.3158 307.6116653  +6.7096310     1137.622     1328.473     1175.852     69.26166     126.3739     239.6762      1.152     3.76     862.3219     56.23785     262.4226        10     1.274     0.447  -6.16  24
        16    925.1854    989.5294 307.5237709  +6.3063166       1655.8     3384.086     3592.658     79.46869     159.5094     318.9554      2.145     5.20     895.0521     56.23785     213.1528        23     1.605     0.955 -22.60   0
        17   1007.4030   1022.6503 307.4885094  +6.2953998     3672.398     6514.705     7049.899     78.70086     140.9137     256.1287      1.892     5.26     892.9601     56.23785     419.9166        30     1.837     0.990 -14.31  24
        18    885.8833   1022.8879 307.5389678  +6.2912393     9570.881     15318.01     16490.27     77.66528     138.3771     252.7477      1.712     5.46     895.8575     56.23785     1179.857        37     1.845     0.951 -12.79  24
        19    599.1852   1023.1976 307.6580188  +6.2815077     1051.711     1429.845     1735.071     74.87875     133.6143      247.651      1.473     5.06     901.5681     56.23785     169.0707        11     1.263     0.574 -26.88  24
        20    544.5472   1023.8343 307.6806871  +6.2794116     758.9432     1082.674     1523.934     67.18482     124.0297     237.1718      1.263     3.93     903.1615     56.23785     226.0869         7     1.189     0.371   0.83  24
        21    530.1321   1022.3353 307.6867241  +6.2795462      3355.46     6117.945     7385.638     79.97648     145.0893     261.2538      2.099     6.39     903.2014     56.23785     397.0665        35     2.081     1.078 -13.46  24
        22    634.8885    991.0058 307.6442807  +6.2959864     552.3401     780.9689     420.6072     79.46869     159.2554     318.7967      1.429     5.53        900.6     56.23785     78.49744         8     1.114     0.773  27.89   0
        23    646.0634    985.3674 307.6398306  +6.2986873     3910.856     7057.149     7313.841     79.72298     159.6363     319.0189      1.873     5.55      900.305     56.23785     536.2452        33     1.788     1.021 -35.07   0
        24    785.0085    985.7774 307.5821133  +6.3031740     1097.132     1988.355     1872.317     79.59594     159.3825     318.8602      1.953     6.19     896.8619     56.23785     148.3892        15     1.528     0.705 -38.27   0
        25    258.2664    985.3947 307.8008749  +6.2856483     3667.106     6593.501     7636.658     79.46869     159.2554     318.8602      1.968     5.30     903.8196     56.23785     501.7714        33     1.858     0.966 -31.43   0
        26    468.4472    983.6570 307.7136505  +6.2934322     900.4045     1550.411     1839.873     79.97648     159.5729     319.1775      1.897     6.51      903.236     56.23785     137.7501        13     1.678     0.708 -37.39   0
        27     27.0508    983.0082 307.8969712  +6.2788419     1838.165     3272.399     3826.706     79.46869      159.446     318.7332      1.894     5.72     903.9396     56.23785      227.442        20     1.701     0.754 -32.94   0
        28    879.6199    981.1273 307.5429779  +6.3082591     642.7712     1135.714     1212.201     79.59594     159.5094     319.0189      2.048     4.86      895.276     56.23785     107.0862         5     1.320     0.506 -45.79   2
        29    293.8538    979.0692 307.7863111  +6.2894555     705.9514     1196.979     1755.906     79.84984     159.5094     318.9554      1.972     5.35     903.9513     56.23785     112.2416        10     1.410     0.574 -32.91   0
        30    970.5845    979.2458 307.5052631  +6.3120771     703.9584     1259.745     1186.804     79.46869     159.3825     318.7967      1.956     5.40     892.6171     56.23785     113.1953         7     1.277     0.645  11.01   0
        31    570.8844    977.8031 307.6713078  +6.2992864     1420.467     2438.169     2720.481     79.34123     159.1919      318.765      1.847     6.63     901.6799     56.23785     184.6642        18     1.758     0.727 -30.47   0
        32   1002.2196    977.5791 307.4921809  +6.3138219     719.4465     1356.375     1892.852     79.72299     159.5094     318.9554      2.560     4.54     891.0755     56.23785     114.3077         8     1.177     0.596 -17.07   0
        33    609.9692    974.1995 307.6551980  +6.3020844     1003.339     1657.581     1440.558     79.34123     159.3825     318.8602      1.738     6.02     901.0311     56.23785     177.5189        15     1.630     0.685 -36.48   0
        34     60.2310    974.2520 307.8834907  +6.2835733     652.0659     1087.725      1425.01     79.84984     159.6997     318.9872      1.652     5.25     903.8323     56.23785      125.979         7     1.705     0.456 -39.45   0
        35    289.8970    971.6013 307.7882077  +6.2924033     1290.086     2306.522     2300.795     79.46869     159.2554     318.7015      1.825     6.93     903.9524     56.23785     167.9794        18     1.603     0.841 -36.75   0
        36    756.3643    968.3528 307.5945979  +6.3094035     671.6606      1191.54     1027.279     79.59594     159.5094     318.9872      1.693     5.31     897.5241     56.23785     116.9859         9     1.395     0.571 -33.72   0
        37    894.3385    964.6342 307.5374216  +6.3155560      5579.13     10637.88     11182.52     79.84984     159.6363     319.0189      1.990     5.16     894.8104     56.23785     713.5313        38     1.864     1.065 -29.58   0
        38    331.8568    960.0518 307.7711745  +6.2985797     8049.132     14667.29     15782.57     79.97648     159.5729     319.0506      1.941     5.64     904.0024     56.23785     1058.942        46     1.921     1.070 -33.49   0
        39    598.3851    962.0148 307.6604211  +6.3067228     480.8924     916.0311      439.743     79.72298     159.2554     318.9872      1.833     4.74     901.1248     56.23785     108.4104         5     1.082     0.590 -14.36   0
        40    430.3901    961.5916 307.7302028  +6.3012570     1765.923     3131.742     3101.089     79.46869     159.3825     318.9554      1.760     5.84     903.7055     56.23785     256.1925        19     1.632     0.779 -25.75   0
        41    251.8196    959.0161 307.8044476  +6.2963139     5893.822     10693.99     11541.15     79.72299      159.319     318.9554      1.893     5.92     903.7932     56.23785     812.9688        36     1.853     0.946 -32.37   0
        42    579.9444    953.5555 307.6683658  +6.3095941     981.2357     1944.988     1679.996     79.97648     159.5729     319.0506      1.917     7.00     901.2244     56.23785     133.5256        16     1.714     0.802 -32.90   0
        43    764.9439    953.1135 307.5915495  +6.3159782     541.1611     976.8059      1075.84     79.97648     159.5729     319.1775      1.873     4.75     896.9282     56.23785     87.34631         7     1.450     0.441 -32.00   0
        44    910.2520    949.6314 307.5313187  +6.3222781     771.8444     1718.621     2002.991     79.84984     159.6997     318.9872      2.334     6.63     894.1218     56.23785     126.5317        12     1.738     0.709 -26.31   0
        45    866.3782    948.8080 307.5495679  +6.3211501      541.685     1149.881      1122.43     79.59594     159.3825     318.8285      1.793     3.98     895.2241     56.23785     90.22272         6     1.213     0.374 -28.89   0
        46    977.9697    945.5170 307.5033330  +6.3262396     563.6997     1127.764     1547.535     79.97648     159.3825     318.9554      2.267     4.64     890.8768     56.23785     97.65808         8     1.627     0.376 -27.91   0
        47    746.4360    942.5950 307.5995914  +6.3196979     1382.168     2473.379     3231.419     79.08571      159.319     318.8602      2.083     5.72     897.2662     56.23785       193.95        18     1.637     0.759 -38.99   0
        48    570.6787    942.7022 307.6725812  +6.3137609      620.726      929.104     478.5113     79.72299     159.8264     319.0823      1.598     5.15     901.1335     56.23785      129.356         7     1.686     0.444 -38.19   0
        49    978.2081    938.3954 307.5034740  +6.3291858     938.0062     1703.233     2420.286     79.34123      159.319     318.8919      2.011     6.56     890.5368     56.23785     115.9034        15     1.684     0.718 -22.24   0
        50    622.4648    938.8201 307.6512055  +6.3170999     487.1495     843.6701      960.413     79.59594     159.5729     318.8919      1.725     4.75     900.5001     56.23785     78.46423         6     1.359     0.471 -24.45   0
        51    610.8729    938.9427 307.6560156  +6.3166605     651.8556     1151.578     743.6422     79.97648     159.5729     319.0189      1.767     3.88     900.8351     56.23785      104.401         6     1.468     0.293 -30.54   0
        52    531.7351    938.4208 307.6888995  +6.3142202     1065.979     1761.881     2282.016     79.59594     159.5729     318.9237      1.993     5.63     901.4471     56.23785     137.9637        12     1.392     0.643 -29.54   0
        53    664.8994    936.0873 307.6336745  +6.3196503      2206.57      3825.44     4101.752     79.97648     160.0162      319.114      1.830     5.41     899.1448     56.23785     292.1523        22     1.625     0.825 -33.37   0
        54    955.9564    933.0000 307.5128976  +6.3306680     485.9225     1074.973     1137.635     79.21357     159.1919     318.6379      1.646     4.94     891.5511     56.23785     88.98389         5     1.613     0.428  39.39   2
        55     61.5168    932.2578 307.8843852  +6.3009414     2619.126     4619.723     5137.211     79.97648     159.5729      319.114      1.873     6.19     903.1331     56.23785     319.5112        24     1.898     0.798 -32.17   0
        56    826.2849    932.1775 307.5667808  +6.3266697     793.0176     1398.302     1466.569     79.84984      159.319     318.9872      1.799     6.67     895.3995     56.23785     120.7346        11     1.677     0.744 -12.85   0
        57    205.4653    930.9481 307.8246509  +6.3063328     1827.337     3324.952     3368.498     79.97648     159.5094     319.0189      1.918     5.41     903.6329     56.23785     254.5406        20     1.758     0.820 -30.65   0
        58     79.3210    931.3389 307.8770228  +6.3019209     1773.555     3030.772     3176.588     80.10293     159.6363     319.0506      1.902     5.29     903.2642     56.23785     261.6945        20     1.705     0.749 -26.52   0
        59    659.5193    925.2687 307.6362748  +6.3239333     6018.912     10333.17     11150.83     80.22917     159.8264     319.0823      1.874     5.20      899.075     56.23785     857.6244        34     1.819     0.924 -30.57   0
        60    342.0247    927.9753 307.7680401  +6.3121551     460.5673     675.1111     1446.549     79.46869     159.3825     318.9872      1.612     4.46     904.0165     56.23785     89.33246         6     1.267     0.447 -35.64   2
        61    345.3073    926.3445 307.7667322  +6.3129383     559.5801     950.3204     1273.762     79.84984     159.5729     319.2092      1.171     3.95     904.0176     56.23785     107.3854         5     0.963     0.464 -51.67   3
        62    239.4277    927.4940 307.8106641  +6.3089014     890.4694     1298.568     1191.165     80.10293      159.319     318.9554      1.576     5.11     903.7211     56.23785     142.9344        10     1.382     0.534 -38.82   0
        63    796.6644    926.3489 307.5792796  +6.3280828     705.5389     1169.675     1164.733     79.97648     159.5094     319.0823      1.797     5.73     895.6087     56.23785     131.2429        10     1.381     0.814 -44.81   0
        64     19.5146    924.0734 307.9021061  +6.3029011     1036.969     1889.778      1840.82     80.10293     159.8897     319.0506      1.915     6.07     902.6906     56.23785     143.4601        14     1.552     0.668 -58.51   0
        65     32.8718    922.2183 307.8966223  +6.3041170     948.4051     1637.018     2038.148     79.46869     159.5094     318.9872      1.628     6.08     902.7886     56.23785     134.0169        12     1.694     0.614 -45.74   0
        66    897.1691    921.5270 307.5377004  +6.3334357     2283.849     4217.013     4057.926     79.84984     159.5729     319.0506      1.919     6.04     893.8289     56.23785     305.9564        24     1.877     0.832 -26.49   0
        67    342.5563    918.3042 307.7681474  +6.3161629     14047.83     24443.69     26193.86     79.97648     159.5094     319.1775      1.865     5.69     904.0165     56.23785     1844.066        48     1.877     1.002 -30.94   0
        68     77.2993    919.1921 307.8782755  +6.3068639     1173.992      2113.85     2239.981     79.72299     159.1919     318.8602      1.885     6.84     903.1075     56.23785     177.4222        17     1.892     0.693 -29.05   0
        69    213.4710    917.7205 307.8217755  +6.3120596     1017.152     1605.703     1908.824     80.22917     159.8264     319.0189      1.735     6.85     903.6299     56.23785     157.5046        18     2.012     0.653 -35.84   0
        70    394.6703    917.1984 307.7465420  +6.3183714     574.3672     716.7751     654.5005     79.46869     159.1283     318.8602      1.230     4.15     903.7321     56.23785     92.92987         6     1.240     0.396 -59.19   0
        71    671.6151    910.5149 307.6317501  +6.3304258     533.8646     1222.344     1329.446     79.59594      159.319     318.9554      1.945     4.73     898.2778     56.23785     90.16223         6     1.279     0.497  -2.56   0
        72    420.0571    909.3218 307.7362658  +6.3224743     909.9025     1609.098      1636.02     79.97648     159.5729     319.0189      2.005     6.18     903.2859     56.23785     132.3687        13     1.614     0.665 -34.40   0
        73    106.1041    908.8971 307.8666635  +6.3120822     1550.684      2578.01     2677.359     79.97648     160.1427     318.8919      1.665     5.54     903.1795     56.23785     200.8021        21     1.666     0.877 -27.32   0
        74    501.0355    905.2735 307.7027719  +6.3268649     575.7752     859.7344      817.076     79.84984     159.5729     319.0189      1.642     4.35     901.4548     56.23785     84.48755         7     1.168     0.461 -57.48   0
        75    674.1740    905.1073 307.6308702  +6.3327426     715.3057     1513.054     2078.783     80.10293      159.319     318.8919      2.205     5.07     898.0515     56.23785     109.3691         9     1.343     0.542 -29.31   0
        76    887.8042    903.0724 307.5422126  +6.3407362     1655.257     3018.204     3061.458     79.59594     159.1283     318.8919      1.825     5.72     893.5643     56.23785     233.9293        20     1.682     0.758 -32.80   0
        77    858.2898    902.7570 307.5544815  +6.3398789     1801.069     3236.882     3293.984     79.97648      159.446     319.0823      1.884     5.39     894.3554     56.23785     235.6768        22     1.634     0.864 -29.00   0
        78    821.7314    902.2498 307.5696824  +6.3388646     2592.483     4613.738     4839.487     79.84984     159.5094     319.0506      1.905     5.09     894.9908     56.23785     375.8274        28     1.717     0.995 -35.55   0
        79     89.3656    902.5290 307.8738313  +6.3141451     2081.951     3371.793      3589.06     79.84984     159.5094     319.0506      1.800     5.95     902.9957     56.23785     295.4319        20     1.636     0.813 -25.88   0
        80    452.8951    900.2126 307.7229366  +6.3273358     568.8879     894.9653     1248.244     79.72298      159.319     318.8919      2.371     6.00     902.3469     56.23785     113.3066         9     1.953     0.518 -31.52   0
        81    557.6663    893.5654 307.6796487  +6.3335964     291893.8     503418.5       538495     79.84984     159.6363      319.114      1.869     5.66     900.1417     56.23785     39213.48       178     2.008     1.251 -31.17   0
        82    645.3505    896.7595 307.6431235  +6.3352202     1043.199     1803.862      1799.51     80.10293     159.5729     318.9872      1.828     6.60     898.6265     56.23785     137.1569        15     1.645     0.743 -29.16   0
        83    401.9666    896.1233 307.7442263  +6.3273115     6648.471     11732.47     11987.65     79.84984     159.5729     319.0189      1.816     5.34     903.2135     56.23785     884.9661        34     1.778     0.939 -31.21   0
        84    345.1208    894.5153 307.7678894  +6.3260635     10905.02     19314.77     21064.96     79.84983     159.8897     319.1458      1.905     5.43     904.0133     56.23785      1480.38        43     1.854     0.992 -30.25   0
        85    663.4456    890.9099 307.6358060  +6.3382403      3059.56     5387.121     6255.699     79.97648      159.446     319.1775      1.916     5.77     897.9327     56.23785     424.9971        27     1.716     0.902 -28.89   0
        86    895.8228    889.8234 307.5393293  +6.3464707      4434.56     7822.817     8730.076     79.46869      159.446     319.0189      1.886     5.18     892.9714     56.23785     570.8606        33     1.791     0.979 -20.63   0
        87    734.9977    887.7815 307.6061942  +6.3419291     604.8923     890.3474     937.6978     79.59594     159.1283     318.7967      1.440     4.61     896.6398     56.23785     99.60126         7     1.031     0.586 -17.29   0
        88    638.4384    884.8331 307.6463977  +6.3399089     2936.049     5214.532     5720.009     79.72299     159.3825     318.8285      1.899     5.68     898.4168     56.23785     419.1016        27     1.752     0.867 -29.31   0
        89    826.7236    884.3087 307.5682148  +6.3464337     1237.433     2223.394     2250.281     79.84984     159.8264     319.0506      1.859     5.82     894.5893     56.23785     211.4561        14     1.650     0.577 -25.50   0
        90    629.5341    883.6365 307.6501364  +6.3401040     1036.695      1691.16     1994.227     79.84984     159.5729      319.114      1.874     5.57     898.5958     56.23785     144.7555        10     1.263     0.692 -21.02   3
        91    631.5879    879.4390 307.6494254  +6.3419046     1942.457     3366.904     4279.094     79.46869     159.3825     318.8285      1.864     6.97     898.3688     56.23785     283.4156        21     1.983     0.718 -37.91   2
        92    954.4639    882.5904 307.5152173  +6.3514159     745.2252     1285.145     1331.475     79.46869     159.3825     318.8602      2.002     5.03     890.6962     56.23785     101.8926         9     1.369     0.523 -45.10   0
        93    914.8395    877.5744 307.5318441  +6.3521604     2610.016     4904.378     4728.151     79.59594     159.3825     318.8285      1.939     7.20     892.1904     56.23785     354.0869        26     1.737     0.909 -25.33   0
        94    325.5547    878.0639 307.7765735  +6.3321926     792.0708     1393.831     1229.079     79.97648     159.5094     319.0823      1.657     6.14     904.0487     56.23785     134.8668        10     1.641     0.646 -32.99   0
        95    373.0222    873.4861 307.7570149  +6.3356776     2266.728     3968.511     3944.911     79.97648     159.3825     318.9237      1.837     6.21     903.4637     56.23785     351.9511        24     1.770     0.783 -28.52   0
        96    509.3597    863.2075 307.7007395  +6.3444994     2699.501     4520.428     4634.793     79.34123      159.319     318.7332      1.783     5.13       900.36     56.23785     383.4797        25     1.768     0.803 -28.86   0
        97    854.2280    862.2761 307.5575349  +6.3564443     935.1227     1507.288     1794.839     79.84984     159.5729     319.0189      1.742     5.13     893.2325     56.23785     145.1885        13     1.388     0.696 -25.33   0
        98    575.7820    861.0642 307.6732250  +6.3476133     647.2477     1230.041     1231.491     79.59594     159.5729     318.8602      2.728     7.43     898.9433     56.23785     86.44147        11     2.334     0.663  -2.60   0
        99    556.1693    859.3262 307.6814296  +6.3476721     5238.454     9391.894     10390.97     79.84984     159.5729     319.0506      1.894     5.36     899.2693     56.23785     724.6979        32     1.810     0.887 -26.65   2
       100    562.9396    859.0621 307.6786266  +6.3480083     1029.103     2114.326     3315.507     79.97648     159.5729     319.0823      2.889     7.40     899.1253     56.23785      146.935        17     2.164     0.709 -38.27   2
       101    267.5942    859.5302 307.8012742  +6.3378885     610.9554     1119.616     1038.604     79.46869     159.1919     318.8919      2.109     4.89     903.9326     56.23785     94.06134         9     1.810     0.374 -33.34   0
       102    473.8087    858.3536 307.7156692  +6.3453079     1325.815     2402.713      2828.72     79.46869      159.446     318.7015      2.003     6.96     900.8715     56.23785     181.2048        18     1.716     0.791 -29.92   0
       103    891.6903    857.7115 307.5421292  +6.3595810     1199.065     2283.459     2034.329     79.97648     160.0795     319.1458      2.011     6.67     892.1548     56.23785     182.8098        17     1.656     0.753 -25.32   0
       104    115.6622    857.3376 307.8644472  +6.3336754     1291.934     2255.074       2413.4     79.97648     159.5729     319.0823      1.878     5.86     902.6554     56.23785     167.5739        16     1.515     0.756 -29.57   0
       105    692.1887    855.7654 307.6250565  +6.3537034     514.3182     841.7158      1068.81     79.46869     159.3825     318.8602      1.789     4.33     896.5337     56.23785     79.16626         5     0.869     0.616 -36.93   0
       106    526.8267    853.2471 307.6938223  +6.3491951     16843.29     29305.31     30854.44     79.59594     159.6363     318.9554      1.845     5.65     899.6272     56.23785     2362.594        50     1.898     0.965 -30.26   0
       107    940.4728    851.5839 307.5220742  +6.3637406     3098.452     5587.165     6277.931     79.46869      159.446     318.9554      1.984     5.25     890.5677     56.23785     397.1122        31     1.805     0.962 -26.42   0
       108    172.9918    852.9509 307.8407870  +6.3374171     574.5499     782.1284     473.6346     79.46869     159.3825     318.7332      1.726     5.01     903.2287     56.23785     97.28009         8     1.614     0.440 -35.28   0
       109    413.9026    848.3491 307.7408889  +6.3474225      515.931     785.5202     1094.225     79.84984     159.5094     319.2409      1.489     3.37     901.5409     56.23785     95.60614         5     0.805     0.410 -20.60   0
       110     37.4055    843.4335 307.8974203  +6.3367725     1395.146     2260.791     2561.528     79.34123     159.3825     318.8285      1.864     6.15     902.2083     56.23785     178.8041        16     1.585     0.725 -34.18   0
       111    319.5575    841.9800 307.7802887  +6.3468776     2984.322     4978.875     5481.767     79.46869      159.446     318.8919      1.790     5.67     903.5651     56.23785     402.7993        24     1.650     0.837 -33.80   0
       112     19.3187    840.0168 307.9050480  +6.3375718     1759.751     3071.791      3502.59     79.59594     159.2554     318.9237      1.917     5.68     902.1666     56.23785     251.3936        24     1.775     0.895 -33.85   0
       113    784.9507    837.8267 307.5871346  +6.3642123      46895.5     82744.38     87881.56     79.59594     159.5729     318.9872      1.849     5.28     894.4011     56.23785     6768.145        78     1.910     1.116 -28.28   0
       114    723.6937    839.1576 307.6125326  +6.3616112     499.7888     722.3244     534.3806     80.10293     159.5094     319.1775      1.599     3.89     895.9448     56.23785     88.54346         6     1.233     0.352 -30.53   0
       115    428.2429    836.6102 307.7353309  +6.3527475     846.9425     1480.007     1054.412     79.46869     159.3825     318.7967      1.807     5.40     900.8972     56.23785     134.0514        10     1.533     0.536 -25.57   0
       116    242.1611    835.5430 307.8126515  +6.3469284     4606.292     8708.877     10626.37     79.97648     159.6363     319.0506      2.175     5.41     903.3405     56.23785     583.8606        42     1.821     1.184 -25.49   0
       117    713.2011    832.4752 307.6171166  +6.3640165     18188.91     32466.57      34996.3     79.21357      159.001     318.8919      1.878     5.60     895.8985     56.23785     2531.956        53     1.903     1.024 -30.49   3
       118    706.8915    828.9285 307.6198572  +6.3652683      75545.8     132325.9     141424.5     79.84984      159.763     319.0506      1.852     5.34     895.8851     56.23785      10928.4        89     1.933     1.116 -29.27   3
       119    910.1921    833.0460 307.5352767  +6.3703762     7168.865     12971.01     14457.64     79.46869      159.446     318.7332      1.921     5.14     890.8733     56.23785     900.6184        41     1.823     1.047 -26.81   0
       120    351.7680    829.7852 307.7673246  +6.3529922     18077.18     31639.77     33796.87     79.59594      159.319     318.9554      1.861     5.58     902.7028     56.23785       2463.2        51     1.889     1.012 -29.79   0
       121    400.9877    830.0405 307.7468736  +6.3545418     1168.279     2262.198     2561.779     79.34123     159.3825     318.8285      2.183     6.10     901.2707     56.23785     194.4446        18     1.860     0.728 -28.93   0
       122    413.6907    827.6107 307.7416800  +6.3559712     19465.45     33791.38     36070.05     79.72299     159.2554     318.8285      1.853     5.54     900.8153     56.23785      2631.63        53     1.889     1.006 -31.08   0
       123    241.6001    814.0585 307.8136142  +6.3557731     736702.9      1816166      2081156     79.21357     159.1919     318.7015      2.413    14.01     903.0065     56.23785     63345.01       591     2.659     2.052 -43.86   4
       124    950.5779    826.8895 307.5187099  +6.3742667     1645.521     3199.664     3245.092     79.97648     159.3825     318.9237      1.940     7.31     889.2052     56.23785     201.4327        24     1.724     0.970 -28.84   0
       125    907.1389    824.5095 307.5368329  +6.3737961     5624.717     10155.82     10900.14     79.97648     159.6997      319.114      1.932     5.66     890.6948     56.23785     732.0177        36     1.812     0.967 -30.12   0
       126    879.9860    825.1658 307.5480890  +6.3726169     679.3448     1084.425     500.7836     79.59594      159.319     318.9237      1.555     4.82     891.5912     56.23785     125.5057         8     1.538     0.428 -26.17   0
       127    647.7339    823.5172 307.6446111  +6.3655176     5636.259     9892.524     10865.01     80.22917     159.8264      319.114      1.911     5.33     896.2728     56.23785     724.0291        36     1.784     0.973 -29.41   0
       128    436.5706    821.3698 307.7323888  +6.3593150     1571.835     2617.674     2158.288     79.46869      159.319     318.7967      1.809     4.56      900.226     56.23785     234.3828        22     1.654     0.915 -38.39   0
       129    387.3974    823.4944 307.7527401  +6.3567855     509.1878     717.2137      729.255     79.59594     159.2554      318.765      1.346     3.99      901.426     56.23785     106.2068         5     1.048     0.435 -14.98   0
       130    162.0094    820.5917 307.8464479  +6.3503970     554.0125     915.5338     378.8685     79.46869     159.3825     318.9237      1.702     5.21     902.6119     56.23785     110.7861         8     1.686     0.454 -46.37   0
       131    875.3647    815.5558 307.5503328  +6.3764272     558.8789     994.9186     675.2018     79.72299     159.5094     318.9237      1.519     4.05     891.5425     56.23785     94.92828         5     1.147     0.409 -37.91   0
       132    600.8983    815.6014 307.6643320  +6.3672125     836.9512     1617.802     2245.784     79.46869      159.319     318.7332      2.392     6.37     896.4861     56.23785     127.6838        13     1.608     0.710 -33.97   0
       133    416.5733    810.2543 307.7410712  +6.3632287     46565.31      81241.8     87219.97     79.59594     159.6997     318.8919      1.870     5.63      900.075     56.23785     6358.874        80     1.952     1.111 -31.66   0
       134    682.9487    813.5770 307.6303208  +6.3707993     2139.856     3820.815     3412.598     79.46869     159.5729     318.9237      1.769     5.08     895.7487     56.23785     279.2292        22     1.637     0.832 -26.46   0
       135    152.1501    814.3932 307.8507534  +6.3526220     787.5032     1667.324     1802.107     79.46869      159.319     318.6697      2.369     6.58     902.3872     56.23785     117.9938        13     1.696     0.717 -29.26   0
       136    127.1002    814.0850 307.8611675  +6.3519049     817.7407     1263.632     1408.382     79.97648     160.0795     319.1458      1.943     5.21     902.1227     56.23785     103.4128        10     1.448     0.530 -18.37   0
       137    959.0583    812.1950 307.5156830  +6.3806129     752.0005      1057.27     1407.458     79.34123      159.446     318.7967      1.454     4.62     888.4116     56.23785     111.8599         8     1.042     0.582 -61.13   0
       138    534.3626    809.3207 307.6921800  +6.3675706      6133.96     10601.78     11394.19     79.84984     159.6363     319.0506      1.858     5.94     897.7198     56.23785     842.9072        34     1.783     0.905 -28.47   0
       139    451.1919    807.9420 307.7267711  +6.3653460     3883.681     6676.192     7093.059     79.34123      159.446     318.7967      1.828     5.43     899.6313     56.23785     544.8362        27     1.716     0.841 -30.38   0
       140    779.5014    805.9668 307.5904744  +6.3771743     10170.84     17555.29     18435.51     79.97648      159.446     319.1775      1.845     5.27     893.3659     56.23785     1434.156        39     1.816     0.956 -29.39   0
       141      9.3093    802.0290 307.9104981  +6.3529059     961.2309     1447.535     1366.317     80.10293      159.319     318.9872      1.580     5.45     901.6385     56.23785     144.4608        12     1.484     0.564 -41.83  16
       142    447.8279    801.3199 307.7283928  +6.3679651     2155.675     3654.392     3897.177     79.84984     159.3825     319.0189      1.815     5.05     899.4349     56.23785     297.5182        22     1.647     0.826 -28.34   0
       143    801.1797    800.2720 307.5816624  +6.3802498     1142.933      2067.05     2355.956     79.59594      159.446     319.0189      2.135     6.04     892.1857     56.23785     141.6121        13     1.511     0.679 -34.39   0
       144    137.3994    797.8660 307.8574415  +6.3589432     9934.641     17524.07     19558.22     79.21357     159.1919     318.7967      1.881     5.33     901.9736     56.23785      1340.08        46     1.901     1.011 -27.07   3
       145    145.5181    798.1229 307.8540609  +6.3591108     2703.282     4798.982     4858.087     80.22917     159.8264     319.1775      1.865     5.26     902.0573     56.23785     341.9993        24     1.816     0.755 -26.74   3
       146    129.5354    795.2503 307.8607966  +6.3597573     2456.958     4651.266     6031.354     79.84984     159.5094     319.0823      2.211     5.60     901.8703     56.23785     341.4832        28     1.760     0.955 -35.47   0
       147    925.1185    794.5353 307.5303761  +6.3867639     5646.996     10065.75     11120.32     80.22917     159.6997     319.0506      1.883     5.18     889.0317     56.23785     739.8002        33     1.735     0.953 -29.77   0
       148    974.3651    794.3876 307.5099256  +6.3884714     1273.341     2358.144      3094.61     79.46869     159.3825     318.8919      2.437     6.03      887.512     56.23785     171.4888        17     1.547     0.834 -33.23   0
       149    680.6969    792.2979 307.6319758  +6.3795030     1478.527     2519.593     2672.174     79.97648     160.1427     318.8919      1.746     4.94     895.2726     56.23785     219.6207        17     1.584     0.713 -36.96   0
       150    567.3661    791.5195 307.6790748  +6.3760227     1962.434     3623.277     4034.541     79.84984     159.5729     319.0823      1.961     5.52      896.421     56.23785     283.0878        22     1.786     0.783 -29.87   0
       151    415.5485    790.7675 307.7421576  +6.3712338     1095.582     2012.326     2670.449     79.84984     159.6363     318.9872      2.222     6.25     899.5239     56.23785     123.8505        14     1.579     0.749 -19.60   0
       152    129.5723    788.7133 307.8610035  +6.3624554     1784.302     3286.933     3857.448     80.10293      159.319     318.9237      1.984     6.52     901.7939     56.23785     229.6208        21     1.697     0.807 -26.29   0
       153    979.6298    785.8304 307.5080273  +6.3921779     1507.978     2734.632     3036.847     79.46869      159.319     318.7967      1.761     5.02     887.2582     56.23785     206.9553        19     1.600     0.839 -35.31   0
       154    948.8906    786.1010 307.5207864  +6.3910387     2629.653     4718.846     4983.136     79.97648     160.0162     319.0189      1.970     4.74     888.1291     56.23785     363.5597        28     1.770     0.941 -26.40   0
       155    919.3242    786.7169 307.5330467  +6.3897959     2592.581      4558.65     5102.046     80.10293     159.8897     319.1458      1.846     6.61     889.1156     56.23785     336.8696        21     1.733     0.743 -30.31   0
       156    241.8408    786.4573 307.8144516  +6.3671683     555.8676     1827.368     5112.366     79.97648     159.5729     319.0823      7.299     8.09     902.2625     56.23785     76.25873        10     1.441     1.270 -23.50   1
       157    818.5402    784.4600 307.5749855  +6.3873546     811.2726     1409.093     1211.306     79.97649     159.5729     319.0823      1.799     6.47     891.7193     56.23785     116.6313        11     1.645     0.713 -37.36   0
       158    671.9504    785.4533 307.6358402  +6.3820336     1280.045     2209.216      2272.15     80.10293     159.5729     319.0823      1.869     5.77     895.2349     56.23785     169.1779        14     1.586     0.591 -32.13   0
       159    893.8727    782.1053 307.5437741  +6.3908471     570.7328     1230.523      1056.33     79.84984     159.6363     319.0506      1.867     4.94     890.0264     56.23785     95.59967         9     1.697     0.407 -20.83   0
       160    244.2478    780.8090 307.8136437  +6.3695795     1649.223     3293.459     5718.792     79.46869     159.3825     318.7015      3.822     6.27     902.0999     56.23785     240.3196        22     1.964     0.787 -34.14   0
       161    937.3127    776.3723 307.5259238  +6.3946653     950.4409     1885.315     2058.203     80.10293      159.319     318.9237      2.098     6.51     888.2842     56.23785     135.1256        14     1.546     0.770 -23.37   0
       162    910.7558    775.4745 307.5369851  +6.3941476     937.0058     1487.566     1359.319     79.84984     159.6363     319.0823      1.849     6.17     889.1987     56.23785     128.9323        13     1.481     0.819 -42.90   0
       163    159.2989    776.1807 307.8490832  +6.3686276     599.2775     1165.691     953.1766     79.97648      159.446     318.8285      1.816     5.46     901.8008     56.23785      99.8996         8     1.341     0.626 -46.45   0
       164    963.7811    774.0009 307.5150094  +6.3965287     2027.281     3810.124     4290.878     79.59594     159.1283      318.765      2.044     6.24     887.5555     56.23785     286.8873        27     1.857     1.096 -28.79   0
       165    264.4045    776.2034 307.8054283  +6.3721582     613.1432     1002.716     1170.868     79.34123     159.1283     318.8919      1.824     4.77     902.0714     56.23785     115.4985         6     1.124     0.574 -20.05   0
       166    683.1724    772.8704 307.6316046  +6.3876012     890.2529     1678.852     2213.904     79.72298     159.5094     318.9872      2.076     6.25      894.761     56.23785     143.4111        14     1.773     0.619 -27.76   0
       167   1005.5871    767.3389 307.4978687  +6.4006746     1322.512     2424.908     2572.238     79.46869     159.3825      318.765      1.889     5.84     886.4499     56.23785     178.9725        18     1.688     0.782 -35.82   0
       168    806.9570    765.5434 307.5804358  +6.3947712     928.1098     1853.702     1995.431     79.84984     159.5094     319.0823      2.000     6.62     891.5251     56.23785     135.1675        14     1.775     0.693 -33.40   0
       169    632.8475    766.6483 307.6527183  +6.3884807     592.1699     935.8678     618.3029     79.97648      159.446     319.0823      1.336     3.53     895.2192     56.23785       95.612         5     0.818     0.440  15.63   0
       170    893.3403    763.1165 307.5446362  +6.3986636     1157.605     2110.904     1968.342     80.10293     159.6363     319.0823      1.742     5.02      889.681     56.23785     170.9218        14     1.545     0.662 -28.89   0
       171    867.3989    758.4269 307.5555700  +6.3997305     811.6993     1452.095     1714.341     79.59594     159.2554     318.8285      1.846     5.88     890.6224     56.23785      116.901        11     1.569     0.621 -40.78   0
       172    849.9929    754.5470 307.5629310  +6.4007487     1312.764     2415.497     2503.866     79.46869     159.3825     318.7332      1.987     5.35     890.8189     56.23785     183.8693        15     1.628     0.697 -34.77   0
       173     49.0984    753.1620 307.8956359  +6.3744084     1964.888     3658.086     3736.263     79.97648      159.446     319.2726      1.885     6.04     901.4108     56.23785     269.5353        22     1.833     0.808 -33.14   0
       174    112.0042    750.7071 307.8695925  +6.3775426     639.5176     1199.025     1349.061     79.59594     159.2554      318.765      1.846     6.84     901.2715     56.23785     104.5089        11     1.905     0.688 -39.59   0
       175    567.3630    748.0922 307.6805464  +6.3939392     510.0988     925.6006     288.2195     80.10293     159.5094     319.0823      1.556     3.92      895.681     56.23785     109.0023         5     1.252     0.351 -43.56   0
       176    661.7118    741.8668 307.6415673  +6.3996727     5460.541     9319.935     9795.781     80.10293      159.763     319.0189      1.793     5.43      894.549     56.23785     758.2559        32     1.762     0.904 -28.91   0
       177    528.6891    742.4789 307.6968004  +6.3949568     460.2087      1056.28     1133.236     79.72299     159.8264     319.1458      2.070     4.41     896.0771     56.23785     93.68573         6     1.204     0.460 -44.95   0
       178    608.3602    741.2510 307.6637490  +6.3981373     1213.709     2181.415     2183.946     79.97648     159.5729     319.0506      1.810     6.00     895.2398     56.23785     165.1708        15     1.667     0.608 -26.40   0
       179    519.8361    741.3814 307.7005148  +6.3951123     630.3932     977.6643     1067.717     79.46869     159.3825     318.8285      1.658     4.37     896.2292     56.23785     124.3219         7     0.994     0.547 -50.77   0
       180    124.6921    737.5906 307.8647688  +6.3833816     3217.541     5511.107     5764.634     79.59594     159.1919     318.8285      1.868     5.12     901.1437     56.23785     435.6597        27     1.746     0.908 -29.72   0
       181    998.6013    737.1595 307.5017879  +6.4128924     2258.786     3930.557     3908.179     79.21357      159.319     318.7967      1.796     5.82     886.4532     56.23785     286.6481        23     1.651     0.858 -29.28   0
       182    635.5288    737.5364 307.6525896  +6.4005812     2026.198     3153.896     3525.447     79.97649     159.5729     319.0823      1.748     4.63     894.8385     56.23785     251.0765        20     1.522     0.786 -23.00   0
       183    778.5113    734.0309 307.5933161  +6.4068198     17610.28     30053.17     31659.42     80.10293     159.3825     318.9872      1.823     5.37     891.1185     56.23785     2565.829        46     1.872     0.941 -29.75   0
       184    908.6061    733.6971 307.5392878  +6.4113120     3102.076     5125.538     4760.301     79.72299     159.2554     318.8285      1.755     5.30      888.465     56.23785     418.3537        25     1.661     0.841 -31.09   0
       185    477.6459    734.0429 307.7182879  +6.3967229     1081.647     1992.638     2373.687     79.97648     159.5729     318.9872      1.880     6.36     896.8396     56.23785     168.9277        17     1.806     0.751 -29.34   0
       186    506.0818    733.8785 307.7064821  +6.3977458     784.0063     1268.479      1818.72     80.10293     159.8264     319.1775      1.935     5.92     896.3279     56.23785     125.2918        12     1.390     0.709 -31.76   0
       187    279.2380    733.7244 307.8007097  +6.3901825     533.8412     869.3702     958.5665     79.84984     159.6363     319.0823      1.954     5.42     900.0857     56.23785     79.53308         5     1.250     0.664 -18.76   0
       188    659.0863    726.8430 307.6431661  +6.4057830      6018.56     10703.94     10857.23     79.97648      159.446     319.0506      1.839     5.52     894.0604     56.23785     894.5444        33     1.851     0.875 -29.92   0
       189    252.0649    727.4572 307.8122090  +6.3918534     5381.134     9386.777     9870.024     80.10293     159.5094     319.0823      1.865     5.62     900.0312     56.23785     739.8202        32     1.753     0.932 -30.36   0
       190    641.5714    727.6757 307.6504132  +6.4048521     693.6614      821.774     856.0805     79.84984     159.6363     319.0823      1.536     4.28     894.4061     56.23785     114.4128         7     1.320     0.395 -11.51   0
       191    919.1265    719.2432 307.5354055  +6.4176272     1162.309      1966.49     2378.553     79.84984     159.6363     319.0823      1.917     5.58     887.8323     56.23785     177.3942        16     1.389     1.020 -33.05   0
       192    730.9124    715.2168 307.6137239  +6.4129874     3130.134     5896.764     5822.572     79.72298      159.319     318.9237      1.944     5.31      891.318     56.23785     421.9829        29     1.790     0.968 -32.26   0
       193    686.4263    715.3917 307.6321969  +6.4114242      813.917     1192.589     1425.146     79.59594     159.3825     318.8919      1.466     5.60     892.7799     56.23785     158.4191        11     1.594     0.554 -29.16   0
       194    997.1052    711.8461 307.5032629  +6.4232861     7472.397     13591.26     14239.76     79.84984     159.5094     319.1775      1.920     5.36     885.4089     56.23785     1012.215        37     1.850     1.000 -32.70   0
       195    935.5793    712.3174 307.5288047  +6.4210348     2175.308     3599.458     4108.324     79.72299     159.2554     318.9872      1.834     6.00     887.1511     56.23785     316.9214        21     1.595     0.804 -23.35   0
       196     15.8243    711.6126 307.9108701  +6.3904268     1601.872     3320.653     4150.245     79.59594     159.3825     318.9872      2.387     8.02     901.4427     56.23785     192.4338        26     2.122     0.884 -16.64   0
       197    535.6196    707.6267 307.6951021  +6.4095682     1657.782     2817.841     2293.058     79.59594     159.3825     318.9554      1.806     5.86      895.488     56.23785      243.269        20     1.685     0.756 -35.76   0
       198    433.7525    709.3906 307.7373555  +6.4054186     585.1997     863.6693     1147.935     79.46869      159.446     318.7015      1.569     3.51     896.8982     56.23785     102.5477         5     0.760     0.469 -13.13   0
       199     74.4787    706.4919 307.8866825  +6.3945183     22002.12     38593.12     41203.38     79.72299     159.8264      319.114      1.885     5.41      900.944     56.23785     2797.549        59     1.907     1.074 -29.70   0
       200    504.1957    705.0475 307.7082423  +6.4095771     1296.915     2156.764     2219.327     79.34123      159.319     318.7332      1.655     5.19     895.7925     56.23785     210.8228        16     1.629     0.713 -29.42   0
       201    925.6969    703.8649 307.5331950  +6.4241916     1037.782     1528.981     1283.771     79.97648     159.6997     319.0823      1.655     5.69     887.3417     56.23785     147.6572        12     1.298     0.702 -16.61   0
       202    544.8075    701.5231 307.6914924  +6.4123949      872.168     1631.114     2006.245     79.59594     159.0647     318.8602      1.987     6.28     895.3312     56.23785     112.4843        14     1.724     0.643 -33.35   0
       203    742.4506    697.1384 307.6095421  +6.4208326     3501.778     6176.815     6501.036     79.97648     159.5094     319.0823      1.868     5.35     890.9691     56.23785     501.0274        30     1.933     0.873 -29.75   0
       204    720.6176    698.8039 307.6185551  +6.4194139     2903.339      5008.25     5288.004     79.59594     159.1283     318.8919      1.790     5.80      891.361     56.23785     388.3625        24     1.780     0.778 -28.38   0
       205    573.9968    694.9293 307.6795909  +6.4160950     2776.744     4723.655     5163.638     79.46869     159.1919     318.8919      1.760     5.19       894.79     56.23785      435.881        28     1.713     0.889 -32.47   0
       206    410.0125    695.5180 307.7476869  +6.4103440     1197.804     1974.841     2026.157     79.59594     159.2554     318.8919      1.662     5.44      896.777     56.23785     190.2841        12     1.517     0.550 -30.19   0
       207   1015.4301    693.2264 307.4962784  +6.4315805     4152.287     7442.825     7407.208     79.46869     159.3825     318.8919      1.897     5.33     883.9304     56.23785     587.7052        32     1.769     0.968 -27.11  16
       208    318.3523    693.8694 307.7858161  +6.4079413     1154.925     1969.355     1804.348     79.97648     159.5094     319.0823      1.919     5.09     897.9253     56.23785     193.6086        16     1.617     0.680 -40.45   0
       209    234.3800    694.4295 307.8206765  +6.4048836     1500.614     2662.001     2522.707     79.46869     159.3825     318.9237      1.891     6.48     898.9473     56.23785     212.5854        20     1.692     0.811 -31.36   0
       210    980.7652    692.2061 307.5107128  +6.4308430     6834.148     12411.87     13354.61     79.21357      159.319     318.8285      1.873     5.39     885.1356     56.23785     988.3483        38     1.810     1.003 -28.10   0
       211    535.1844    692.6088 307.6957916  +6.4157495     430.7947     598.0791     636.6562     79.72299      159.319     318.9237      1.725     4.34     895.3242     56.23785     76.27081         5     1.132     0.474 -55.21   0
       212    701.0153    690.4694 307.6269796  +6.4221954     704.6367     1213.118     1349.696     79.46869      159.446     318.9554      1.750     5.10     891.5113     56.23785     128.1138         9     1.586     0.463 -18.34   0
       213     92.8535    688.3801 307.8796667  +6.4026100     684.8241     1045.881     1115.456     79.46869     159.5729     318.8602      1.631     5.02     900.5718     56.23785     91.97601         9     1.396     0.511 -36.07   0
       214    426.2664    686.3331 307.7412469  +6.4146797      2447.12     4436.142     4915.438     79.97648     159.5729     319.0823      1.944     5.51     896.2551     56.23785     350.4731        26     1.762     1.046 -36.07   0
       215    139.2269    685.4521 307.8605046  +6.4053814     20639.21     36509.04     38993.29     79.59594     159.6997     318.9872      1.890     5.52     899.6832     56.23785      2763.62        55     1.894     1.040 -31.32   0
       216    807.3262    686.1559 307.5829641  +6.4275367     971.2425     1812.194     1914.347     79.84984     159.6363     319.0823      1.997     6.35     890.3148     56.23785     152.3121        14     1.732     0.653 -24.27   0
       217    358.6421    680.2990 307.7695413  +6.4148954     626.7014     1168.682     1871.979     79.97648      159.446     319.2726      2.645     5.67     896.7606     56.23785     97.94708         8     1.442     0.629 -44.49   0
       218    975.6989    675.1525 307.5133925  +6.4377095     5835.405     11121.05     12420.16     79.97648      159.446     319.2409      2.042     5.23     884.7352     56.23785     701.7764        42     1.875     1.150 -20.48   0
       219    569.2146    670.3340 307.6824102  +6.4260817     41495.37     72255.71     76191.28     79.46869      159.446     318.9872      1.845     5.56      894.421     56.23785     5950.659        71     1.905     1.056 -31.12   0
       220     20.2878    674.1072 307.9102930  +6.4060503       1102.9     1639.229     1952.867     79.97648     160.0162     319.1458      1.587     5.17     901.3315     56.23785     151.8322        11     1.299     0.582 -24.57   0
       221    933.7552    672.3824 307.5309098  +6.4374500     565.9448     814.1818     252.6833     79.59594      159.446     318.7967      1.491     3.54     886.5084     56.23785     93.96564         5     0.790     0.458 -14.60   0
       222    212.7439    671.6541 307.8304372  +6.4135511     558.4027     1174.255     901.4013     80.10293     159.5729     319.0506      1.882     4.96     898.3188     56.23785     103.5972         8     1.671     0.417 -37.45   0
       223    529.0130    670.0331 307.6991198  +6.4248562     597.6412     823.3087     279.2267     79.46869      159.319     318.9554      1.380     3.67     894.9846     56.23785     105.6161         5     0.975     0.396 -26.71   0
       224    176.8819    666.7502 307.8454999  +6.4143660     2376.447     4258.667     4436.783     79.97648     159.5729     319.0823      1.801     5.37     898.5681     56.23785     337.6216        24     1.686     0.935 -27.33   0
       225     69.4644    661.1335 307.8903086  +6.4130617     1144.193     2017.659     1523.164     79.97648     159.5729     319.0823      1.873     6.85     900.4697     56.23785     165.9309        15     1.549     0.849 -21.84   0
       226    466.4959    654.1049 307.7256287  +6.4293277     54020.92     93761.15     99670.22     79.97648     160.2059     318.9237      1.867     5.40     894.7833     56.23785     7554.497        79     1.931     1.100 -30.62   0
       227      9.7701    655.6725 307.9152893  +6.4133005     1528.965     2823.399     3180.281     79.84984     159.5729     319.0189      2.094     7.07     901.3113     56.23785       204.55        22     1.961     0.870 -40.17  16
       228    141.1273    649.0688 307.8609525  +6.4204555     1327.689     2384.433     2019.469     80.10293     159.6997     319.0506      2.006     7.03      898.894     56.23785     171.3757        21     1.912     0.725 -35.58   0
       229    420.0662    646.9596 307.7451576  +6.4307153     742.2934      1019.03     742.2913     79.97648     159.5094     319.1458      1.457     4.45     894.8635     56.23785     112.7823         7     1.271     0.515 -50.88   0
       230    612.6265    645.7246 307.6652101  +6.4376915     707.4971     1260.317     1295.663     79.72299     159.5094     319.0189      1.742     4.96     892.3846     56.23785     115.7043         8     1.369     0.509 -31.34   0
       231    652.6918    651.0450 307.6483867  +6.4368405     629.0872     775.9341     740.4053     79.97648     159.5094     319.1775      1.424     4.72     891.4257     56.23785      130.667         7     1.429     0.443 -20.45   0
       232    320.9952    644.4879 307.7863945  +6.4284030     559.0191     800.5928     488.2319     79.46869     159.2554      318.765      1.653     5.32     896.2242     56.23785     81.16687         6     0.971     0.823 -82.10   0
       233    311.9276    643.4136 307.7901976  +6.4285411     1644.857     2945.312     3299.728     79.46869      159.319     318.8602      1.856     5.45     896.3735     56.23785      219.175        17     1.510     0.727 -28.45   0
       234    464.4674    642.0816 307.7268789  +6.4342200     783.0941     1476.498     2065.168     80.10293     159.8264      319.114      1.996     4.93     894.4181     56.23785     136.3323         9     1.317     0.522 -35.04   0
       235    738.5427    637.7406 307.6131734  +6.4452074     4704.134     7806.841      7739.72     80.10293     159.5094     319.0823      1.785     5.47     890.4961     56.23785      618.019        28     1.745     0.845 -28.83   0
       236    792.1558    632.9388 307.5910640  +6.4489845     11997.53     20801.98     21721.17     79.84984     159.5729     319.1775      1.814     5.42     889.5466     56.23785     1667.892        40     1.783     0.939 -30.34   0
       237    534.8754    632.8007 307.6979459  +6.4404139     1017.159     2025.532     2452.847     79.21357     158.9374     318.8602      1.988     7.03     893.4366     56.23785     131.7271        16     2.067     0.670 -37.17   0
       238   1009.4384    633.4440 307.5007830  +6.4560450     886.5051     1341.314     873.8236     79.72299     159.5094     318.8919      1.686     5.59     882.0458     56.23785     151.5021        10     1.565     0.563 -34.53   0
       239     37.1684    632.0601 307.9047128  +6.4239663     491.1599     943.9977     844.3957     79.72299     159.6363     319.0189      2.074     5.06     900.5571     56.23785     116.8776         6     1.667     0.434 -37.04   0
       240    616.0071    630.9044 307.6643074  +6.4439193     2471.601     4277.679     4373.102     79.72299     159.1919     318.8602      1.810     4.99     891.6904     56.23785     372.4962        25     1.712     0.853 -28.81   0
       241    933.2062    627.2985 307.5326591  +6.4560321     896.1007     1767.309      2178.33     79.72299     159.1919     318.8285      1.936     5.25     884.5694     56.23785     159.9724        10     1.581     0.492 -35.51   0
       242    374.4040    624.8987 307.7648737  +6.4382814     795.7058     1443.989     1599.012     79.72299     159.2554     318.7332      1.938     5.20     894.5955     56.23785       132.24        10     1.597     0.478 -40.64   0
       243    228.2523    624.9849 307.8255811  +6.4333270     1023.594      1839.25     2492.333     79.34123     159.5729      318.765      1.987     5.03       896.58     56.23785     155.7761        14     1.568     0.725 -31.64   0
       244    192.9111    625.0956 307.8402576  +6.4320908     627.5487     977.3069     1445.811     79.97648      159.953     319.0823      1.989     5.76     897.3854     56.23785     101.2164         8     1.403     0.666 -50.74   0
       245    868.3488    616.1880 307.5599776  +6.4584462     2362.677     4037.489     4505.586     79.34123      159.446     318.7967      1.778     5.65      886.519     56.23785     326.6572        24     1.840     0.714 -28.39   0
       246    827.0385    613.6804 307.5772237  +6.4580980     1907.807     3330.185     3327.079     79.84983     159.6363     319.0189      1.818     5.51     887.9929     56.23785     319.0361        20     1.753     0.701 -32.63   0
       247    163.8067    615.3321 307.8526790  +6.4351381     565.8681     865.2156     713.1805     79.46869      159.319     318.8602      1.721     4.07     897.9572     56.23785       92.297         6     1.382     0.342 -14.00   0
       248    797.8774    609.5931 307.5894760  +6.4588079     2259.175      3787.84     4060.324     79.59594     159.0647     318.8602      1.747     5.28     888.9551     56.23785     336.7089        19     1.713     0.688 -26.94   3
       249    807.4882    604.8530 307.5856436  +6.4610854     137588.7     235263.2     250915.1     79.97648      159.446     319.1775      1.848     5.40     888.4446     56.23785     19238.28       129     1.985     1.171 -30.20   2
       250    740.1187    609.2775 307.6134810  +6.4570032     672.4139     1096.321     1581.083     80.22917     159.8264     319.1775      2.283     6.05     890.2029     56.23785     90.84052        10     1.179     0.873 -51.74   0
       251    254.9832    608.5043 307.8150372  +6.4410263     6529.158     11652.07     11959.12     79.84984     159.3825     318.8919      1.852     5.43     895.9318     56.23785     862.5776        37     1.786     0.987 -29.87   0
       252    189.0701    603.0072 307.8426039  +6.4410741     48853.64     88085.81     95246.43     79.46869     159.1919     318.9554      1.908     5.36     897.0832     56.23785     6445.049        82     1.945     1.159 -31.22   0
       253    113.1294    599.2530 307.8742765  +6.4400631     5279.728     9323.468     9507.668     79.84984     159.5094     318.9872      1.876     5.24     898.5159     56.23785     664.0869        33     1.819     0.931 -31.02   0
       254    978.3176    596.7787 307.5149481  +6.4701321     1327.463      2336.27     2285.163     79.72299     159.2554     318.9554      1.886     5.79     881.9688     56.23785     200.0736        17     1.557     0.740 -32.68   0
       255    999.2670    595.7019 307.5062812  +6.4712766     706.8879     1360.826     832.9166     79.97648     159.6997     319.0506      1.959     4.31     881.2374     56.23785     111.4564         7     1.088     0.486 -30.28   0
       256    227.2073    594.6982 307.8270443  +6.4457867     612.1481      1182.21     1543.325     79.72299     159.1919     318.8602      2.074     6.31     895.8485     56.23785     127.8826         8     1.538     0.727 -25.58   0
       257    362.5097    590.2009 307.7709920  +6.4521963     14470.93      25840.9     27534.42     79.21357     159.0647     318.7967      1.897     5.39     893.5579     56.23785     2054.346        54     1.921     1.076 -29.30   0
       258    844.1607    592.0736 307.5708404  +6.4675856     3598.387     6210.134     6413.682     79.84984     159.5729      319.114      1.804     5.40     886.5743     56.23785     500.4806        24     1.712     0.804 -30.14   0
       259    164.6796    588.9749 307.8532126  +6.4460412     1559.866     3015.836      4222.18     79.72298     159.3825     319.0189      2.456     6.96     897.7938     56.23785     214.4068        27     2.184     0.885 -29.69   2
       260    453.7509    590.1509 307.7330911  +6.4552845     631.2567     1233.672     1739.235     79.97648      159.446     318.9872      1.957     4.87     892.6206     56.23785     88.90424         8     1.297     0.518 -28.74   0
       261    798.0007    585.4085 307.5902420  +6.4687899      4749.63     8494.312     8486.822     79.34123     159.2554     318.8285      1.863     5.77     887.7584     56.23785      750.074        31     1.782     0.881 -31.56   0
       262    528.8759    585.1094 307.7020538  +6.4598881     5535.711     9913.919     11038.06     79.97648     159.8264     319.0823      1.909     5.42     891.5896     56.23785     779.1207        33     1.828     0.935 -25.43   0
       263    239.5591    586.6756 307.8221860  +6.4495125     733.0493     1415.775     2260.016     79.84984     159.5729     319.0823      2.477     6.49     895.5947     56.23785     98.49384        10     1.629     0.726 -26.46   0
       264    102.0094    586.1442 307.8793417  +6.4450962     894.5331     1724.194     2176.458     79.34123     159.5094      318.765      2.107     7.23     898.5621     56.23785     128.1188        16     1.594     0.919 -36.68   0
       265    387.3861    581.7277 307.7609456  +6.4565286     1292.044     2404.246     2612.812     79.46869      159.319     318.8919      1.933     6.81     892.9399     56.23785     169.3012        19     1.895     0.685 -31.61   0
       266    175.9212    578.2198 307.8489085  +6.4508571     5676.845     10282.57     11367.87     79.59594     159.2554     319.0189      1.961     5.35     897.3792     56.23785     745.7411        34     1.791     0.966 -32.51   0
       267    814.8010    577.6805 307.5835237  +6.4725408     1190.018     2192.272     2206.705     79.21357      159.001     318.8285      1.993     6.12     886.9364     56.23785     186.5558        15     1.746     0.604 -35.74   0
       268    573.6462    578.0955 307.6836928  +6.4642849     2039.152     3917.609     3682.974     79.97648     159.5094     319.2092      1.920     5.87     890.6332     56.23785     327.1516        24     1.876     0.814 -27.15   0
       269    271.0949    574.6901 307.8094930  +6.4555191     72987.29     130406.9     139315.2     79.97648     160.0795     319.0823      1.917     5.21     894.9084     56.23785     9631.096        91     1.957     1.157 -28.91   0
       270     47.4626    576.8162 307.9023173  +6.4471044     4225.688     7812.183     8223.472     79.46869     159.5094     318.8919      1.920     5.65     899.6067     56.23785     507.8923        32     1.807     0.950 -31.03   0
       271    560.5714    572.2142 307.6893236  +6.4662724      822.943     1255.315     1530.945     79.59594     159.3825     318.9554      1.753     5.38     890.6246     56.23785     127.6261        11     1.437     0.568 -16.36   0
       272    254.9290    569.6976 307.8163781  +6.4570345     1179.473     2415.846     3037.379     79.84984     159.6997     319.0506      2.238     6.32     895.0369     56.23785     170.0457        16     1.673     0.671 -23.24   0
       273    970.6776    568.5190 307.5190753  +6.4815359     1265.502     2088.836     1939.461     80.22917     159.8264     319.2092      1.901     5.96     881.3426     56.23785     213.2133        15     1.630     0.613 -32.25   0
       274    794.2411    567.1839 307.5924197  +6.4761829     13817.86     24257.71      26103.1     79.46869      159.319     318.8285      1.837     5.68     886.9594     56.23785     2029.567        49     1.892     1.004 -31.18   0
       275    497.8631    565.5372 307.7156004  +6.4669213     34775.62     65059.76     71024.67     79.97648     159.5729     319.0823      2.019     5.52     891.2424     56.23785     4189.214        74     2.035     1.212 -24.28   0
       276    648.6976    563.7427 307.6530002  +6.4727246     885.1378     1532.313     1680.476     79.84984     159.5094     319.2409      1.858     6.51     888.8711     56.23785     128.2876        12     1.338     0.889 -40.58   0
       277    210.2402    561.7395 307.8352125  +6.4588124     1813.371     3313.023     4096.601     79.97648     159.5729      319.114      2.059     5.40     896.0127     56.23785     230.2256        24     1.828     0.801 -32.11   0
       278     46.0200    562.0296 307.9034199  +6.4531559     1140.492     1876.847     1610.326     79.46869     159.3825     318.9237      1.671     5.88     899.4413     56.23785     143.7988        14     1.461     0.798 -34.09   0
       279    657.8762    560.4646 307.6492980  +6.4743849     2650.521     4572.454     5059.313     80.10293     159.5729     319.0189      1.850     5.23     888.5117     56.23785     354.5673        24     1.733     0.835 -25.12   0
       280    668.0908    560.7250 307.6450457  +6.4746200     1095.052     1949.476     2521.129     79.97648      159.763      319.114      2.062     6.24      888.321     56.23785     143.2343        15     1.589     0.689 -21.01   0
       281    720.2329    559.4186 307.6234281  +6.4769071     1092.623      2061.83     2571.743     79.46869     159.3825     318.8602      1.897     5.46     887.8337     56.23785     151.0777        12     1.431     0.588 -23.94   0
       282    395.7842    556.3766 307.7583170  +6.4672698     1512.913     2540.703     2636.845     79.72299     159.3825     318.9554      1.813     6.13     891.9613     56.23785     190.9929        20     1.816     0.726 -32.43   0
       283    327.1409    554.4202 307.7868991  +6.4657680     3339.854     5815.441     6207.332     79.59594      159.446     318.8919      1.854     5.19     893.1295     56.23785     425.3635        30     1.775     0.911 -32.36   0
       284    142.1860    553.0197 307.8637791  +6.4601164     21427.54     38473.05     40545.61     79.72299      159.319     318.9554      1.917     5.32     898.0231     56.23785     2860.486        60     1.917     1.085 -31.78   0
       285    506.7345    553.9628 307.7123073  +6.4719945     1824.277     3298.496     3274.318     79.84984     159.5094      319.114      1.948     5.11     890.6202     56.23785     240.7556        20     1.644     0.802 -32.02   0
       286    870.4753    553.1526 307.5612227  +6.4845240     1520.579     2319.624     2776.037     79.84984     159.6363     319.0506      1.672     5.79     884.5427     56.23785     200.7236        18     1.545     0.753 -31.47   0
       287    107.4263    551.2667 307.8782781  +6.4596676     2360.233     4203.397     4308.562     79.59594      159.446     318.9554      1.868     5.01     898.2938     56.23785     328.7551        24     1.624     0.915 -30.31   0
       288    967.8107    547.8420 307.5209639  +6.4899708     4298.187     7494.445     7652.942     79.34123     159.3825     318.7967      1.796     5.41      880.816     56.23785      627.007        28     1.742     0.852 -30.63   0
       289    344.5681    549.4645 307.7798278  +6.4683988     845.8875     1447.516     1745.167     79.72299     159.6363     319.0189      1.795     5.33     892.6008     56.23785     157.4282        10     1.555     0.515 -43.18   0
       290    541.1863    539.9745 307.6984689  +6.4789225     1217.545     2038.985     2208.085     79.72299     159.3825     318.9872      1.839     5.83     889.6772     56.23785     188.1414        14     1.534     0.624 -28.80   0
       291      6.4736    537.3245 307.9206885  +6.4620132     21391.36     37902.98     40831.47     80.22917     159.8264     307.1555      1.923     5.54     899.8387     56.23785     2679.548        62     1.958     1.104 -29.55  24
       292    439.2012    534.2206 307.7410319  +6.4778702     35643.78      63381.4     67565.81     79.59594     159.2554      318.765      1.896     5.36     890.7146     56.23785       4926.9        64     1.919     1.059 -29.77   0
       293    647.2320    533.9179 307.6546184  +6.4849801     10129.68     17735.34     18954.58     79.84984      159.446     318.9872      1.853     5.33     887.8336     56.23785      1382.81        47     1.874     1.028 -30.06   0
       294    287.2280    534.3724 307.8041605  +6.4726955     856.5169     1567.233     1595.172     79.46869     159.3825     318.8602      1.795     6.38      893.006     56.23785     102.8647        12     1.251     0.913 -14.46   0
       295    204.3332    531.7444 307.8386859  +6.4709880     15875.95     29554.71     31655.01     80.10293      159.446     319.0189      1.983     5.43     895.5508     56.23785     1872.644        58     1.931     1.192 -27.61   0
       296    169.7950    532.8120 307.8529973  +6.4693837     1336.296     2474.625     2189.915     79.59594      159.319     318.9237      1.921     7.33     896.9918     56.23785     194.2665        19     1.734     0.867 -26.80   0
       297    821.0845    532.1716 307.5824508  +6.4915268      720.815     1433.726     1511.413     79.97648     159.2554     318.9237      2.352     6.55     885.0309     56.23785     101.9724        15     1.908     0.630 -28.63   0
       298    568.9748    530.7722 307.6872362  +6.4836520     2261.854     3841.637     3830.897     79.46869     159.3825     318.9237      1.810     6.52     889.0983     56.23785     300.8901        22     1.717     0.768 -30.71   0
       299    943.0723    527.8884 307.5319149  +6.4973760     4071.061     6827.003     7205.794     79.97648     159.8264     319.0823      1.760     5.21     881.1838     56.23785     561.8541        28     1.756     0.844 -29.27   0
       300    616.0060    526.3378 307.6678476  +6.4870599     5406.802     9464.317     10301.23     79.34123     159.3825     318.8285      1.858     5.27     888.3781     56.23785     754.9581        31     1.804     0.855 -30.70   0
       301    103.9624    526.6102 307.8805558  +6.4697228     917.0659     1500.444     1317.201     79.34123     159.3825     318.7332      1.719     5.84     898.0794     56.23785     131.6613        13     1.576     0.609 -35.42   0
       302    981.0357    532.6957 307.5159804  +6.4966620     1104.296     2131.538     2706.966     80.10293      159.446     319.1775      2.087     7.33     879.8414     56.23785     182.8947        17     1.765     0.853 -30.95   0
       303    965.5637    520.0909 307.5228337  +6.5013451     2989.584     5079.563     5200.173     80.10293     159.5094     319.0823      1.764     5.46     880.0304     56.23785     379.8777        25     1.676     0.846 -28.91   0
       304    528.2237    517.5046 307.7046153  +6.4877575     6267.824     11085.85     11686.03     80.10293      159.319     318.9237      1.882     5.36     889.0617     56.23785     814.4197        37     1.799     0.981 -28.78   0
       305    374.3094    517.6014 307.7685539  +6.4825447     2226.114     3830.531     4139.175     79.21357     159.1283     318.7967      1.825     5.86     891.0305     56.23785     281.6602        21     1.674     0.781 -30.77   0
       306     97.0748    517.1663 307.8837384  +6.4733866     547.1682     1002.635     954.7531     79.84984     159.5729     319.0189      1.870     4.63     898.1237     56.23785      85.6264         7     1.400     0.435 -19.20   0
       307    403.6122    518.9490 307.7563348  +6.4829742     632.3217     1122.867     1856.231     79.34123      159.446      318.765      1.810     4.16      890.749     56.23785     93.81262         6     1.408     0.351 -44.37   0
       308    884.7155    513.3489 307.5566506  +6.5014225     2764.315     4662.667     5279.477     79.97648     159.5094     319.1458      1.813     6.40     882.7163     56.23785     417.7023        19     1.613     0.714 -28.48   0
       309    892.3352    507.8313 307.5536712  +6.5039538      1957.09     3420.137     3717.847     79.72299     159.5729     318.9872      1.948     5.73     882.3196     56.23785     277.8928        21     1.703     0.769 -28.53   0
       310    931.4340    507.0585 307.5374531  +6.5055806     1108.175     1900.631     1531.434     79.84984     159.5729     318.9872      1.742     4.97     881.0008     56.23785     195.6841        15     1.369     0.801 -29.07   0
       311    110.4983    507.8392 307.8784794  +6.4776872     653.0967     1130.418     1138.531     79.97648      159.446     319.2726      1.929     5.02     897.7067     56.23785     94.66864         7     1.514     0.470 -27.32   0
       312    716.0914    503.7640 307.6270309  +6.4997295     2365.883     4062.426     4318.527     80.10293      159.446     319.0823      1.825     6.62     885.8804     56.23785     340.6914        21     1.730     0.765 -32.51   0
       313    427.2953    502.1582 307.7470655  +6.4906976     1016.915     1620.306     1416.545     79.97648     159.5094     319.1775      1.793     5.96     890.0349     56.23785     131.3764        14     1.476     0.676 -24.21   0
       314    386.9409    501.8015 307.7638424  +6.4894879     2996.573     5391.168     5747.175     79.34123     159.2554      318.765      1.915     5.66     890.3884     56.23785     397.7062        26     1.776     0.840 -28.85   0
       315    614.6370    498.6008 307.6693554  +6.4984573     8542.571     15070.91      16083.8     79.08571     159.3825     318.8602      1.890     5.94     887.3789     56.23785     1138.962        41     1.912     0.970 -33.98   0
       316    777.7280    494.7134 307.6017294  +6.5055289     13731.97     23730.34     26804.31     80.10293     159.8264     319.0506      1.933     5.60     885.0175     56.23785      2013.92        63     2.426     1.065 -41.22   0
       317    421.3826    495.3690 307.7497521  +6.4932998     477.2781     810.6247      624.533     79.59594     159.3825     318.9554      1.160     3.75       889.95     56.23785     95.81787         5     1.323     0.305 -44.94   0
       318    297.3461    495.2751 307.8012850  +6.4891659     2363.015     3926.372     4631.713     79.84984     159.5729     319.0823      1.792     5.06     890.5889     56.23785     331.8675        21     1.562     0.823 -31.97   0
       319     77.8115    502.7174 307.8922324  +6.4786977     1640.456     2893.896     3166.451     79.59594      159.319     318.8919      1.866     5.78      898.314     56.23785     224.4629        20     1.602     0.853 -28.02   0
       320    806.9645    491.9649 307.5896756  +6.5076421      1092.16     1566.533       1457.4     79.72299      159.319     318.7967      1.603     4.93     884.5074     56.23785     188.7862        14     1.441     0.749 -28.42   0
       321    380.4449    491.7168 307.7668833  +6.4934300     1433.912     2413.656      2586.29     79.97648     159.5729     319.0506      1.816     4.60     890.1014     56.23785      206.944        16     1.522     0.701 -27.43   0
       322    962.6890    490.0280 307.5250423  +6.5136521     1695.592     2813.826     3222.596     80.10293      159.319     318.9554      1.788     6.07     879.2192     56.23785     249.5565        17     1.630     0.715 -26.43   0
       323    710.8455    488.5717 307.6297243  +6.5058216     542.9943     851.5544      772.506     79.46869     159.6363     318.9554      1.549     4.12     885.4343     56.23785     85.61975         5     1.140     0.426 -13.77   0
       324    114.8603    486.7279 307.8773856  +6.4865437     3722.975     6814.495     6791.268     80.10293     159.5729     319.0823      1.910     5.77     897.2167     56.23785     506.2094        31     1.801     0.952 -29.26   0
       325    753.0645    485.9466 307.6122726  +6.5083196     2004.357     3431.159     3896.273     79.97648     159.5094     319.0189      1.861     5.82     885.0464     56.23785     280.7183        20     1.672     0.757 -25.88   0
       326    369.9832    487.2728 307.7713804  +6.4949115     706.0157     1032.516     1370.951     79.46869     159.5094     318.9554      1.593     4.32     889.9672     56.23785     105.3022         7     0.790     0.673 -15.43   0
       327   1016.7009    484.8057 307.5027779  +6.5176122     3489.387     6528.771      7196.66     79.72299     159.1919      318.352      1.990     5.43     876.9555     56.23785     366.8726        31     1.804     1.016 -16.41  16
       328    272.7132    483.9051 307.8119046  +6.4930274     1263.557     2066.622     2372.234     79.97648      159.953      319.114      1.847     6.41      890.655     56.23785     162.5903        15     1.534     0.769 -19.29   0
       329    350.9011    481.6349 307.7794993  +6.4965955     2593.799     4648.611     4597.382     79.97648      159.446     319.2092      1.919     5.42     889.8255     56.23785     339.6359        29     1.806     0.947 -32.80   0
       330    706.7287    479.4786 307.6317422  +6.5094351     1406.634      2421.24     2700.027     80.22917     159.8264     319.0189      1.777     5.55     885.1019     56.23785     214.1063        16     1.488     0.727 -32.46   0
       331    238.6657    477.7306 307.8262589  +6.4944281     703.4693     1458.964     1158.774     79.97648     159.6363     319.0506      1.785     5.54     891.8561     56.23785     97.23596         9     1.767     0.490 -35.67   0
       332    548.2969    471.9153 307.6978206  +6.5072400     837.4536     1691.795     1367.692     79.97648      159.953      319.114      2.048     6.30     887.0066     56.23785     115.4399        12     1.384     0.806 -24.23   0
       333    470.3347    470.5880 307.7302555  +6.5051688     1026.733     1636.358     1553.586     79.46869     159.3825     318.9237      1.796     5.29     888.2499     56.23785     171.5552        13     1.567     0.545 -33.16   0
       334    833.2958    469.3947 307.5794984  +6.5178356     1269.566     2080.702     2008.253     79.72299     159.2554     318.8285      1.782     6.17     882.8686     56.23785     178.6403        16     1.570     0.724 -34.57   0
       335    818.8159    468.5396 307.5855433  +6.5177036     1584.304     2705.054     2766.369     79.46869     159.5094     318.7967      1.767     6.48     883.2961     56.23785     233.0972        18     1.647     0.747 -25.73   0
       336    715.9021    466.7690 307.6283609  +6.5149861     12407.07     21639.11     22949.94     79.97648      159.319     319.1458      1.830     5.46      884.443     56.23785     1768.281        43     1.861     0.937 -30.02   0
       337    618.6223    468.8065 307.6687084  +6.5108831     492.5248     973.7869     1086.017     79.46869     159.3825     318.8919      2.428     6.84     885.9584     56.23785     88.68744         7     1.602     0.819 -26.93   0
       338    637.0950    462.8592 307.6612350  +6.5139565     2134.913     3818.223     4103.673     79.84984     159.5729     319.1458      1.794     5.04     885.2786     56.23785     313.0847        25     1.752     0.878 -35.21   0
       339    710.6597    460.8387 307.6307395  +6.5172570     580.7146     1067.589      1221.42     79.97648     159.6363     319.0823      1.856     3.23     884.1771     56.23785     121.4757         5     0.944     0.352 -43.05   0
       340    612.2898    459.6639 307.6716489  +6.5144425      4546.07     7971.542     8963.997     79.84984      159.763     319.0823      1.882     5.69     885.6096     56.23785     577.5098        25     1.793     0.790 -31.78   3
       341    608.5519    457.1758 307.6732861  +6.5153436     12385.67     21820.29     23816.62     79.59594     159.5729     318.9554      1.883     5.34     885.5013     56.23785     1754.079        49     1.892     1.052 -27.99   3
       342    941.1125    456.7960 307.5351283  +6.5266412     3129.025     5289.363     5636.911     79.46869     159.2554     318.7332      1.750     5.49     878.8426     56.23785     460.6742        25     1.762     0.817 -30.29   0
       343    380.2888    452.5784 307.7682764  +6.5095716      23984.7     42526.37     45376.39     79.97648     159.3825     318.9554      1.898     5.25      888.462     56.23785     3019.965        62     1.905     1.105 -29.85   0
       344    897.0195    452.4803 307.5535939  +6.5269468      1205.67     2220.281     3048.333     79.59594     159.2554     318.9872      1.910     5.80     880.2479     56.23785     185.3507        14     1.506     0.722 -24.04   0
       345    910.0450    447.0799 307.5483643  +6.5296106     4349.707       7533.8     7356.791     79.97648     159.5729     319.0506      1.776     5.25     879.6125     56.23785     661.7623        30     1.755     0.870 -31.68   0
       346    126.3548    451.9073 307.8737951  +6.5012966     1882.009     3332.052     3656.814     79.97648     159.5094     319.1775      1.875     5.86      895.486     56.23785     283.2867        20     1.743     0.708 -29.32   0
       347     60.1116    447.0442 307.9014804  +6.5010683     1316.982     2489.467     2813.381     79.97648      159.446     319.0823      2.040     5.65     897.5764     56.23785     173.8589        20     1.514     1.000 -47.76   0
       348    965.6844    445.0247 307.5253163  +6.5323194     410.3637     741.0298     520.0768     79.84983      159.319     318.9554      1.462     3.78     877.3273     56.23785     87.69037         5     1.286     0.319 -26.41   0
       349    237.8585    443.0483 307.8277729  +6.5087092     11373.45     20534.98     21799.27     79.97648     159.5729     319.1458      1.916     5.50     890.4797     56.23785     1489.815        44     1.875     1.019 -29.30   0
       350    732.9317    436.8083 307.6222988  +6.5279177     764.7849     1158.829     1484.929     79.46869      159.319     318.9554      1.732     5.14     882.7296     56.23785     114.1902         9     1.284     0.583 -32.53   0
       351     73.0964    437.0979 307.8964246  +6.5056097     633.8992     1073.497     832.5847     79.97648     160.1427     318.8919      1.696     4.78     896.8965     56.23785     108.5135         8     1.581     0.410 -24.80   0
       352    960.9895    435.4732 307.5275893  +6.5361031     919.9225     1534.633     1145.107     79.46869     159.1919     318.9237      1.670     5.58     877.1226     56.23785     137.0711        12     1.619     0.543 -28.36   0
       353    701.8419    436.1189 307.6352393  +6.5271600     664.3001     1061.352     1823.348     79.97648     159.5729     319.0189      1.799     3.66     883.0232     56.23785     111.8088         5     0.939     0.411 -43.86   0
       354    350.7854    432.7055 307.7812083  +6.5167778     1025.154      1960.41     2250.871     79.72299      159.319     318.8919      1.737     6.00     887.8901     56.23785     140.1804        13     1.752     0.578 -31.16   0
       355    184.0741    433.0541 307.8504573  +6.5110202     730.9343     1474.312     1428.029     79.84984     159.5729     319.0189      1.985     6.05     892.2648     56.23785     102.3953         9     1.437     0.717 -34.14   0
       356    138.1819    431.6590 307.8695704  +6.5100488     4245.726     7582.355     7940.643     79.59594      159.446     318.8285      1.894     5.19     894.1759     56.23785     519.8145        31     1.772     0.927 -30.97   0
       357    242.8411    430.6250 307.8261251  +6.5140023     1141.492     2149.656     2090.398     79.59594      159.446     318.8285      1.833     6.27     889.8356     56.23785     154.6577        15     1.564     0.706 -28.14   0
       358    824.3618    428.5009 307.5845920  +6.5344080     626.3685     900.8096     610.7889     79.97648      159.446     319.2726      1.752     4.73     881.3313     56.23785     94.80505         8     1.465     0.433 -31.00   0
       359    160.1966    427.6028 307.8605625  +6.5124643     2105.459     3756.194      4238.14     79.34123     159.1283     318.8602      2.034     5.55     893.0978     56.23785     299.9386        28     1.911     0.932 -42.99   0
       360    556.0626    426.2281 307.6961421  +6.5263496     723.7536     1312.218     1428.285     79.59594     159.5729     319.0189      1.794     5.71     884.5946     56.23785     113.6152         9     1.344     0.712 -30.78   0
       361    972.0350    421.4388 307.5234735  +6.5422627     797.3994     1691.172     1652.559     79.72298      159.446     318.8602      2.195     6.57      876.071     56.23785     115.6102        12     1.687     0.717 -36.12   0
       362    383.6551    422.2602 307.7679067  +6.5221928     1841.208     3185.423     3319.484     80.10293     159.5729     319.0189      1.953     5.28     886.9965     56.23785     222.6633        19     1.581     0.754 -32.91   0
       363    272.9117    422.3022 307.8139149  +6.5184486     613.7338     1155.774     1200.573     79.97648     160.0162     319.0823      2.161     4.87     888.6028     56.23785     101.9512         6     1.021     0.657 -48.92   0
       364     33.8047    416.7224 307.9134416  +6.5126896      2634.54     4926.312     5583.452     79.59594     159.0647     318.8285      2.042     5.54     897.9735     56.23785      338.323        31     1.917     0.944 -35.18   0
       365    437.5660    415.8642 307.7457254  +6.5266443       6140.3     10703.82     11562.55     79.84984     159.5729     319.0506      1.887     5.25     885.9186     56.23785     850.0455        36     1.829     1.015 -31.14   0
       366    770.3274    414.7229 307.6075083  +6.5382826      1610.04     3139.312     3731.301     80.22917     159.8264     319.0506      2.142     6.65     881.2733     56.23785     253.2797        21     1.763     0.846 -31.74   3
       367    778.0616    413.3575 307.6043410  +6.5391050     10901.57     18921.45     20105.06     79.97648     159.5729     319.1458      1.849     5.57     881.1395     56.23785      1575.74        43     1.834     0.948 -28.95   2
       368    341.8335    411.9529 307.7856320  +6.5250382     829.6385     1657.238     1926.155     79.72299     159.5729     318.9872      2.222     6.73     887.1011     56.23785     120.6133        13     1.468     0.864 -37.07   0
       369   1021.9462    408.5150 307.5031714  +6.5492629     2958.024     4978.142     5220.584     79.97648     149.4192     267.0771      1.741     6.49     873.3137     56.23785     420.2449        23     1.702     0.784 -33.30  24
       370    953.2645    404.8554 307.5318322  +6.5484768     588.5095     747.4249     572.1348     80.10293     159.5094     319.0506      1.308     3.99      876.168     56.23785      86.4726         6     1.228     0.371 -29.19   0
       371    185.3269    404.5052 307.8509076  +6.5228403      609.053     1030.944     1395.231     79.84984     159.6997     319.0506      2.038     4.87     891.4224     56.23785     88.88721         6     1.347     0.500   0.52   2
       372    392.8051    402.0424 307.7647913  +6.5308415     591.1259     851.8658     812.6263     79.34123     159.2554      318.765      1.837     3.96     885.6639     56.23785     91.28052         6     0.977     0.459 -55.30   0
       373    843.4270    396.2962 307.5777586  +6.5483330     28282.31     50313.35     53766.07     80.10293      159.319     318.9872      1.910     5.41     879.6044     56.23785     3429.645        66     1.935     1.135 -32.87   0
       374    485.5576    399.5320 307.7263400  +6.5349952     2664.488     4375.813     4175.455     79.97649     159.5094      319.114      1.774     6.15     883.9689     56.23785     339.3422        23     1.690     0.828 -33.63   0
       375    457.7664    400.2178 307.7378634  +6.5337784     1873.118     3309.048     3328.934     79.59594     159.3825     318.8919      1.785     5.25     884.4349     56.23785       252.73        20     1.577     0.796 -27.91   0
       376    914.2583    399.5605 307.5482180  +6.5493567     669.5201    -20.09525    -79.45453     79.97648     159.6363      319.114     -1.453     6.60     877.5746     56.23785     124.0433        11     1.498     0.816 -22.68   0
       377     61.1026    392.5321 307.9029245  +6.5235905     482.6165     990.1438     1206.318     79.97648     159.6363     319.0506      1.804     3.50     895.7097     56.23785     81.90222         5     1.702     0.208 -35.82   0
       378    336.0193    391.6693 307.7887363  +6.5332107     678.4759      1372.19     1136.127     79.59594      159.446     318.9872      2.263     5.81     886.2046     56.23785     119.4615         9     1.531     0.622 -38.81   0
       379    615.2150    388.7640 307.6728342  +6.5437914     2181.777     3889.563      4098.57     79.59594     159.3825     318.8602      1.848     5.17     881.5936     56.23785     289.4539        25     1.770     0.825 -29.04   0
       380     23.0607    389.2643 307.9188403  +6.5236546     905.7633     1779.011     1648.568     79.97648     159.5094     319.0823      2.118     5.42     896.9437     56.23785     134.3892        10     1.300     0.637 -31.66   0
       381    699.8956    382.2326 307.6378711  +6.5493264     67188.84     117293.6     124817.2     80.10293      159.446     319.1458      1.847     5.56     880.8312     56.23785     8996.651        88     1.932     1.110 -28.72   0
       382     79.2407    381.6678 307.8957588  +6.5286846     1222.912     2007.314     2128.243     79.84984     159.5094      319.114      1.771     5.78     894.5547     56.23785     157.6164        15     1.499     0.711 -27.60   0
       383    941.0366    379.8958 307.5377554  +6.5583655     719.4434      1272.34      1148.97     80.10293      159.446     319.1775      1.740     5.24     875.5593     56.23785      119.782         7     1.285     0.604 -40.64   0
       384    562.1845    378.9882 307.6951990  +6.5460445     2167.943     4086.194      5064.91     79.84984     159.2554     318.9872      2.024     5.56     881.2992     56.23785     285.6992        25     1.743     0.889 -26.88   0
       385     99.6466    377.6337 307.8874183  +6.5310372     5045.623     9316.057     10250.06     79.72299     159.5729     318.9872      1.959     5.62      893.697     56.23785     635.4457        36     1.841     1.003 -33.28   0
       386    545.6768    375.1162 307.7021890  +6.5470877     6148.467     10486.26     11292.56     80.10293     159.8897     319.1458      1.828     5.46     881.0839     56.23785     876.5349        33     1.798     0.900 -30.74   0
       387    274.8403    372.6714 307.8147998  +6.5389889     2070.969     3752.971     3305.089     79.84984     159.5729      319.114      1.818     5.28     887.3794     56.23785     289.7155        21     1.716     0.779 -35.41   0
       388    408.5624    370.2462 307.7593234  +6.5444892     21459.66     38831.16     41924.29     79.72299     159.5094     318.9237      1.931     5.47      883.269     56.23785     2801.562        64     1.941     1.140 -29.54   0
       389    516.3456    369.0395 307.7145818  +6.5486096     951.6072     1833.508     1892.371     79.84983     159.6363     319.0506      1.948     5.85     881.0399     56.23785     145.6277        13     1.651     0.620 -31.14   0
       390    674.8323    368.7591 307.6487408  +6.5540447     480.1202     833.4661     586.4895     79.59594      159.446     318.9237      1.686     5.54     880.4384     56.23785     82.33459         9     1.458     0.594 -31.71   0
       391    388.7652    368.1839 307.7676188  +6.5446742     983.2543     1706.495     2399.349     79.59594      159.319     318.8919      1.843     4.93     883.5617     56.23785     150.3108        11     1.563     0.713 -28.09   0
       392    487.8926    365.6068 307.7265201  +6.5490699     1033.369     1638.954     1640.325     79.59594     159.2554     318.8602      1.713     4.69     881.1966     56.23785     155.6477        14     1.514     0.722 -24.08   0
       393    803.0035    363.4882 307.5956635  +6.5605149     585.5604     1217.869     1204.158     79.46869     159.2554     318.7332      1.660     4.65     879.1343     56.23785     99.06396         7     1.357     0.453 -24.58   0
       394    497.5845    360.6396 307.7226616  +6.5514448     7138.584     12641.76     13355.03     79.59594     159.3825     318.7967      1.893     5.47     880.6566     56.23785     934.6884        37     1.882     0.941 -29.23   0
       395    385.8748    362.5903 307.7690096  +6.5468847     717.5385     1076.121     1539.433     79.59594     159.1919     318.9237      1.603     5.04     883.3082     56.23785     95.99982         8     1.248     0.575 -37.62   0
       396    639.9251    361.9192 307.6634763  +6.5556957     498.6815     814.2896     1067.378     80.22917     159.8264      319.114      1.917     4.88     880.0833     56.23785     89.30743         7     1.568     0.430 -42.01   0
       397    766.7899    359.5477 307.6108437  +6.5609275     2587.197     4569.305     5072.475     79.34123      159.446     318.7967      1.892     5.39     879.5502     56.23785     354.7234        25     1.804     0.784 -30.22   0
       398    922.9152    359.0476 307.5459888  +6.5663607      813.196     1260.959     1152.655     79.97648     159.5729     319.0823      1.718     4.46     875.3843     56.23785     129.1049         7     1.101     0.515 -46.61   0
       399    858.0125    383.3785 307.5721348  +6.5541507     1054.447     1890.742     1873.451     79.72298      159.319     318.9237      1.863     6.23     878.7122     56.23785     173.5057        15     1.619     0.960 -48.33   0
       400    716.0000    358.8875 307.6319695  +6.5594977     581.2142     1234.412     1335.625     79.21357     159.0647     318.7015      2.460     4.65     879.9636     56.23785     84.54846         5     1.107     0.555 -40.04   2
       401    324.5896    357.3000 307.7946522  +6.5470052     727.1648      1190.75     995.4022     79.72299     159.1919     318.8285      1.667     4.84     885.0013     56.23785      121.496         9     1.530     0.435 -24.86   0
       402    159.5837    351.2182 307.8634152  +6.5439561     1026.872      1844.85     1755.382     79.72299     159.2554     318.9872      1.920     6.43      892.548     56.23785     141.1464        14     1.514     0.766 -27.84   0
       403    387.5700    344.7955 307.7689092  +6.5542831     6040.761     11071.57      11473.8     79.46869     159.3825     318.8602      1.904     5.74     882.3685     56.23785     772.9336        39     1.879     0.976 -32.38   0
       404    243.4553    345.4490 307.8287646  +6.5491625     1754.851     3172.426     3578.779     79.97649     159.5729      319.114      1.913     6.34     887.5087     56.23785     211.3859        20     1.728     0.773 -32.42   0
       405    741.6243    344.6820 307.6218030  +6.5662173     840.3403       1449.5     1270.886     79.72299      159.319     318.9872      2.017     5.00     879.2196     56.23785     139.1595        10     1.363     0.519 -33.25   0
       406    755.3921    340.8170 307.6162130  +6.5682732     45592.98     79143.23     83987.55     79.59594      159.319     318.8919      1.866     5.50     878.8307     56.23785     6091.706        72     1.917     1.061 -30.44   0
       407    427.0817    340.0050 307.7526549  +6.5575881     2100.309      3481.49     3949.151     79.59594     159.1283     318.8285      1.740     5.06     881.1549     56.23785     323.4821        24     1.761     0.879 -31.15   0
       408    990.3867    337.6965 307.5186737  +6.5774258      1356.78     2063.283     1928.072     79.84984      159.319     318.8285      1.756     5.97      871.593     56.23785      201.495        15     1.657     0.606 -26.73   0
       409    931.3696    336.9488 307.5432219  +6.5757608     1970.042     3305.128     3587.355     79.72298     159.6997     318.9872      1.793     5.15     874.0325     56.23785     297.0094        18     1.580     0.707 -32.19   0
       410    573.1138    337.7403 307.6920554  +6.5634287     1076.493     1782.104     1655.728     79.97648     159.6997     319.1775      1.758     4.64      878.646     56.23785     187.9622        12     1.407     0.584 -36.77   0
       411    413.7644    335.6943 307.7583345  +6.5589187     1634.499     2953.774     3283.741     80.10293      159.446     319.1458      1.919     5.64     881.3593     56.23785     211.0287        23     1.655     0.922 -26.00   0
       412    464.9643    336.0231 307.7370499  +6.5605044     884.8372     1481.214     1993.182     79.46869      159.319     318.8285      1.741     4.01     879.9052     56.23785     137.0443         7     0.964     0.478 -41.37   0
       413    293.6080    335.1068 307.8082784  +6.5551182     641.1194     1261.892      1163.06     79.59594     159.2554     318.8602      2.004     5.12     885.6091     56.23785     102.8616         8     1.375     0.538 -25.60   0
       414    834.8995    330.4996 307.5835251  +6.5751931     1064.106     1711.197     1945.254     79.97648      159.953     318.8919      1.764     6.75      876.786     56.23785     153.4891        16     1.468     0.869 -28.62   0
       415    465.2108    330.2538 307.7371431  +6.5628928     632.9303     909.4864     1461.984     79.34123     159.5094     318.7332      1.449     4.91     879.6352     56.23785      96.7442         8     1.330     0.513 -32.62   0
       416    966.5206    328.6559 307.5288957  +6.5803578     600.2488     897.9016     815.5933     80.10293     159.5729     319.0823      1.612     5.40      872.265     56.23785     103.2147         7     1.290     0.639 -10.39   0
       417    189.9793    327.2339 307.8516022  +6.5548754     1803.236     3331.145     3515.385     79.46869     159.3825     318.8919      1.932     6.39     890.1875     56.23785     262.6829        21     1.862     0.723 -34.57   0
       418    444.3695    327.3481 307.7459013  +6.5633911     930.3041     1583.901     1808.174     79.72299     159.6997     318.9872      1.911     6.28     880.1199     56.23785     118.9769        14     1.680     0.659 -30.88   0
       419    753.8207    325.3701 307.6173883  +6.5745934     5105.086     9000.908     9954.311     79.46869     159.3825     318.9554      1.868     6.45     877.9441     56.23785      727.049        31     1.754     0.907 -29.90   0
       420    226.3715    325.3485 307.8365459  +6.5568795      469.938     715.9423     626.6802     79.59594     159.6997     318.9554      1.841     3.44     887.9531     56.23785     102.5351         5     1.030     0.333 -20.48   0
       421     86.2675    324.5296 307.8947844  +6.5524937     1008.956     1849.349      1677.31     79.97648     159.6997     319.0189      1.966     6.16     893.0463     56.23785     124.6028        13     1.432     0.746 -26.05   0
       422    770.3445    323.3415 307.6105910  +6.5759841     2195.043     3868.646     3981.333     80.10293     159.5729     319.0506      1.883     5.94     877.7083     56.23785     289.1846        23     1.738     0.851 -27.63   0
       423    472.7891    321.9594 307.7342756  +6.5665695     555.7355     899.6369     99.22611     79.34123     159.3825      318.765      1.783     4.93     879.0349     56.23785     81.73328         5     1.134     0.606  -3.07   0
       424     73.5340    318.4471 307.9002820  +6.5545734      1089.91     2016.454     2101.375     79.97649     159.5094     319.0823      1.909     6.96     893.4116     56.23785     133.1844        18     1.861     0.730 -35.29   0
       425    359.8458    318.0063 307.7813378  +6.5644024     1668.146     3268.765     3858.454     79.46869      159.319     318.7015      2.202     7.27     882.4009     56.23785     196.6497        27     2.127     0.888 -19.13   0
       426   1008.4507    314.2403 307.5119590  +6.5877070     5108.562     8688.297     8917.583     79.97648     159.5729     319.0189      1.784     5.52     870.4681     56.23785     695.7495        29     1.770     0.829 -30.02   0
       427    486.4663    314.1134 307.7288587  +6.5702660     1779.676     3174.586     3107.946     79.97648      159.763     319.0823      1.826     4.82     878.3489     56.23785     268.7562        20     1.640     0.791 -34.84   0
       428    249.1199    309.5563 307.8276310  +6.5641609     4851.808     8733.891     9199.562     79.97648     159.5729     319.0189      1.903     5.23     886.7689     56.23785     635.5477        33     1.842     0.941 -32.39   0
       429    768.7368    303.0211 307.6119461  +6.5843137     606.8375     1041.184     1306.561     79.59594     159.5729     318.9237      1.536     4.49     876.6611     56.23785     96.10376         7     1.245     0.460 -43.94   0
       430    226.1895    302.5696 307.8373959  +6.5662708     532.3602     981.3743     620.4338     79.46869     159.3825     318.8919      1.695     5.10     887.9379     56.23785     85.48639         5     1.218     0.603 -25.74   0
       431    383.1794    300.3909 307.7722407  +6.5724547     1449.985     2671.669     3009.264     79.59594      159.319     318.8602      1.900     5.76     881.0981     56.23785     219.5104        17     1.541     0.788 -24.94   0
       432    970.2097    299.2155 307.5283564  +6.5926274     824.4243     1571.981     2032.362     79.72298      159.319     318.9554      1.861     6.34     871.1958     56.23785     139.1885        15     1.785     0.633 -30.47   0
       433    305.9182    295.9591 307.8044935  +6.5716831     968.2537      1598.63     1581.021     79.97648     159.5729     318.9872      1.806     5.44     883.5816     56.23785     132.9707        12     1.324     0.670 -46.06   0
       434    562.7009    291.9030 307.6979351  +6.5819898     1929.582     3528.892     3546.878     79.97648     160.0795     318.8919      1.907     5.39     876.2903     56.23785     282.6318        21     1.756     0.792 -35.47   0
       435    906.2894    290.9215 307.5551976  +6.5939112     1398.724     2784.929     3268.801     79.72299     159.8264     319.1458      2.194     5.80     872.5827     56.23785     189.7231        20     1.605     1.163 -24.26   0
       436    726.2540    289.5230 307.6300555  +6.5884588     4344.198     7280.081     7653.015     80.10293     159.5729     319.0506      1.780     5.63     876.0421     56.23785     578.5259        26     1.723     0.834 -32.23   0
       437    667.1003    289.5345 307.6546351  +6.5864705     1825.975     3248.919     3259.044     79.97648     159.6997     319.0189      1.830     5.15     876.2833     56.23785     266.7714        19     1.740     0.675 -30.95   0
       438    153.1093    296.1024 307.8679801  +6.5664757      1584.92     2717.496     2758.703     79.97648     160.0162     319.0506      1.753     5.07      891.473     56.23785     246.4115        20     1.704     0.754 -35.09   0
       439    382.0117    283.9319 307.7732846  +6.5792057      598.745     1078.172     900.7316     79.46869     159.3825     318.9237      1.837     5.94     880.6475     56.23785     90.96783         8     1.337     0.744 -24.59   0
       440    922.3304    281.6146 307.5488462  +6.5982876     868.1149     1547.683     1712.922     79.46869     159.5094     318.9554      1.813     5.87     871.7925     56.23785     132.9952        13     1.452     0.682 -32.17   0
       441    225.5965    274.7913 307.8385867  +6.5777107     1945.867     3546.399     3751.886     79.34123     159.2554     318.8919      1.937     6.07      887.679     56.23785     228.1378        25     1.806     0.919 -28.04   0
       442    868.5814    273.7890 307.5714454  +6.5997176     1510.123     2401.296     2584.443     79.59594     159.2554     318.9554      1.588     5.50     872.9854     56.23785     231.2244        15     1.599     0.596 -29.07   0
       443    758.7636    273.3467 307.6170938  +6.5962221     1293.325     2347.583     2621.851     79.84984     159.5729     319.0823      1.867     6.37     875.3186     56.23785     210.9729        17     1.827     0.623 -27.74   0
       444    459.9877    264.3448 307.7415489  +6.5899085     18760.07     34081.45     37268.27     79.34123     159.5094     318.7332      1.961     5.70     876.8591     56.23785     2480.398        70     2.524     1.083 -37.97   0
       445    785.7698    263.7686 307.6061957  +6.6010786     11037.21      19682.1     21474.25     79.46869      159.319     318.7967      1.917     5.56     874.8275     56.23785     1531.528        51     1.988     1.019 -27.62   0
       446    724.1870    259.9462 307.6319150  +6.6005918     591.8582     993.4814     1071.442     79.34123     159.5094     318.7967      1.605     3.99     874.9749     56.23785     117.6097         5     1.005     0.453 -41.39   0
       447    147.8123    257.8682 307.8714818  +6.5820704     1926.295     3642.709     4184.748     79.46869      159.446     318.9554      2.003     5.26     890.3697     56.23785     270.3871        25     1.727     0.877 -31.78   0
       448    122.3855    257.0283 307.8820753  +6.5815595     921.4088     1617.338     1638.001     79.59594     159.3825     318.9554      1.845     6.07     891.2172     56.23785     142.9803        16     1.566     0.744 -32.48   0
       449    922.1616    254.2445 307.5498406  +6.6095740     1239.874      2135.69     2413.485     79.72299     159.5094     318.9554      1.883     5.78      871.124     56.23785     176.3223        14     1.390     0.677 -27.08   0
       450    619.9954    252.4476 307.6754643  +6.6001908     491.3809     661.2408     805.4717     79.34123     159.3825     318.7332      1.512     5.54     874.1985     56.23785     92.88104         7     1.210     0.714 -32.40   0
       451    583.8530    250.4548 307.6905502  +6.5997998     3970.051     6925.666     7588.731     80.22917     159.5094     319.0189      1.909     5.61     874.0923     56.23785     499.5844        30     1.811     0.877 -32.48   0
       452    304.1559    250.9967 307.8067532  +6.5901731     964.0729     1991.371     1865.193     79.34123     159.1919     318.7015      1.995     5.54     883.6773     56.23785     188.2501        14     1.536     0.797 -33.33   0
       453    546.4397    250.1977 307.7061054  +6.5986497     1732.685     3012.615     3073.002     79.08571      159.319      318.765      1.860     4.84     874.2064     56.23785     274.4208        20     1.527     0.845 -28.68   0
       454    388.4539    249.3420 307.7717818  +6.5936926     1388.274     2303.659     2528.278     80.10293     159.5729     319.0506      1.757     6.57     879.3388     56.23785     177.2483        19     1.675     0.753 -29.18   0
       455    890.8089    246.9788 307.5631146  +6.6115225     9357.345     16623.86     17879.92     79.59594     159.3825     318.8285      1.858     6.04     871.3994     56.23785     1351.052        40     1.838     0.935 -30.89   0
       456    944.7062    247.4318 307.5407022  +6.6131388     2326.605     3726.988      3902.73     80.10293     159.3825      319.114      1.768     5.57     870.0922     56.23785     328.1041        21     1.713     0.781 -28.44   0
       457    318.2114    247.8653 307.8010192  +6.5919381     675.5771     1103.168     1206.007     79.46869     159.3825     318.9237      1.637     5.70      882.889     56.23785     94.68658        10     1.509     0.607 -36.11   0
       458    977.3631    244.9015 307.5272169  +6.6152748     8225.386     14436.53     15138.92     79.97648      159.446     319.2409      1.854     5.78     868.4594     56.23785     1156.394        38     1.825     0.934 -31.03   0
       459    565.9567    246.6084 307.6981171  +6.6007858     884.9708      1511.86     1641.594     79.46869     159.3825     318.7967      1.853     5.74      873.995     56.23785     135.8761        12     1.619     0.573 -34.50   0
       460    210.0409    247.0337 307.8459939  +6.5886379     653.7979     1170.061     1477.582     79.72299     159.5729     318.8919      2.053     5.58     887.7557     56.23785     114.4401         9     1.449     0.627 -16.29   0
       461     16.9429    243.4252 307.9263498  +6.5836129     21145.86      38614.3     41622.81     79.59594     159.5729     318.8919      1.946     5.22      893.584     56.23785     2647.659        65     1.914     1.181 -31.30   0
       462    688.7861    244.7558 307.6471395  +6.6056718     2506.877     4475.294     4912.162     79.34123     159.3825     318.7967      1.856     5.14     874.3637     56.23785     346.5822        25     1.690     0.881 -29.29   0
       463    262.8903    244.5552 307.8241186  +6.5914409     767.9933     1593.427     1549.172     79.97648     159.5094     319.1775      2.162     5.52     885.6669     56.23785     113.3784        10     1.564     0.550 -34.37   0
       464    497.4164    239.6587 307.7268335  +6.6013508     1749.345     3298.751     3075.281     79.46869     159.5094     318.7967      1.905     6.17     874.5582     56.23785     234.9778        22     1.779     0.857 -30.19   0
       465    881.9722    235.4514 307.5671761  +6.6159826     1721.447     3082.994     3534.397     79.59594     159.6997     318.9554      1.888     6.06     871.0309     56.23785     277.0582        19     1.824     0.661 -31.02   0
       466    829.3063    236.3656 307.5890306  +6.6138423     1751.824     2698.991     2936.833     80.10293      159.446     319.1458      1.702     6.47     872.4648     56.23785     248.6505        17     1.522     0.772 -32.47   0
       467    509.4398    235.7530 307.7219698  +6.6033661     2026.672     3692.134     3829.604     79.84984     159.5729     318.8602      1.850     6.38     874.1356     56.23785      296.022        22     1.810     0.768 -34.66   0
       468    740.9756    232.9304 307.6258526  +6.6123003     33185.26     59086.07     62881.42     79.59594      159.446     318.9872      1.877     5.62     874.0349     56.23785      4560.17        65     1.892     1.068 -30.17   0
       469    344.0937    232.2650 307.7907944  +6.5992452     5071.722     11403.98     13113.29     79.84984      159.763     319.0823      2.374     7.07     881.0538     56.23785      578.612        53     2.249     1.271 -56.03   0
       470    974.8595    231.7810 307.5287001  +6.6206042      2392.55     4262.733     4661.744     79.59594      159.446     318.8602      1.878     6.22     867.9028     56.23785     312.1956        25     1.859     0.820 -31.30   0
       471   1013.0896    230.4189 307.5128591  +6.6224442     1554.591     2782.047     3292.155     79.72298      159.319     318.9554      1.879     6.10     865.5707     56.23785     230.7264        15     1.565     0.669 -32.47   0
       472    908.9210    230.0092 307.5561612  +6.6191297     6297.878     11192.61      11444.4     79.59594     159.1919     318.8919      1.841     5.92     870.6396     56.23785     847.3486        29     1.751     0.863 -28.85   0
       473    452.2540    229.0503 307.7459597  +6.6042095     4363.853      7840.26     7884.843     80.10293     159.5729     319.0823      1.873     5.48     875.7057     56.23785      561.208        31     1.758     0.971 -29.66   0
       474    227.5965    225.8691 307.8394190  +6.5979609      571.381     1014.655     1066.078     79.34123     159.1919     318.8285      2.005     5.23     886.7485     56.23785     88.38708         7     1.423     0.543 -11.28   0
       475    109.8014    220.3525 307.8885524  +6.5962653     3989.339     7207.981     7448.259     79.34123     159.1919     318.6062      1.895     5.19     890.7797     56.23785     506.4288        30     1.756     0.921 -33.97   0
       476    255.3270    218.1723 307.8281580  +6.6020704     5441.721     10012.45     10806.35     79.72299     159.5094     318.9872      1.953     5.42     885.9684     56.23785      715.403        37     1.834     1.029 -32.38   0
       477    929.0367    219.4325 307.5481591  +6.6241663     738.8404     1298.757     1123.762     79.59594      159.319     318.7967      2.136     7.07     869.9745     56.23785     143.1303        13     1.882     0.745 -16.69   0
       478    280.0876    217.0063 307.8179090  +6.6033854     27698.88     50646.72      54272.4     79.46869     159.2554     318.7967      1.925     5.36     885.2618     56.23785     3510.543        66     1.952     1.122 -31.69   0
       479    709.4672    216.2988 307.6395086  +6.6181056     785.9533     1348.491     1540.346     79.97648     159.6997     319.0506      1.809     6.28     873.3199     56.23785     116.9471        11     1.332     0.833 -12.42   0
       480    404.1343    212.5416 307.7665153  +6.6094021     41780.18      75256.6      80543.7     80.10293     159.5094     319.0823      1.925     5.18     877.3466     56.23785     5218.858        72     1.930     1.161 -31.55   0
       481    160.1908    213.7829 307.8678384  +6.6006751      3415.49     6292.055     6288.783     79.72298      159.319     318.9554      1.916     5.05     888.4501     56.23785     436.1402        31     1.766     0.974 -32.56   0
       482    421.5025    213.3115 307.7592721  +6.6096687      1166.54     2115.177     1844.101     79.97648     160.0162     319.0823      1.828     6.63     876.4316     56.23785     159.3479        16     1.629     0.757 -36.79   0
       483    308.2196    210.2367 307.8064493  +6.6071255        15257     27422.54     29843.64     79.59594     159.3825     318.8285      1.932     5.17     883.5112     56.23785     1971.802        59     2.286     1.062 -27.54   2
       484    315.5263    210.4977 307.8034043  +6.6072638     1499.189     2984.741     3826.566     79.59594     159.6997     319.0506      2.345     7.77     882.8799     56.23785     188.6831        21     2.002     0.844 -40.36   3
       485    743.4261    208.8223 307.6256498  +6.6223285     27881.91      48536.6     51983.34     79.46869     159.3825     318.9872      1.873     5.59     873.0054     56.23785     3726.833        62     1.897     1.054 -29.17   0
       486    691.8911    210.4803 307.6470093  +6.6199167     834.2224     1419.626     1540.119     79.72298     159.8264      319.114      1.955     6.26     873.0621     56.23785     116.9227        13     1.660     0.662 -32.63   0
       487    791.6477    209.3390 307.6055935  +6.6237312      962.921     1634.674     1913.542     79.97648     159.5094      319.114      1.860     5.64     872.1635     56.23785     139.4066        12     1.621     0.553 -26.33   0
       488     31.3414    208.5374 307.9215558  +6.5984917     476.7245     981.9706     793.6799     80.10293     159.5094     319.0823      2.007     6.76      892.707     56.23785     93.15619         8     1.781     0.720 -40.89   0
       489     60.2717    205.9442 307.9096232  +6.6005381     7508.688     13970.45     15138.65     79.84984     159.5094     319.0189      1.971     5.58     891.9026     56.23785     953.4222        43     1.856     1.089 -31.90   0
       490     94.2533    203.9613 307.8955708  +6.6025028     1252.487     2058.755     2254.299     79.84984     159.6363     319.0506      1.827     6.57     890.8906     56.23785     168.4368        17     1.617     0.749 -30.83   0
       491   1001.4080    203.2611 307.5186299  +6.6332582     857.6967      1605.16     2040.517     79.34123     159.3825     318.8285      1.827     5.88     865.2337     56.23785     152.1342        13     1.622     0.660 -21.33   0
       492    970.1527    202.6534 307.5316392  +6.6324639     438.0577     735.3336     660.2433     79.97648     159.5729     319.0823      2.084     6.21     866.7872     56.23785     82.03992         6     1.435     0.755 -27.87   0
       493    727.9034    196.8299 307.6325061  +6.6267558     549.2375      767.601     819.1933     80.10293      159.319     319.0823      1.577     4.59     872.5856     56.23785     96.36597         6     1.101     0.544 -25.57   0
       494    577.3579    193.2309 307.6951881  +6.6231900     721.8092     1270.132     1279.366     79.46869     159.5094     318.8919      1.861     5.51     872.2119     56.23785     124.2394        11     1.531     0.559 -30.53   0
       495   1002.7546    189.5689 307.5185323  +6.6389521     1851.113     3511.186     4467.764     79.59594     159.6363     318.9237      1.992     6.34       864.73     56.23785      243.718        20     1.784     0.740 -28.40   0
       496    585.7021    187.3046 307.6919215  +6.6259151     870.1074     1382.818     2235.676     79.97648     160.1427     318.8919      2.459     6.51     872.1069     56.23785     99.68604        14     1.416     0.841  -9.04   0
       497    594.2427    185.1313 307.6884460  +6.6270984     1590.624     2736.969     3077.067     79.97648     159.5094     319.1458      1.760     6.13     872.0859     56.23785     211.0565        16     1.627     0.649 -31.73   0
       498    338.4895    184.9006 307.7947318  +6.6185968     783.4873       1416.1     1594.415     79.97648     160.0162     319.0189      1.941     5.73     880.7878     56.23785      126.948        10     1.454     0.636 -40.39   0
       499    278.9411    183.2977 307.8195309  +6.6172533     25276.63     46483.02     50389.18     79.72299     159.5094     319.1775      1.960     5.25     885.3027     56.23785     3263.562        69     1.986     1.157 -31.58   0
       500     24.1491    181.7395 307.9254572  +6.6093040     3721.373     7050.227     8057.905     79.97648     159.5094     319.0506      2.013     6.20     893.0208     56.23785     456.7599        35     1.935     0.966 -32.37   0
       501    710.6285    179.9479 307.6402562  +6.6331415     6829.048     12167.12     13420.71     79.72298     159.6997     318.9554      1.856     5.53     871.9678     56.23785     966.3082        36     1.840     0.951 -31.32   0
       502    188.2963    181.2102 307.8572679  +6.6150603     728.4713     1396.539     1436.348     79.72299     159.1919     318.8285      2.110     5.18     887.3387     56.23785     107.0931         9     1.547     0.490 -32.58   0
       503    264.7270    178.3398 307.8256059  +6.6188199     674.3308     963.3399     1007.023     80.10293     159.5729     319.0823      1.740     5.49     885.6966     56.23785     103.6996        10     1.356     0.627 -28.97   0
       504    121.3625    177.0326 307.8852230  +6.6145267     3977.319     7249.064     6889.863     79.59594      159.319     318.8285      1.867     5.52     889.0372     56.23785     545.8516        34     1.831     1.002 -30.97   0
       505    582.6155    175.6391 307.6935994  +6.6306241     696.9427     1197.945     1413.769     79.59594     159.3825     318.8285      1.795     5.46     871.8724     56.23785     86.85175         9     1.373     0.613 -36.78   0
       506    460.4839    174.3560 307.7443954  +6.6270505     1134.071     2014.867     1871.968     79.97648     159.5729     319.0506      1.811     6.03     873.0412     56.23785     186.8555        14     1.714     0.596 -32.95   0
       507    392.0444    173.0073 307.7728812  +6.6253055     3084.603     6380.164     6877.587     79.46869     159.3825     318.7332      2.101     5.13     876.4863     56.23785     357.0586        38     1.815     1.248 -40.03   0
       508    649.3013    174.1301 307.6659385  +6.6334848     656.8311     1174.061     865.2136     79.84984     159.6997     319.0506      1.810     3.79     871.9843     56.23785     142.1083         6     1.278     0.322 -38.65   0
       509    356.5544    171.9380 307.7876652  +6.6245525     2712.719     4985.843     5295.815     79.84984     159.5094      319.114      1.980     5.76     878.9611     56.23785     345.7674        25     1.646     0.923 -31.49   0
       510    110.8713    171.7547 307.8897621  +6.6163501     1416.176     2575.777     2536.375     79.97648     159.5729     319.0506      1.957     6.30     889.2308     56.23785     196.1393        22     1.846     0.842 -31.55   0
       511    672.3627    170.0607 307.6564928  +6.6359373     785.5558     1366.847     1320.964     79.97648     159.6363     319.0506      1.794     4.08     871.9144     56.23785     159.1231         8     1.188     0.484 -25.12   0
       512    747.2128    168.9937 307.6254236  +6.6388872     571.0844     878.0253      794.069     79.59594     159.3825     318.9237      1.477     3.81     871.0804     56.23785     89.46368         5     0.831     0.501 -39.28   0
       513   1002.8705    166.3441 307.5192679  +6.6485378     1304.673     2307.212      2239.79     79.97648     159.5094     319.0189      1.882     6.50     863.9853     56.23785     169.6171        16     1.508     0.785 -22.30   0
       514    208.3994    160.8372 307.8496073  +6.6241427     4681.808     8426.822     8974.464      79.0857     159.3825     318.8602      1.923     5.76     886.9459     56.23785     609.8477        35     1.839     0.985 -34.70   0
       515     91.0588    160.8371 307.8983665  +6.6201856     1581.611     3323.717     3503.791     79.97648     159.6363     319.0823      2.218     6.34      889.641     56.23785     202.9729        24     1.767     0.960 -32.13   0
       516    670.1881    159.7076 307.6577470  +6.6401356     5210.039     9169.162     9450.298     79.72299      159.319     318.8602      1.837     5.70     871.6207     56.23785     689.7817        31     1.805     0.881 -33.01   0
       517    818.5748    159.2681 307.5960964  +6.6452906     891.2473     1644.402     1641.694     79.59594      159.446     318.9554      1.858     6.30     869.0615     56.23785     141.6268        12     1.587     0.702 -30.79   0
       518    622.3284    156.9766 307.6777284  +6.6396565     8089.654     14579.13     16547.62     79.59594      159.446     319.0506      1.917     5.34     871.5206     56.23785     1119.141        42     1.920     0.988 -33.40   3
       519    625.8982    148.4655 307.6765332  +6.6432876     44938.32      80336.4     86528.38     79.97648     159.6363     319.0823      1.920     5.62     871.1829     56.23785      6119.48        80     1.974     1.131 -30.82   2
       520     21.1512    156.2575 307.9275711  +6.6197151     900.1669     1707.314     1941.728     79.97648     159.5729     319.1775      2.205     5.83     893.1591     56.23785     134.6368        10     1.481     0.646 -58.94   0
       521    349.4698    152.6397 307.7912646  +6.6322756     3188.257     6064.608     6730.621     79.84984     159.5729      319.114      1.989     5.83     879.4763     56.23785     412.6193        32     1.959     0.941 -35.40   0
       522    531.1019    152.2591 307.7157989  +6.6385397     1491.198     2773.823      3305.37     79.72299     159.5094     319.1775      1.926     6.60     871.2874     56.23785     207.4119        22     1.783     0.828 -27.04   0
       523    995.5670    151.5907 307.5228010  +6.6543804      721.385     1352.503     1755.086     79.46869     159.3825     318.8919      1.960     6.85      863.691     56.23785     82.99701        12     1.641     0.801 -30.71   0
       524    305.0392    142.1681 307.8100837  +6.6351000     2979.797     5600.112     6283.132     79.59594     159.3825     318.8919      2.015     5.85     883.5723     56.23785     420.5181        32     1.835     1.017 -29.15   0
       525    705.1910    136.6176 307.6439823  +6.6508355     840.3398     1469.675     1160.653     79.72299      159.319     318.8919      1.880     6.08      870.216     56.23785     118.7533        11     1.364     0.763 -26.35   0
       526    639.5972   1021.6498 307.6412888  +6.2835016     1322.147     2057.545     2057.984     79.34123     151.9047     270.7653      1.709     5.31     900.8229     56.23785      184.314        16     1.536     0.690 -29.09  16
       527    676.2621    135.7211 307.6560349  +6.6502352     1172.193     2093.933      2240.69     80.10293     159.6363     319.0823      1.910     6.24     870.4819     56.23785     155.6874        15     1.764     0.620 -29.72   0
       528    690.2349    132.5658 307.6503349  +6.6520056      2663.22     4752.333     4704.241     79.72299      159.319     318.7967      1.857     5.24     870.1935     56.23785     415.8521        28     1.804     0.871 -32.40   0
       529    432.0502    123.4230 307.7579395  +6.6471071     3517.718     6083.955     5937.033     79.59594     159.6363     318.9554      1.807     5.11     872.6108     56.23785     465.3852        29     1.724     0.902 -35.17   0
       530    886.8408    119.7352 307.5690622  +6.6638859     1814.917     3531.832      3565.72     79.97648     159.5094     319.1775      1.997     5.66       866.03     56.23785      283.505        20     1.714     0.801 -41.01   0
       531    904.5721    118.9506 307.5617196  +6.6648030     3472.715     5822.014     5569.354     79.59594     159.6363     318.9872      1.761     5.05     865.4415     56.23785     471.0191        25     1.637     0.864 -27.79   0
       532    584.4866    118.6569 307.6947527  +6.6541953      589.431     1176.372     1221.525     79.97648     159.5729     319.1775      2.227     7.28     870.3223     56.23785     115.0876         9     1.756     0.845 -33.88   0
       533    596.7734    117.3135 307.6896921  +6.6551620     1516.899     2716.787     2746.004     80.10293     159.3825     318.9237      1.945     6.26     870.2157     56.23785     184.9562        21     1.808     0.810 -41.07   0
       534    395.5303    115.3827 307.7733889  +6.6491958     1688.535     2821.693     2596.928     79.46869      159.446     318.9554      1.798     5.45     874.9934     56.23785     226.0599        18     1.548     0.738 -34.80   0
       535    243.0287    116.3395 307.8367303  +6.6436669     783.7355      1323.69     1893.124     79.59594     159.5729     318.9872      1.920     4.66      885.767     56.23785     135.0045         8     1.252     0.491 -20.22   0
       536    143.3582    112.0930 307.8782932  +6.6420589     2671.967     5021.056      5385.77     80.10293     159.5094     319.1458      1.998     6.11     886.0139     56.23785     324.6844        27     1.767     0.901 -30.55   0
       537    291.5644    110.9398 307.8167444  +6.6475294     1221.908     2220.551     2819.522     79.97648     159.5729     319.0189      2.133     5.73     884.7698     56.23785     169.6938        17     1.637     0.750 -46.93   0
       538     25.2083    109.9563 307.9274628  +6.6389531     10158.83     18696.29     20653.55     79.46869     159.3825     318.7967      1.987     5.42     891.8028     56.23785     1293.106        49     1.924     1.089 -30.85   0
       539    759.6899    109.3897 307.6222548  +6.6638956     546.7939     1140.665      1633.32     79.72299     159.2554     318.8602      1.734     5.61     868.1337     56.23785     87.59979         8     1.809     0.490 -28.61   0
       540    564.6169    109.8107 307.7033099  +6.6571777     601.5841     1066.078     1051.352     79.72299     159.2554     318.9237      1.788     4.92     870.1479     56.23785     79.09491         7     1.539     0.445 -28.41   0
       541    552.6077    109.3528 307.7083162  +6.6569633     719.6799     960.5981     860.7919     79.46869      159.446     318.6697      1.486     4.17      870.182     56.23785     97.34766         7     1.134     0.438 -28.50   0
       542    827.0705    104.6446 307.5944123  +6.6681106     5158.413     9190.941     10272.99     79.97648     159.5729     319.0506      1.913     5.65     866.6785     56.23785      725.144        32     1.755     0.927 -30.81   0
       543    772.0240    104.9883 307.6172777  +6.6661248     2815.526     5036.837     5457.734     79.59594     159.3825     318.9872      1.806     6.07     867.7255     56.23785     411.5146        21     1.735     0.745 -32.51   0
       544    416.9865    105.6702 307.7648021  +6.6539244     986.5382     1634.609     1508.816     79.46869      159.319     318.9237      1.738     5.82     872.5866     56.23785     156.7449        12     1.467     0.653 -25.80   0
       545    534.6689    102.8583 307.7159914  +6.6590401     935.7037      1649.08     1724.786     80.10293     159.5094     318.9872      1.913     6.56      870.204     56.23785     136.9857        16     1.657     0.732 -36.12   0
       546     65.5490    101.7642 307.9109784  +6.6436946     2692.255      4897.73     4871.047     79.84984     159.5729     318.9554      1.909     5.46     888.8238     56.23785     319.0851        29     1.737     1.032 -33.20   0
       547    426.9414    101.4528 307.7608082  +6.6559991     872.8982     1417.114     1741.011     79.97648     159.5729     319.0506      1.949     6.25     872.1926     56.23785     134.8121        10     1.422     0.866 -35.31   0
       548     49.7593    102.9062 307.9175009  +6.6426904     752.5392     1071.124      634.381     80.10293     159.5094     319.1458      1.573     4.66     889.9403     56.23785     125.6596         8     1.235     0.499 -25.12   0
       549    589.7280     98.4807 307.6932582  +6.6626951     1188.753     2013.924     1938.689     80.22917     159.8264     319.0823      1.743     5.47     869.6586     56.23785     172.6953        14     1.546     0.599 -32.87   0
       550    766.5569     92.4915 307.6199725  +6.6710973     1695.294     2745.986     3036.561     79.97649     159.5729     319.1458      1.805     5.44     867.3127     56.23785     233.6346        20     1.717     0.740 -36.32   0
       551    407.5823     92.5897 307.7691542  +6.6590045     941.8212     1697.026     1594.416     79.72299     159.2554     318.9237      1.999     5.80     873.3552     56.23785     128.3556        13     1.573     0.603 -37.22   0
       552     80.7301     93.1430 307.9049636  +6.6477635     792.4993     1399.165     1424.841     80.10293     159.5729     319.0189      1.832     4.63     887.4227     56.23785     128.6335         8     1.158     0.526 -31.71   0
       553    104.8079     91.3665 307.8950184  +6.6493090     801.6436     1485.591     1860.494     79.46869     159.3825     318.8602      2.138     5.90     886.1038     56.23785     121.7542        11     1.615     0.606 -30.23   0
       554     93.3511     86.0794 307.8999594  +6.6511035      7892.47     14408.33     15943.47     79.97648     159.6363     319.0506      1.970     5.55     886.3336     56.23785     995.2829        50     1.941     1.107 -32.40   0
       555    422.6683     85.7630 307.7631165  +6.6623282     2253.885     3671.989     3524.803     79.84984     159.5729     319.1775      1.707     4.33     872.1679     56.23785     311.9175        21     1.498     0.831 -28.97   0
       556    636.0629     78.1885 307.6746894  +6.6726220     15256.94     27420.71      28815.1     79.46869     159.3825     318.8602      1.884     5.68     868.4974     56.23785     2106.651        50     1.899     1.010 -33.52   0
       557    260.3727     79.9624 307.8307595  +6.6592584     1090.412     1987.764     2021.807     79.59594     159.3825     318.8919      1.932     6.55     885.1159     56.23785     143.2545        16     1.620     0.744 -37.00   0
       558    535.7720     74.2670 307.7165024  +6.6708725     4257.681     7719.325     8045.364     79.72299     159.5094     319.0189      1.908     5.53      869.065     56.23785      572.756        33     1.823     0.943 -31.04   0
       559    254.1172     74.6229 307.8335406  +6.6612504     1632.928     2928.392     4066.334     79.84984     159.2554     318.9872      2.142     6.36     885.0903     56.23785     225.2864        21     1.582     0.932 -26.07   3
       560    261.9773     70.2534 307.8304228  +6.6633179     7567.974     13982.01     15360.62     79.46869     159.5729     318.8602      1.943     5.44     884.9658     56.23785     1006.769        38     1.902     0.989 -33.46   2
       561      3.7507     72.2657 307.9376638  +6.6537772     1175.444     1900.621     1360.047     79.84984     155.5909     276.4249      1.568     6.30     890.8549     56.23785     163.6692        14     1.621     0.688 -40.07  24
       562    623.6427     72.0787 307.6800581  +6.6747258     738.4316     1486.775     2130.325     79.84984     159.5729     319.0823      2.222     6.42     868.3773     56.23785     113.0692        10     1.716     0.675 -23.90   3
       563    622.3215     67.9725 307.6807463  +6.6763755     2635.147     4897.893     5562.979     79.84983     159.5094     319.0506      1.936     6.04     868.2415     56.23785     343.8735        27     1.812     0.846 -31.97   2
       564    507.6909     71.7655 307.7282574  +6.6709611     535.4373     774.7969     912.9473     80.10293      159.446     319.0506      1.675     4.24     869.6319     56.23785     90.01965         5     0.927     0.553 -38.48   0
       565    441.3676     69.8465 307.7558856  +6.6695234     18980.47      34381.2     36879.38     79.72299     159.5729     318.9554      1.914     5.50     871.5438     56.23785     2482.732        53     1.906     1.095 -30.38   0
       566    919.4015     69.8780 307.5572142  +6.6855448     1742.757     3007.086     2434.885     79.21357      159.001     318.8602      1.779     5.78     863.0652     56.23785     249.8997        19     1.648     0.748 -33.95   0
       567    321.9424     70.6592 307.8054890  +6.6651699     807.6033     1536.676     1418.593     80.10293     159.5094     319.0823      1.798     5.73     882.1876     56.23785     125.8052        12     1.710     0.542 -21.32   0
       568     27.6189     69.8104 307.9278290  +6.6555961      1975.42     3647.806     3692.369     79.59594     159.2554     318.9237      1.932     6.09     889.3403     56.23785     227.1851        26     1.761     0.933 -38.02   0
       569    249.9263     66.8759 307.8355457  +6.6643052     2547.634     4643.529      5512.63     80.22917     159.8264     319.0823      1.903     5.52     884.9954     56.23785     374.8893        25     1.797     0.826 -34.42   0
       570    303.4160     64.9579 307.8133818  +6.6668982     905.8871     1772.884     2123.239     79.46869      159.319     318.8285      2.440     6.87     883.6616     56.23785     115.0612        16     1.522     0.870 -50.80   0
       571    939.8038     60.2410 307.5490602  +6.6902032     836.1958     1295.009     1132.736     79.21357      159.319     318.8285      1.677     5.74     861.7417     56.23785     131.4329        12     1.690     0.550 -23.56   0
       572    691.1497     59.5600 307.6524262  +6.6821554     1629.187     2635.402      2499.09     79.97648     159.5729     318.9872      1.809     6.43     867.5775     56.23785      219.603        17     1.450     0.801 -33.19   0
       573     96.6177     59.5707 307.8995046  +6.6621496     586.9416     903.2439     1132.199     79.59594     159.3825     318.9872      1.564     4.82     885.0793     56.23785     80.35852         6     1.005     0.654 -67.18   0
       574    202.3425     55.2988 307.8557140  +6.6674777     585.9614     1001.644     429.5414     79.72299     159.5729     319.2409      1.703     3.96     884.7166     56.23785     105.1319         6     1.147     0.391 -12.75   0
       575    179.5089     52.2886 307.8653055  +6.6679497     9030.223     16325.37     17270.58     79.97648     160.0795     319.1458      1.930     5.48      884.487     56.23785      1170.02        47     1.935     1.049 -32.65   0
       576    256.9850     54.0825 307.8330472  +6.6698209     739.4309     1330.179     1651.838     79.59594      159.319     318.9237      1.660     5.90     884.7693     56.23785     90.88226        11     1.247     0.784 -29.33   0
       577    925.0394     50.1803 307.5555363  +6.6938599     3516.416     6149.922     6583.972     79.59594     159.3825     318.7967      1.852     6.16     861.9846     56.23785     473.0087        26     1.757     0.829 -33.54   0
       578    523.6645     50.4339 307.7223423  +6.6802982     2452.657     4260.364     4396.524     79.84984     159.5729     319.0506      1.865     5.86     868.4185     56.23785     330.2012        24     1.739     0.867 -31.45   0
       579    461.9849     48.9404 307.7480267  +6.6788414     1448.119     2563.578     2155.288     79.46869     159.5094     318.7967      1.787     5.39     870.5591     56.23785     194.8998        18     1.688     0.693 -31.39   0
       580    726.1024     48.4810 307.6382746  +6.6878982      1736.22     2911.854     2477.197     79.84984     159.8897      319.114      1.713     6.10     867.1615     56.23785     241.2737        18     1.617     0.751 -28.64   0
       581    989.9908     46.4105 307.5286686  +6.6975875     1708.371     3009.233      3164.51     79.59594     159.3825     318.9872      1.891     6.22     857.7915     56.23785      229.283        18     1.636     0.735 -35.44   0
       582    709.2884     42.8009 307.6454550  +6.6896777     6401.261     11227.63     11471.08     79.21357     159.0647     318.7967      1.822     5.67     867.0986     56.23785     815.0018        36     1.816     0.919 -30.44   0
       583    629.5225     41.9446 307.6786353  +6.6873551     3117.765     5593.218      5791.29     79.97648     159.5729     319.0823      1.848     5.76     867.2442     56.23785      428.657        24     1.697     0.848 -29.31   0
       584    331.7390     41.3864 307.8024123  +6.6775761       841.26      1565.16     1889.709     79.46869      159.446      318.765      1.868     5.27     881.4457     56.23785     105.0043        11     1.687     0.465 -29.03   0
       585    385.1764     40.0381 307.7802500  +6.6799308     628.2745     1058.278     1360.839     79.59594      159.319     318.8285      2.147     4.55     876.1389     56.23785     128.7806         7     1.486     0.396 -34.37   0
       586    429.6552     38.3509 307.7618222  +6.6821230     5282.334     9491.947     10094.67     79.97648     159.5729      319.114      1.875     5.69      871.779     56.23785      659.449        34     1.827     0.978 -31.55   0
       587     30.6174     37.8060 307.9276734  +6.6689003     7144.741     12880.53     13346.54     79.59594      159.319     318.8919      1.871     5.26     886.9281     56.23785     933.8116        38     1.819     1.009 -31.58   0
       588    676.8608     37.2301 307.6591208  +6.6908884     736.1115      1108.35     856.9058     79.72299     159.5729     319.0189      1.570     4.71     867.0059     56.23785     111.4516         8     1.268     0.497 -42.99   0
       589    506.0127     35.0411 307.7302004  +6.6860554     627.5757     1087.001     1258.835     79.34123     159.3825      318.765      2.278     6.17      868.552     56.23785     114.6177         7     1.726     0.621 -37.67   0
       590    326.2703     33.2127 307.8049627  +6.6807640      10839.2     19946.22     21428.92     79.46869      159.319     318.9237      1.941     5.43     881.8794     56.23785      1408.32        48     1.890     1.085 -33.08   0
       591     99.9853     33.6667 307.8989872  +6.6729496     2264.269     4241.574     4990.214     79.46869      159.446     318.9872      2.056     4.98     884.0794     56.23785     288.0648        26     1.584     1.158 -30.73   0
       592    419.7191     35.0109 307.7660649  +6.6831668     531.0115     860.7324      1346.13     79.59594      159.319     318.8919      3.254     5.39     872.2051     56.23785     81.72186         6     1.429     0.574 -78.75   2
       593    422.3194     33.6388 307.7650309  +6.6838203     546.9612     996.9752      1214.89     79.97648     159.6363     318.9872      2.164     4.07     872.1159     56.23785     104.9189         5     0.787     0.653 -74.20   3
       594     91.6004     32.3528 307.9025165  +6.6732087     1351.974     2309.778     2960.146     79.21357     159.2554     318.6062      1.893     5.86     884.1933     56.23785     167.2987        13     1.499     0.666 -34.79   0
       595    795.0433     31.7712 307.6101872  +6.6971024      785.187     1215.596     1128.714     79.59594     159.6363     318.9554      1.599     5.16     863.7726     56.23785     104.2298         9     1.216     0.619 -24.48   0
       596    392.4574     31.1139 307.7775271  +6.6838574     1956.767     3430.693     3470.234     79.97648     159.5729     319.2092      1.857     5.44     875.3311     56.23785     254.8553        21     1.628     0.857 -32.27   0
       597    462.3791     30.3328 307.7484943  +6.6865312     473.1572     899.5068     773.4631     79.59594     159.5729     318.9872      1.386     4.13     870.2957     56.23785      78.8667         5     1.201     0.405 -76.32   0
       598    653.2206     26.6813 307.6693031  +6.6944473      9167.71     16439.13     18052.53     79.72299     159.2554     318.9872      1.898     5.76     866.7148     56.23785     1150.289        41     1.826     1.003 -29.61   0
       599    817.9106     26.1191 307.6008743  +6.7002003     1429.714     2760.302     3033.598     79.72299      159.763     319.1458      2.074     5.53     862.8981     56.23785     235.8199        18     1.783     0.866 -38.56   0
       600    530.9637     26.2525 307.7201287  +6.6905195       1088.1     2141.806     2599.581     79.84984     159.5729     319.0823      2.092     7.20     867.2007     56.23785     153.0616        19     1.826     0.826 -34.47   0
       601     71.9396     27.0880 307.9108663  +6.6747170     576.2772     993.8091     1045.398     79.84984      159.763     319.1458      1.863     3.94     884.6999     56.23785     95.34723         5     1.354     0.328 -31.46   0
       602    888.1464     24.0985 307.5717510  +6.7033856     1291.064     2334.068     2104.093     79.84984     159.5729     319.2726      1.770     5.38      861.601     56.23785       208.72        18     1.693     0.721 -33.89   0
       603     63.9230   1021.0173 307.8803670  +6.2644049     696.3235     1259.467     1353.842     79.46869     157.0799     279.4835      1.750     5.10     904.6183     56.23785     117.2123         8     1.411     0.520 -29.56  16
       604    482.8597   1018.8648 307.7064726  +6.2793908     1859.371     3255.612     3339.298     80.10293     159.5094     304.0092      1.823     5.57     903.4371     56.23785      278.978        22     1.725     0.823 -27.02  16
       605    917.2315   1010.9897 307.5263504  +6.2971966     34107.38     65716.81     72354.77     79.46869      159.319     318.8919      2.047     5.01     895.7252     56.23785     4068.659        83     2.034     1.291 -29.90  16
       606    224.3717   1009.3274 307.8141376  +6.2746337     1525.267     2453.021     2820.357     79.84984     159.5729     318.9872      1.825     6.54     903.7114     56.23785     206.7041        18     1.543     0.778 -29.17   0
       607    730.2957     20.7795 307.6374694  +6.6994672      1637.83     2665.051       2687.1     79.84984     159.3825     318.8602      1.724     5.10     866.6134     56.23785     242.8624        18     1.505     0.798 -29.76   0
       608    654.2899     18.0948 307.6691496  +6.6980256     2690.983     5029.732     6471.186     79.97648     160.0795      319.114      2.129     5.72     866.4285     56.23785     393.1136        27     1.731     0.953 -25.81   1
       609    193.4832     18.9759 307.8606315  +6.6821637     1145.059     2191.204     1899.772     79.84984      159.319     318.9872      2.012     6.04     884.0096     56.23785     141.9802        13     1.254     0.818 -24.69   0
       610    112.3797   1007.8275 307.8606939  +6.2714799     518.3331      878.973       753.15     79.59594     159.3825     318.9872      1.534     2.72     904.1907     56.23785     96.39117         5     0.728     0.445 -70.33   0
       611    623.9912   1006.8351 307.6482708  +6.2890903     790.5661     1345.848     1834.848     79.46869     159.3825     318.8602      1.640     5.50     900.9438     56.23785     123.8719        10     1.262     0.675 -34.96   0
       612    815.4777   1004.7297 307.5688196  +6.2963749     1871.092      3532.48     4101.296     80.22917     159.8264     319.0189      2.087     5.72     896.3295     56.23785     225.2817        25     1.650     1.054 -25.97   0
       613    763.4620   1002.6127 307.5904928  +6.2955066     5521.995      10325.5      11943.5     79.46869     159.3825      318.765      2.049     5.25     898.0055     56.23785     653.4028        41     1.943     1.063 -33.65   0
       614    550.4006   1002.1503 307.6789904  +6.2885542     773.3169     1432.506     1771.391     79.21357     159.1919     318.6062      2.024     5.78     902.5367     56.23785     118.4751        12     1.514     0.695 -31.31   0
       615    232.8104   1001.5781 307.8108964  +6.2781148     1377.036      2245.26     2791.424     79.59594      159.319     318.9237      1.782     4.99      903.733     56.23785     205.3991        16     1.487     0.690 -31.61   0
       616    951.7051    997.7725 307.5124792  +6.3038024     5567.545     10433.69     10591.68     80.10293      159.319     318.9554      1.997     4.92       894.26     56.23785     629.3484        40     1.851     1.137 -29.63   0
       617    197.1087   1000.9698 307.8257427  +6.2771637     679.6207     1206.387     1485.425     80.10293      159.319     319.0189      1.782     4.60     903.7071     56.23785     111.5088         6     1.393     0.431 -18.80   0
       618     57.8888    999.7249 307.8835969  +6.2729855     2289.688     3819.211     3511.503     79.97648     159.8897     319.1458      1.767     5.58     904.2778     56.23785     324.0003        23     1.705     0.844 -32.26   0
