#   1 NUMBER                 Running object number                                     
#   2 X_IMAGE                Object position along x                                    [pixel]
#   3 Y_IMAGE                Object position along y                                    [pixel]
#   4 ALPHA_J2000            Right ascension of barycenter (J2000)                      [deg]
#   5 DELTA_J2000            Declination of barycenter (J2000)                          [deg]
#   6 FLUX_APER              Flux vector within fixed circular aperture(s)              [count]
#   9 FLUXERR_APER           RMS error vector for aperture flux(es)                     [count]
#  12 FLUX_RADIUS            Fraction-of-light radii                                    [pixel]
#  13 FWHM_IMAGE             FWHM assuming a gaussian core                              [pixel]
#  14 BACKGROUND             Background at centroid position                            [count]
#  15 THRESHOLD              Detection threshold above background                       [count]
#  16 FLUX_MAX               Peak flux above background                                 [count]
#  17 ISOAREA_IMAGE          Isophotal area above Analysis threshold                    [pixel**2]
#  18 A_IMAGE                Profile RMS along major axis                               [pixel]
#  19 B_IMAGE                Profile RMS along minor axis                               [pixel]
#  20 THETA_IMAGE            Position angle (CCW/x)                                     [deg]
#  21 FLAGS                  Extraction flags                                          
         1    977.1343     17.2175 307.5283753  +6.6978533     1856.834     2899.842     2737.656     80.30466     161.1874     322.2786      1.681     4.90     884.8333     56.82945      255.217        15     1.319     0.760 -40.89   0
         2    696.3342     13.7306 307.6451824  +6.6899065       7070.8     11177.47     11941.35      80.8178     161.3156     322.4069      1.715     4.37     894.5708     56.82945     911.9838        32     1.582     0.968 -40.91   0
         3    616.5989     12.9598 307.6783428  +6.6875543     3598.351     5992.032     6238.794     80.04687     160.9949     322.1503      1.752     4.50     895.4768     56.82945     473.3645        27     1.523     0.963 -44.97   0
         4    318.8992     12.2759 307.8020732  +6.6778467     775.5555      1313.02     1611.157     80.30466     161.3796     322.3427      1.774     4.33     910.0258     56.82945     146.6602         7     1.220     0.438 -48.80   0
         5    416.8212      9.2597 307.7614846  +6.6823815     6014.846     9651.117      9812.14     80.43326     161.1874     322.3107      1.699     4.40     902.3611     56.82945     773.4421        30     1.510     0.988 -40.37  16
         6    663.7473      7.9161 307.6589196  +6.6912161      875.354     1109.015       793.32      80.8178     161.2515     320.6068      1.499     4.83     894.8058     56.82945     133.4502         9     1.019     0.648 -31.20   0
         7    492.7245      5.7944 307.7300601  +6.6863597     767.3497     1320.913      1221.97     80.43326      160.738     303.8245      1.834     4.86     897.9971     56.82945     108.0927         9     1.171     0.572 -69.35  16
         8    313.3837      4.1465 307.8046394  +6.6810179     12196.76     20089.24     20920.67     80.30466     159.9646     284.4653      1.755     4.34      910.376     56.82945     1521.564        44     1.630     1.113 -45.59  24
         9     17.7417      8.7007 307.9273325  +6.6691856     8032.731     13119.22     14172.29     80.56165     161.2515     322.5351      1.747     4.36     909.2174     56.82945     963.2843        35     1.566     1.049 -47.17  16
        10     86.9199      4.2414 307.8987386  +6.6733581     2355.117     3884.109     4584.075      80.8178      160.545     286.0233      1.814     4.76     910.2452     56.82945     328.1533        20     1.408     0.925 -40.35  16
        11     78.1579      3.2555 307.9024127  +6.6734700     1473.322     2566.466     2976.119     80.68982     153.0307     272.6298      1.843     5.28     909.9808     56.82945     195.4702        17     1.492     0.793 -43.20  24
        12    781.6295      3.0618 307.6100955  +6.6971658     733.8047     991.6407     934.3566     80.56164     151.0595     269.8101      1.404     4.90     892.7342     56.82945      117.497         9     1.126     0.605 -29.70  16
        13    379.4748      2.2849 307.7772388  +6.6840071     2273.102     3194.848     2981.127     80.17587     141.9599     258.1434      1.588     5.24     905.7934     56.82945     278.7417        18     1.410     0.831 -31.00  24
        14    448.8145      1.6528 307.7484463  +6.6865963     482.1614     529.2275      533.956     74.00932     133.0149     247.6408      0.909     2.45     900.3292     56.82945     103.9741         5     0.724     0.440  18.43  24
        15    254.8124   1001.2131 307.7953419  +6.2673637     908.6196     1235.322     273.2852     80.68982     160.9307     322.3427      1.510     5.80     931.8807     56.82945     123.4104        12     1.228     0.772 -42.20   0
        16    186.2068   1023.1653 307.8230865  +6.2559939     458.1133      522.863     954.8997     75.80291     135.4784     250.5863      1.324     3.49     932.1086     56.82945      70.9035         5     1.030     0.342 -45.50  24
        17    898.9832    998.1103 307.5279723  +6.2902198     8065.904     13602.51     14383.67     80.56165     160.9949     322.3107      1.783     4.18     923.1492     56.82945     959.1768        39     1.655     1.113 -39.28   0
        18    530.3808    997.3616 307.6810522  +6.2782001     8045.452     12828.19     14018.16     80.43326     161.0591     322.1503      1.742     4.31     930.1124     56.82945     1036.124        34     1.576     0.979 -40.18   0
        19    872.6104    994.2360 307.5390531  +6.2909390     11605.27     19814.54     21381.74     80.30466     161.0591     322.1824      1.848     4.23     923.5125     56.82945     1375.875        50     1.753     1.173 -34.21   0
        20    585.5003    994.6022 307.6582580  +6.2811859     1302.475     2325.013     1959.348     80.30466     160.9949     322.1183      1.831     5.55     928.2314     56.82945      213.254        14     1.468     0.665 -42.82   0
        21    994.3678    993.5928 307.4885159  +6.2952683     4254.232     7515.844     7603.122     80.30466     161.1233     322.2145      1.885     4.34     920.0886     56.82945     496.6754        34     1.638     1.104 -32.45   0
        22    516.6558    993.1541 307.6868926  +6.2794775     4064.905     6579.507     7639.645      80.8178     161.2515     322.4069      1.825     4.51     930.2646     56.82945     507.4384        29     1.537     1.023 -37.38   0
        23    626.1845    992.6685 307.6414298  +6.2833466     1355.019      2110.45      1954.55     80.30466     161.1874     322.3107      1.624     4.31     927.1661     56.82945     199.2001        17     1.327     0.971 -63.98   0
        24    469.9532    989.7548 307.7063988  +6.2793156     2086.734     3146.534      3134.71      80.8178     161.1874     322.4389      1.573     4.48     930.8135     56.82945      269.296        20     1.473     0.869 -33.58   0
        25     51.4988    992.0545 307.8800662  +6.2643076      757.812     1442.004     1225.634     80.68982     161.2515     322.6312      1.598     4.66      929.512     56.82945     106.2552         8     1.385     0.446 -29.52   0
        26    781.8445    990.7209 307.5768602  +6.2893578     561.6133     979.0869     1405.973      80.8178     161.2515     322.4069      1.717     4.28     924.2556     56.82945     87.11859         7     1.640     0.318 -39.73   0
        27    904.4113    981.7927 307.5262648  +6.2971388     40546.66     68768.98     73076.84     80.43326     161.0591     322.3107      1.842     4.13     922.4114     56.82945     4869.493        75     1.739     1.281 -38.06   0
        28    211.4971    979.8850 307.8140457  +6.2747144     1792.994     2777.344     2528.487      80.8178     161.6356      322.471      1.614     4.62     931.6039     56.82945     237.6799        19     1.430     0.946 -30.98   0
        29    610.6754    978.1495 307.6483574  +6.2888224     917.0595     1193.854     1194.391      80.8178     161.3156     322.4069      1.470     5.37     927.1824     56.82945     151.3405        11     1.319     0.721 -47.56   0
        30     99.7764    978.9188 307.8604652  +6.2713561     701.1771     1113.307     1495.604     80.56164     160.9307     322.3107      1.785     5.14     929.6542     56.82945     105.9751         7     1.125     0.663 -28.38   0
        31    802.4010    975.6302 307.5688304  +6.2962760     2273.949     3579.769     4033.247     80.17587     161.0591     322.2145      1.632     4.32     923.6236     56.82945     310.2042        20     1.433     0.871 -42.11   0
        32    750.5767    973.4169 307.5904242  +6.2954576     6603.975     10786.13     12135.22     80.56165     161.1233     322.3107      1.820     4.33     924.6058     56.82945     807.8161        39     1.669     1.119 -46.20   0
        33    219.8175    972.6829 307.8108339  +6.2779678      1561.99     2468.635     2757.796     80.43326     160.9307     322.3427      1.714     3.80     931.5911     56.82945     245.2528        15     1.224     0.834 -40.61   0
        34    537.4376    973.1785 307.6789349  +6.2884219     755.3417     1008.637     1068.801     80.43326     160.9949     322.1824      1.584     4.27     929.6843     56.82945     121.3052         7     1.101     0.473 -40.13   0
        35    184.3701    971.9838 307.8255756  +6.2770648     750.6791     1294.264     1013.761     80.43326     160.9949     322.3427      1.539     4.98     931.3104     56.82945      110.947         9     1.521     0.461 -42.84   0
        36     44.8344    970.4576 307.8835627  +6.2730004     2643.413     4270.332     4298.166     80.68983     161.2515     322.4069      1.736     5.24     929.5038     56.82945     353.2653        25     1.612     0.895 -37.31   0
        37    938.7678    968.5829 307.5124408  +6.3037402     6283.075     10728.04     10578.75     80.43326     161.0591     322.2786      1.839     4.29     921.1151     56.82945     746.3043        36     1.603     1.124 -35.82   0
        38    195.2953    964.3505 307.8212968  +6.2805839     779.3533     1053.672     960.2381     80.68983     161.1233     322.5671      1.404     5.41      931.282     56.82945     121.9782        10     1.280     0.720 -39.78   0
        39    621.0563    963.0060 307.6445555  +6.2954229     675.8433     1028.058     957.1592     80.30466     161.1233     322.1183      1.867     4.20     926.9159     56.82945     123.4607         6     1.161     0.433 -55.58   0
        40    912.4606    960.4830 307.5236361  +6.3062067     1986.031     3424.434     3976.838     80.94558     161.2515     322.4389      1.875     4.60     921.4093     56.82945     242.2897        24     1.483     1.026 -46.49   0
        41    633.3179    956.1362 307.6396947  +6.2986700     4518.837     7121.271     7131.002     80.94558     161.3156     322.4069      1.668     4.18     926.6517     56.82945      563.304        31     1.565     1.009 -36.25   0
        42    245.5417    956.3168 307.8007047  +6.2855898     4334.768     6816.626     7243.936      80.8178     161.2515      322.471      1.708     4.45     931.4745     56.82945     541.3102        27     1.548     0.978 -41.30   0
        43    771.7535    956.7199 307.5821907  +6.3030600     1283.813      1999.08     2003.993      80.8178     161.2515     322.4069      1.559     4.89     923.8996     56.82945     180.8062        12     1.222     0.671 -42.86   0
        44    455.2317    954.7759 307.7136882  +6.2932649     1067.056     1667.476     1711.397     80.17587     161.1233     322.2145      1.642     5.79     930.0441     56.82945     154.3133        14     1.474     0.689 -47.10   0
        45     14.1103    953.7206 307.8968848  +6.2788764     2114.749     3670.522      4044.38     80.56165     161.5077      322.503      1.881     4.64     929.4615     56.82945     309.9223        23     1.567     0.923 -41.54   0
        46    864.9423    952.5418 307.5436342  +6.3078990      895.981     1442.882     1625.786      80.8178     161.1874     322.4389      1.757     5.27     921.8605     56.82945     113.2275        10     1.282     0.612 -35.46   0
        47    282.0323    949.8868 307.7857698  +6.2894707     699.1209     1300.785     1296.468      80.8178     161.0591     322.4069      1.996     5.47     931.4203     56.82945     108.1483         6     1.205     0.699 -66.99   0
        48    989.2711    949.3340 307.4921134  +6.3133736     618.3176     1240.884     1616.521      80.8178     161.3156     322.4069      2.432     5.89     918.6484     56.82945      118.776         7     1.502     0.651 -68.56   0
        49    936.6358    949.6135 307.5139612  +6.3115018     648.9647     1073.972     1071.616     80.30466     161.0591     322.1824      1.823     5.49     920.4891     56.82945     92.15253         7     1.179     0.721 -55.45   0
        50    557.9039    948.5634 307.6712640  +6.2992714     1829.115      2675.89      2470.37      80.8178     161.1233     322.5351      1.582     4.99     928.8559     56.82945     240.2593        16     1.358     0.806 -41.25   0
        51    596.9716    945.1360 307.6551567  +6.3019951      1069.13      1705.63     1780.363     80.43326     161.2515     322.3427      1.596     6.21      927.397     56.82945     177.1604        14     1.548     0.699 -35.93   0
        52     46.7048    945.7840 307.8836196  +6.2832509     779.2263     1395.952     2237.185     80.56165     161.0591     322.2786      2.542     5.13     929.5065     56.82945     88.67651         9     0.942     0.790   4.38   0
        53     42.0371    944.5236 307.8856002  +6.2836141     479.1888     1074.046     1826.316     80.68982     161.3156     322.4389      1.779     3.95     929.4997     56.82945     78.82983         5     1.325     0.336 -49.48   0
        54    276.9820    942.8183 307.7881050  +6.2922196     1471.913     2387.154     3171.985     80.56165     160.9949     322.3427      1.882     4.33     931.3571     56.82945     199.1064        15     1.355     0.725 -39.40   0
        55    743.9045    938.7833 307.5943566  +6.3095351     938.7217     1575.299      1255.76     80.68982     161.0591     322.2466      1.638     6.43     923.8473     56.82945     136.5237        13     1.485     0.782 -47.47   0
        56    881.4452    935.4904 307.5373526  +6.3154910     6846.367     11009.95     11531.35      80.8178     161.1874     322.5351      1.752     4.35     920.8522     56.82945      846.647        34     1.596     1.039 -43.69   0
        57    417.4070    932.5192 307.7301432  +6.3011862     2026.884     3279.592     3662.856     80.43326     160.8023     322.2466      1.685     4.84     929.8917     56.82945     285.6693        17     1.483     0.718 -32.57   0
        58    318.9659    931.0115 307.7710700  +6.2985047     9108.662     14606.59     15145.97     80.30466     161.0591     322.2145      1.668     4.29     931.1516     56.82945     1292.194        37     1.609     0.983 -41.04   0
        59    239.1096    929.8325 307.8042684  +6.2963090     6798.452     10752.84      11279.3     80.94557     161.0591     322.4069      1.689     4.35     931.2398     56.82945     917.1437        35     1.704     0.952 -35.63   0
        60    751.8245    924.1861 307.5915575  +6.3158274     733.3407     1160.267     1162.694     80.56164     161.0591     322.3427      1.453     4.67     923.4265     56.82945     161.6447         8     1.268     0.489 -63.65   0
        61    566.9212    924.7642 307.6683195  +6.3094004     1114.147     1659.841     1694.907     80.68982     161.3156     322.4069      1.519     6.13     928.2085     56.82945     151.5609        12     1.256     0.841 -30.42   0
        62    897.2066    920.7066 307.5313027  +6.3221218      973.178     1463.658     1199.677     80.43326     160.9307     322.2466      1.629     5.56     920.2075     56.82945     140.0936        14     1.394     0.912 -32.97   0
        63    853.7899    919.2228 307.5493818  +6.3212845     696.5918     1298.844      1238.85     80.43326     160.9949     322.2466      1.716     5.02     921.0403     56.82945     131.1075         9     1.360     0.525 -47.81   0
        64    130.6226    919.2479 307.8496718  +6.2970317     531.3238     510.7576     121.5787     80.43326     161.2515     322.2786      1.260     3.51      929.898     56.82945     86.36218         5     0.794     0.447 -73.35   0
        65    964.5914    916.2098 307.5034707  +6.3262278     649.2007      909.975     1053.196     80.30466     161.0591     322.3107      1.558     3.49     918.3939     56.82945     86.80676         5     0.785     0.448 -71.76   0
        66    733.3131    913.6304 307.5995987  +6.3195669     1580.142     2577.692     2983.377     80.94558     160.9949     322.3107      1.841     4.51     923.4853     56.82945     266.3551        17     1.390     0.892 -45.66   0
        67    597.6027    910.3275 307.6560642  +6.3163890     902.4414     1465.647      585.504     80.30466     160.8023     322.2466      1.642     5.37     926.7652     56.82945     119.2634         9     1.217     0.668 -26.30   0
        68     63.1932    911.9122 307.8779175  +6.2977914     1030.212     1007.183     1229.691     80.30466     160.9307     322.1503      0.548     0.83     929.4766     56.82945     617.6599         5     0.653     0.281   2.80   0
        69    964.8606    909.1135 307.5035965  +6.3291669     1156.766     1964.574      2688.33     80.94557     161.3796      322.503      1.981     5.14     918.1989     56.82945     173.7535        15     1.423     0.768 -50.24   0
        70    518.4211    909.3878 307.6889760  +6.3141244     1175.573     1777.383     1378.192     80.43326     160.9307     322.2786      1.672     5.76      928.701     56.82945     154.5383        13     1.325     0.706 -37.31   0
        71    652.1178    906.8403 307.6335436  +6.3196541      2519.03     3975.773       4249.9      80.8178     161.3156     322.3427      1.633     4.37     925.1223     56.82945       327.84        21     1.356     0.928 -41.37   0
        72    942.3098    904.6316 307.5131113  +6.3302650     688.3906     995.3143     978.7651     80.94558     161.0591     322.4389      1.475     4.43     918.7785     56.82945     107.2358         7     1.012     0.552 -58.35   0
        73     48.6943    903.0761 307.8842362  +6.3009516      2727.27     4438.719     4861.888     80.56165     161.4437     322.4069      1.737     4.88      929.438     56.82945     352.3099        24     1.651     0.871 -44.90   0
        74    812.7850    903.6207 307.5669327  +6.3263569     930.9063     1495.991     1390.892     80.56165     160.9949     322.3107      1.912     4.95     921.9292     56.82945      139.171        11     1.293     0.722 -30.90   0
        75    929.8423    902.4642 307.5183612  +6.3307439     753.9948     1398.861     1340.987      80.8178     161.1874     322.4389      1.959     5.87     919.0364     56.82945     92.86395         9     1.428     0.680 -63.03   0
        76    192.2667    902.0347 307.8246563  +6.3062121      2190.66     3525.592     3281.001     80.68982     161.3156      322.471      1.733     4.49     930.4428     56.82945     304.3196        18     1.478     0.814 -36.79   0
        77     66.0746    902.4302 307.8770414  +6.3018034     1896.026     2859.777      3107.17     80.68982     161.2515     322.4389      1.663     5.84     929.4486     56.82945     245.3162        16     1.377     0.753 -36.55   0
        78    646.7178    896.1146 307.6361462  +6.3239021     6813.785     10531.74     11684.46     80.56165     161.5077      322.503      1.657     4.37     924.8882     56.82945     912.0073        31     1.556     0.983 -41.91   0
        79    331.3495    897.8456 307.7670452  +6.3126148     766.6746     1352.135     1800.494     80.94557     161.1233      322.471      1.680     4.96     930.6167     56.82945     129.0051        10     1.400     0.498 -45.41   0
        80    226.0913    898.5615 307.8107284  +6.3087833     760.5604      995.748     1281.276     80.94557     161.1874     322.4389      1.514     3.87     930.7974     56.82945     148.9017         6     1.326     0.324 -40.89   0
        81    784.4426    896.4978 307.5789412  +6.3283507     723.3859     996.4922     1350.622      80.8178     161.1233     322.6312      1.471     4.67     922.2704     56.82945     131.7089         8     1.173     0.527 -51.99   0
        82      6.7102    894.0775 307.9019729  +6.3032533     1174.077     1794.026     1471.573     80.56165     161.5077     312.4442      1.536     4.36     929.3874     56.82945     176.2213        13     1.244     0.744 -36.99  16
        83    884.6304    892.2446 307.5374787  +6.3334543     2648.289     4116.192     4395.938     80.43326     161.3156     322.2466      1.690     4.28     919.8191     56.82945     359.7589        21     1.421     0.903 -36.22   0
        84     19.8863    892.5312 307.8965542  +6.3043355      1003.85     1663.895     1617.713     80.94557     161.5077     322.4389      1.740     4.08     929.3933     56.82945     137.7456        11     1.109     0.771 -33.67   0
        85    329.7415    889.1556 307.7680057  +6.3161489     16120.44     25268.21     26280.52     80.68982     161.1874      322.503      1.669     4.31     930.4845     56.82945     2221.969        45     1.630     1.017 -38.12   0
        86     64.5973    889.7539 307.8780829  +6.3069876     1390.865     1973.502     1787.388     80.17587     160.9307     322.0541      1.476     6.12     929.4109     56.82945     175.6556        15     1.429     0.737 -49.45   0
        87    200.6337    888.8942 307.8216254  +6.3119191      1099.26     1924.438     1822.053     80.94557     161.1233      322.503      1.699     4.72     930.3912     56.82945     181.3645        16     1.571     0.659 -38.70   0
        88    379.6615    888.5690 307.7472964  +6.3180669     672.7837     1175.437     1461.614     80.56165     161.3156     322.3427      2.057     4.66     929.8796     56.82945     89.51489         7     1.273     0.484 -39.30   0
        89    659.2012    881.3078 307.6314595  +6.3304338     658.0479     1007.112     1581.561     80.17587     160.8665     322.1503      1.667     3.90     923.9332     56.82945     112.6432         5     1.086     0.494 -55.58   0
        90    407.4660    879.9996 307.7360390  +6.3225383     1021.227     1671.898     1574.366     80.04687     160.8023     322.1503      1.648     5.80     929.3327     56.82945     146.1128        12     1.333     0.712 -45.59   0
        91     93.1092    879.7405 307.8665821  +6.3120818      1666.38     2749.815     3201.117     80.68982     161.2515      322.503      1.707     6.07      929.389     56.82945     245.3173        15     1.478     0.717 -44.74   0
        92    488.1044    876.9778 307.7026552  +6.3264905      595.603     829.4946      715.884      80.8178     161.0591     322.2466      1.249     4.59      928.831     56.82945     105.3733         7     1.135     0.526 -76.88   0
        93    875.1686    874.2010 307.5420126  +6.3405888     1864.204     3107.746     2867.558     80.17587     161.0591     322.1824      1.712     4.56     919.7742     56.82945     232.6421        23     1.557     0.967 -36.27   0
        94    660.9941    876.0846 307.6308904  +6.3326506     792.3629      1316.48     2015.247     80.30466     160.9307     322.1824      2.054     4.12     923.6664     56.82945     135.0972         9     1.251     0.634 -16.42   0
        95    845.4729    873.7134 307.5543609  +6.3397982     2053.496      3163.71     3479.911     80.94558     161.5717     322.4069      1.633     4.34     920.4131     56.82945     272.8624        18     1.385     0.818 -39.58   0
        96    808.8721    872.9996 307.5695843  +6.3388700     2837.718      4515.17     4879.682     80.17587      160.738     322.2786      1.680     4.55     920.9712     56.82945     362.1537        21     1.469     0.868 -42.43   0
        97     76.5702    873.3152 307.8736667  +6.3141781      2543.17     3906.723     4255.952      80.8178     161.0591     322.2786      1.672     4.22     929.3605     56.82945     336.2224        19     1.420     0.773 -38.89   0
        98    544.8135    864.3807 307.6795296  +6.3335926     328580.6     512833.2     537676.7     80.56165     160.9949     322.3107      1.692     4.49     926.7935     56.82945     43644.78       166     1.762     1.232 -41.03   0
        99    439.1666    871.2620 307.7231693  +6.3272095     551.8618     772.4558     1051.516     80.56165     161.3156     322.3427      1.644     3.45     929.0468     56.82945     77.49359         5     0.986     0.349 -43.77   0
       100    324.5141    871.1838 307.7707819  +6.3233941      735.152     1005.262       1006.2     80.43326     160.9949     322.3107      1.428     4.58     930.2563     56.82945     106.1614         8     0.931     0.641 -33.76   0
       101    632.3813    867.5556 307.6430588  +6.3352145     1106.131     2001.371     2153.036     80.43326     161.1233     322.1503      1.782     6.11     924.5415     56.82945      146.229        16     1.522     0.830 -53.92   0
       102    389.0283    866.9420 307.7441350  +6.3273111     7490.844     11974.23     12952.85     80.43326     161.3156     322.3107      1.682     4.23     929.4047     56.82945     1064.397        35     1.592     0.995 -42.97   0
       103    332.2769    865.3229 307.7677558  +6.3260747     12341.25     19337.69     19624.75     81.07315     161.5077      322.503      1.691     4.54     930.0923     56.82945     1668.584        40     1.591     1.004 -41.05   0
       104    650.7036    861.7408 307.6356454  +6.3382289     3432.482     5352.249     5433.375     80.68983     161.2515      322.503      1.673     4.51     923.5908     56.82945     437.2147        23     1.450     0.901 -37.57   0
       105    882.9308    860.5664 307.5392459  +6.3464780     5046.025     8448.128     9058.684     80.68982     161.2515      322.471      1.847     4.63     919.2151     56.82945     615.0179        35     1.695     1.075 -22.90   0
       106    722.6197    858.3593 307.6058940  +6.3420315     818.9763     1036.397     677.7136     80.43326     161.0591     322.1503      1.460     3.52     922.4848     56.82945     143.7619         7     0.925     0.552 -59.27   0
       107    625.4762    855.5790 307.6463287  +6.3399286     3185.387     5081.313     5415.859     80.43326     160.9949     322.3427      1.696     4.61     924.4105     56.82945     420.1463        23     1.562     0.862 -40.79   0
       108   1016.6259    854.8176 307.4839166  +6.3533136     4554.517     7316.854     7256.645     80.43326     161.0591     322.1183      1.721     3.89      915.506     56.82945     543.7075        29     1.468     1.062 -30.68  16
       109    814.1313    854.6896 307.5680142  +6.3466062     1723.354      2791.62     2891.524     80.94557     161.4437     322.4069      1.695     5.02     920.4261     56.82945     210.5543        16     1.351     0.766 -34.74   0
       110    617.8245    851.3687 307.6496476  +6.3414109     1776.129     3786.939      4274.42     80.30466     161.1233     322.2145      2.319     8.35     924.4622     56.82945     283.6535        26     2.341     0.832 -59.17   0
       111    940.5114    853.8499 307.5155586  +6.3511737     715.9835     947.4248     914.8365      80.8178     161.0591     322.5351      1.556     5.17     917.1207     56.82945     99.32782         8     1.081     0.697 -51.91   0
       112    312.2433    849.3498 307.7766131  +6.3319972     1023.083     1624.025     1452.604     80.94558     161.2515     322.4389      1.749     4.68     930.1653     56.82945     148.2693        11     1.278     0.821 -68.70   0
       113    901.9513    848.4720 307.5317522  +6.3521071     3284.906     5302.653     5419.083      80.8178     161.3156     322.4389      1.705     4.35     918.0972     56.82945      406.459        26     1.533     0.963 -39.33   0
       114    360.1969    844.2891 307.7568704  +6.3356969     2477.307     4083.658     4474.166     80.30466     160.9307     322.0862      1.810     4.99     929.4866     56.82945     291.6893        22     1.441     0.908 -44.25   0
       115    328.2998    836.9343 307.7703638  +6.3376629     410.4004     544.1393     263.6584      80.8178     161.3796     322.3748      1.423     3.83     929.8296     56.82945     84.08429         5     1.505     0.279 -49.20   0
       116    496.5110    833.9498 307.7006115  +6.3445389     3052.167     4587.952     4583.338      80.8178     161.0591     322.5351      1.631     4.21     926.4672     56.82945     393.8871        22     1.430     0.837 -41.00   0
       117    841.1976    833.2747 307.5574919  +6.3563532     1111.041     1817.354     2526.473     80.30466      160.738     322.2786      1.672     4.16     919.3948     56.82945     150.9618        13     1.234     0.699 -39.43   0
       118    561.8472    831.9000 307.6735479  +6.3475749     743.4125     1125.615     1373.121      80.8178     161.1233     322.6312      1.582     4.64      924.889     56.82945      134.032         9     1.362     0.582 -29.94   0
       119    543.3268    830.2202 307.6812955  +6.3476480      5979.15     9410.969     10275.66     80.43326     161.1874     322.3427      1.680     4.29     925.1976     56.82945     794.0911        31     1.615     0.939 -34.86   2
       120    550.3606    829.3252 307.6784046  +6.3482532     1345.046     1905.644     2098.759     80.68983     161.2515     322.4389      1.557     4.27     924.9996     56.82945     202.4645        13     1.253     0.688 -47.29   2
       121    255.0216    830.2867 307.8010174  +6.3379461     741.5767     1467.285     1191.522      80.8178     160.9949     322.2786      2.156     6.48     930.1982     56.82945     129.6842        10     1.858     0.634 -35.92   0
       122    461.0151    829.2793 307.7155091  +6.3452772     1573.816     2165.374     1985.207     80.43326     160.9949     322.2145      1.536     4.43     927.1784     56.82945     224.4288        15     1.316     0.735 -39.14   0
       123    878.9395    828.0641 307.5419926  +6.3597654     1305.086     2061.181     1998.834      80.8178     161.1874     322.4389      1.659     4.63     918.2034     56.82945     200.5323        15     1.232     0.883 -37.91   0
       124    102.8597    828.3024 307.8642703  +6.3336485     1585.136     2553.968     2761.674     80.56165     161.2515     322.5351      1.706     5.37     929.2863     56.82945     202.5994        16     1.453     0.793 -24.38   0
       125    513.8992    824.0849 307.6937225  +6.3491950      19504.3     30138.58     30956.28      80.8178     161.7634      322.471      1.648     4.35     925.4856     56.82945     2634.639        44     1.589     1.015 -38.48   0
       126    679.1620    827.0015 307.6249938  +6.3535255     632.7558     957.8396     521.6385     79.91766     161.0591     322.1824      1.594     3.97     922.2695     56.82945     87.57446         6     0.973     0.463 -51.29   0
       127    354.9344    825.2235 307.7596979  +6.3433925     634.4851     1121.179     1370.246     80.43326     161.2515     322.3427      2.050     5.21     929.2796     56.82945     119.6395         8     1.498     0.741 -38.67   0
       128    927.4055    822.5439 307.5220498  +6.3636630     3701.533     5799.319     6080.977     80.30466     161.1233     322.1183      1.671     4.71     916.2914     56.82945     470.7661        24     1.497     0.885 -38.37   0
       129    160.9775    823.5946 307.8402957  +6.3375476     565.9702       802.83     1091.022     80.43326     160.9949     322.2466      1.464     4.14      929.606     56.82945     72.74176         5     0.792     0.617  86.87   0
       130     47.5191    820.4832 307.8875145  +6.3350140     632.7593     752.4196     535.3629     80.68983     161.5077      322.471      1.469     4.87     929.2341     56.82945     95.68103         6     1.201     0.559 -47.25   0
       131    399.4262    819.9896 307.7413980  +6.3470469     470.0735     646.0646     510.6513     80.43326     161.0591     322.2786      1.271     3.28     928.7823     56.82945     92.21643         5     0.767     0.582  -1.37   0
       132     24.4320    814.5103 307.8973032  +6.3367027     1523.208     2195.514     2373.312     80.94558     161.0591     322.4069      1.624     4.38      929.223     56.82945     216.7239        15     1.221     0.827 -37.00   0
       133    306.6700    812.6533 307.7801641  +6.3469621     2998.038     4713.091     4722.727     80.68983     161.1233     322.3427      1.696     4.45     929.9357     56.82945      414.925        24     1.605     0.873 -35.36   0
       134    772.0619    808.6691 307.5870286  +6.3642026     54146.31     84622.96     88123.62      80.8178     161.2515     322.4389      1.683     4.30     920.3851     56.82945     7621.553        67     1.648     1.093 -39.66   0
       135      6.3156    810.9411 307.9049466  +6.3375662     2058.062     3324.656     3390.367      80.8178     161.2515     308.9516      1.665     4.81     929.2141     56.82945     265.5886        19     1.517     0.763 -33.20  16
       136    415.0921    807.6259 307.7353086  +6.3526776     843.3444     1284.206     536.2914     80.94557     160.9949     322.2466      1.645     5.64     928.5227     56.82945     133.4113        11     1.462     0.612 -32.22   0
       137    229.3201    806.4330 307.8124947  +6.3469316     5067.058     8611.696     10227.48     80.68983     161.2515     322.4069      1.930     4.41     929.9208     56.82945     745.8953        34     1.658     1.002 -40.10   0
       138    897.3618    803.9753 307.5351490  +6.3703273     8444.767     13397.24     13768.42     80.43326     161.0591     322.2145      1.677     4.25     916.6982     56.82945     1080.198        35     1.530     1.077 -40.07   0
       139    700.3516    803.2684 307.6169908  +6.3640342     21039.59     33419.78     35294.38      80.8178     161.1874     322.4069      1.723     4.35     921.5724     56.82945      2742.39        51     1.642     1.102 -36.07   3
       140    694.0237    799.7717 307.6197361  +6.3652664     84828.88     135120.3     142008.7     80.30466     161.1233     322.2466      1.682     4.35     921.6101     56.82945     12319.12        83     1.677     1.132 -39.51   3
       141    338.9283    800.5556 307.7671757  +6.3530406     20286.62      31856.6     33117.05     80.68982     161.2515     322.4389      1.696     4.41     929.2267     56.82945     2705.915        50     1.628     1.060 -37.82   0
       142    400.7875    798.4303 307.7415586  +6.3559945     21630.61     34190.28     35457.43     80.30466     160.9949     322.3427      1.677     4.41      928.376     56.82945     2801.631        46     1.626     1.015 -38.83   0
       143    388.1961    800.8727 307.7467053  +6.3545635     1569.509     2642.204     2597.191     80.30466     160.8023     322.2466      1.751     5.02     928.6785     56.82945     246.0558        16     1.428     0.715 -47.34   0
       144    228.7905    784.9892 307.8134378  +6.3557679     750898.5      1739887      1926729     80.43326     161.0591     322.3748      2.279     7.08     929.2073     56.82945     62738.45       540     2.403     2.001 -45.03   4
       145    867.1289    796.2086 307.5479651  +6.3725246     758.4089     1285.702     1877.612     80.30466     160.8023     322.2786      2.022     5.37     917.5286     56.82945     104.4937         9     1.239     0.656 -37.97   0
       146    634.8613    794.3228 307.6444889  +6.3655362     6347.758     9756.061     10242.34     81.07315     161.3156     322.4069      1.659     4.49     922.0648     56.82945     820.7039        29     1.499     0.933 -39.07   0
       147    125.1562    794.2244 307.8561622  +6.3484694     554.0621     884.0281     1153.548     80.30466     161.1874     322.2786      1.553     4.34     929.2208     56.82945     99.39758         5     0.776     0.690 -37.34   0
       148    423.5456    792.2231 307.7323166  +6.3593211      1747.22     2502.411     2799.047     80.30466     161.2515     322.2145      1.671     5.05     927.4364     56.82945     224.2543        17     1.458     0.760 -41.30   0
       149    148.7238    791.8629 307.8464551  +6.3502373     662.8788     1142.201     896.7866     81.07315     161.2515     322.3748      1.775     4.40     929.3338     56.82945      93.7218         7     0.866     0.635 -61.59   0
       150   1017.6271    786.5779 307.4857844  +6.3815245     743.9641     1133.928     1789.395     80.30466     161.0591     317.3018      1.730     5.08     913.9946     56.82945     136.4314         8     1.646     0.444 -45.27  16
       151    588.4794    786.2686 307.6640217  +6.3673086     936.8113     1368.787     1054.009     80.94558     161.5077     322.3748      1.506     4.18     922.4438     56.82945     152.1321        11     1.207     0.627 -48.38   0
       152    863.0125    786.0647 307.5500147  +6.3765757     813.8599     1297.827     1090.111     80.30466     161.0591     322.3107      1.482     4.50     917.2868     56.82945     105.0457         7     1.120     0.515 -40.30   0
       153    669.9661    784.3634 307.6302446  +6.3708236     2525.286     3896.921      4165.96     80.56164     160.9949     322.1503      1.654     4.17     921.3115     56.82945      353.455        21     1.454     0.870 -40.87   0
       154    139.1202    785.2986 307.8506648  +6.3526246     942.0291     1477.576     1550.829     80.68982     161.6356     322.4389      1.751     5.25     929.1665     56.82945     139.5989        12     1.420     0.689 -44.77   0
       155    114.0058    784.9554 307.8611055  +6.3519213     1071.683     1364.066     1637.454     80.17587     161.0591     322.0541      1.499     4.18     928.9966     56.82945     160.2646        13     1.182     0.779 -43.40   0
       156    403.7596    781.0886 307.7409082  +6.3632547     52656.79     82673.98     86333.59      80.8178     161.1874     322.4389      1.691     4.33      927.213     56.82945     7118.902        70     1.704     1.093 -37.10   0
       157    894.2548    795.3561 307.5367281  +6.3737825     6595.717     10428.25     11278.79      80.8178     161.2515     322.4069      1.704     4.31     916.5364     56.82945     833.2722        34     1.568     1.003 -40.34   0
       158    521.4565    780.1760 307.6920607  +6.3675787     6903.456      10549.6     10964.56     80.43326     161.2515     322.2145      1.652     4.62     923.3989     56.82945      900.293        29     1.538     0.897 -39.84   0
       159    438.4036    778.7073 307.7266012  +6.3654003     4332.443     6891.247     7950.636     80.43326     160.9307     322.1183      1.762     4.21     925.9836     56.82945     581.6505        29     1.606     0.943 -38.28   0
       160    766.6417    776.7481 307.5903505  +6.3772020     11292.72     17622.89     18290.66      80.8178     161.3156     322.4069      1.680     4.42     919.3279     56.82945     1487.962        40     1.637     0.985 -37.93   0
       161    435.0348    772.0137 307.7282256  +6.3680511     2236.892     3389.552       3863.4     80.30466     160.9949     322.2786      1.564     5.23     925.7209     56.82945     349.4099        18     1.452     0.769 -35.43   0
       162    788.2799    771.1821 307.5815507  +6.3802237     1226.975     2031.174     2178.876     80.43326     160.9307     322.3107      1.689     5.29      918.791     56.82945     194.5854        13     1.427     0.654 -40.24   0
       163    937.8296    797.5284 307.5185585  +6.3743404     2127.229      3353.71     3522.838     80.68983     161.2515     322.3748      1.814     4.68     915.2067     56.82945     259.3823        20     1.455     0.870 -39.63   0
       164    124.4581    768.6995 307.8573139  +6.3589850     11248.85     17857.23     19450.59     80.56165     161.2515     322.5671      1.709     4.31     928.7973     56.82945     1469.087        41     1.573     1.072 -38.49   0
       165    132.5597    769.0189 307.8539387  +6.3591257     2986.308     4812.249     5117.195     80.43326     161.0591     322.1183      1.709     4.44     928.8729     56.82945     396.2867        23     1.490     0.903 -31.67   0
       166    116.5483    766.1283 307.8606854  +6.3597805     2718.077     4683.803     5287.953     80.68982     161.2515     322.4389      1.847     4.80     928.6863     56.82945     356.9828        23     1.574     0.876 -43.78   2
       167    116.7658    759.7828 307.8608093  +6.3624078     1856.042     2938.113     3294.272     80.43326     161.0591     322.2466      1.760     4.87     928.5818     56.82945     249.0845        19     1.430     0.809 -42.55   2
       168    912.1522    765.3567 307.5303003  +6.3867674     6276.952      9823.63     10190.32      80.8178     161.1874     322.3427      1.677     4.43     915.2454     56.82945     806.9753        29     1.527     0.944 -36.58   0
       169    961.5380    765.1931 307.5097950  +6.3884834     1439.103     2434.415     2412.616     80.17587     161.0591     322.1824      1.858     5.39     914.5322     56.82945     190.6959        17     1.644     0.756 -24.85   0
       170    232.1870    762.7244 307.8127783  +6.3650751      1178.31     2335.341     4830.241     80.43326     160.9307     322.2145      3.922     6.24     928.2784     56.82945     410.3187        11     1.694     0.645 -62.48   1
       171    667.8064    763.0204 307.6318582  +6.3795641     1743.219     2892.988     3241.991     80.43326     160.9949     322.2145      1.817     4.53     920.3847     56.82945     230.2839        16     1.304     0.856 -40.45   0
       172    554.4131    762.3198 307.6789744  +6.3760561     2229.199     3520.276     3835.281     80.43326     160.9949     322.2145      1.694     5.49     922.1658     56.82945     307.2814        21     1.644     0.798 -30.74   0
       173    402.2350    762.1690 307.7421784  +6.3710156      1258.97     1857.833      2112.77     80.43326     160.9949     322.1824      1.528     4.88     925.9797     56.82945     169.2604        12     1.271     0.704 -36.53   0
       174    686.3683    760.3357 307.6242395  +6.3812938     649.9896     834.0655     792.1235     80.56165     161.3156     322.3748      1.373     5.68     919.9235     56.82945     92.03937         9     1.296     0.702 -33.38   0
       175    966.8066    756.7043 307.5078911  +6.3921644     1660.093     2371.325     2353.961     80.56165     160.9307     322.2145      1.568     4.26     914.4251     56.82945     236.1796        16     1.368     0.784 -43.47   0
       176    935.8165    756.8587 307.5207567  +6.3910664     2998.991     4649.637     4817.398     80.30466     161.1874     322.1503      1.620     4.12     914.6357     56.82945     391.6074        23     1.479     0.866 -29.20   0
       177    906.5298    757.2443 307.5329071  +6.3899295     2861.913     4371.096     5123.869      80.8178     161.2515     322.4069      1.658     3.97     915.1849     56.82945     395.8326        21     1.452     0.825 -35.59   0
       178    658.8826    756.6100 307.6357796  +6.3819123     1320.948     2205.178     2336.311     80.43326     160.9307     322.2466      1.691     4.74     920.3014     56.82945     182.0222        15     1.442     0.696 -40.88   0
       179    806.2650    754.8181 307.5746301  +6.3875818     1037.954     1513.745     1634.351     80.43326     161.2515     322.2786      1.665     4.54     917.8641     56.82945     149.7325        10     1.091     0.627 -46.14   0
       180    231.3320    751.5806 307.8135092  +6.3696477     1758.145     2960.563     3846.879     80.43326     161.1233     322.3427      1.952     4.42     927.8074     56.82945     223.7677        18     1.370     0.861 -47.59   0
       181    881.2942    752.3953 307.5435505  +6.3910890     820.0202     1211.299      1519.33     80.56165     160.9307     322.1503      1.655     4.57     915.6173     56.82945     132.4285         8     1.029     0.578 -20.52   0
       182    668.6110    748.3509 307.6320168  +6.3856482     642.3876     1004.846     364.3984     80.17587     161.1233     322.0862      1.764     5.84     919.6819     56.82945     95.57684         9     1.429     0.672 -46.38   0
       183    924.2612    747.0902 307.5258831  +6.3947143     1015.388     1711.595         2084      80.8178     161.3796      322.471      2.045     5.35      914.619     56.82945     144.5715        10     1.308     0.617 -49.43   0
       184    950.9817    744.7276 307.5148646  +6.3965817     2366.014     3641.145     3466.856     80.30466     161.1874     322.3427      1.597     4.34      914.396     56.82945     307.6066        21     1.482     0.962 -52.74   0
       185    251.6662    747.0472 307.8052176  +6.3722030     760.3062     1156.568     1380.952      80.8178     161.1874     322.4389      1.710     6.02     927.6103     56.82945     114.9639         9     1.393     0.731 -23.47   0
       186    147.1857    746.5113 307.8486247  +6.3689111     853.2434      1420.25     2188.578     80.56165     161.0591     322.2786      1.988     4.95     928.6739     56.82945     124.5132         9     1.283     0.539 -60.93   0
       187    898.0903    745.6201 307.5368017  +6.3944475     1035.506     1638.734     1682.176     80.68982     160.9949     322.2466      1.590     5.20     915.0992     56.82945     151.9142        11     1.201     0.655 -33.34   0
       188    670.3771    743.6805 307.6314401  +6.3876358     1000.342     1519.775     1417.032     80.43326     160.9307     322.3748      1.544     5.15     919.4743     56.82945     153.9647        10     1.325     0.565 -32.33   0
       189   1023.3904    739.3176 307.4849724  +6.4012314     4147.106       4886.3     4546.523     73.72952     132.1575     247.3067      1.184     2.94     914.1143     56.82945     777.6808        16     1.182     0.712 -85.81  24
       190    391.6589    738.4847 307.7473682  +6.3804400     572.6161     938.8524     1530.875      80.8178     161.2515      322.503      2.144     6.61     924.6367     56.82945     96.98596         8     1.329     0.922 -69.28   0
       191    992.5733    738.2065 307.4978088  +6.4006622     1701.574     2682.037     2308.334     80.30466     161.1233     322.2145      1.687     4.96     914.2004     56.82945      213.241        17     1.292     0.866 -40.87   0
       192    794.1063    736.4613 307.5802956  +6.3947552     1166.557     1591.627     1260.814     80.68982     161.2515     322.4389      1.550     4.85      917.399     56.82945      162.273        17     1.440     0.891 -40.52   0
       193    618.2726    737.7058 307.6532804  +6.3883585     589.4241     967.5914     770.7278     80.68983     161.3156     322.4389      1.786     3.77     920.6201     56.82945     118.8948         5     1.311     0.312 -30.59   0
       194    880.1987    733.8656 307.5446264  +6.3987036     1302.464      2175.15     2983.864     80.17587     160.8665     322.1824      1.965     5.77      915.108     56.82945     219.7439        14     1.394     0.674 -26.38   0
       195    854.8494    729.0814 307.5553150  +6.3998323     910.7224     1362.015     1435.086      80.8178     161.2515     322.4389      1.426     5.22     915.5637     56.82945     163.0907        11     1.441     0.622 -41.69   0
       196    837.1641    725.1363 307.5627924  +6.4008705     1405.359      1957.37     2121.365     80.68982     161.1874     322.4389      1.438     3.99     915.9951     56.82945     237.4523        13     1.275     0.661 -47.67   0
       197     36.1744    724.0504 307.8954841  +6.3744484     2345.899     3831.537     4027.205     80.43326     161.3156     322.3107      1.722     4.63     927.8488     56.82945     347.1394        20     1.531     0.824 -47.73   0
       198    100.5090    722.5642 307.8688173  +6.3772281     978.0145     2232.401     2148.634     80.94558     161.1874     322.4389      2.245     8.25     927.7914     56.82945     118.5199        19     1.514     1.256  84.54   0
       199    691.1697    716.1013 307.6237307  +6.3997195     600.4119     715.8777      427.942      80.8178     160.9949     322.4389      1.548     5.43     918.2389     56.82945     87.80212         7     1.370     0.608 -27.75   0
       200    648.7911    712.6510 307.6414474  +6.3997257     6160.936     9354.333      9776.68     80.30466     161.1233     322.0862      1.631     4.49     918.9419     56.82945     869.3685        28     1.570     0.854 -38.15   0
       201    595.6013    711.9885 307.6635605  +6.3982182     1349.065     2102.709     2024.444     80.43326     160.9307     322.2145      1.719     4.85     919.9922     56.82945     213.0638        17     1.575     0.666 -41.31   0
       202    517.1898    712.4488 307.6961106  +6.3954008     671.9095     1195.257      1356.46     80.30466     161.0591     322.0862      1.704     6.25     921.2775     56.82945      117.801        11     1.700     0.646 -31.87   0
       203    506.7130    712.0953 307.7004737  +6.3951955      749.587     1104.408     1080.238      80.8178     161.6356      322.471      1.553     5.12     921.5668     56.82945     122.8043        10     1.245     0.596 -19.09   0
       204    622.6858    708.3530 307.6524339  +6.4006264     2020.005     3290.132     3143.666      80.8178     161.1874     322.4069      1.734     4.95     919.3873     56.82945      292.879        21     1.582     0.841 -44.15   0
       205    111.7582    708.4767 307.8646215  +6.3834233     3516.222     5784.406     6248.798     80.68983     161.2515     322.4389      1.763     4.26     927.5969     56.82945     460.8906        27     1.546     0.958 -41.10   0
       206    985.8539    707.8676 307.5016153  +6.4129656     2590.056     3968.954     3872.753      80.8178     161.1874     322.3107      1.566     3.85      913.019     56.82945      362.615        21     1.431     0.857 -42.04   0
       207    765.6650    704.7848 307.5931707  +6.4068840     20156.72     30832.24     32370.27     80.30466     161.1233     322.3107      1.649     4.25      917.012     56.82945     2668.821        47     1.573     1.046 -38.77   0
       208    299.2491    708.0801 307.7867705  +6.3898913     653.3798     1044.737     788.6005      80.8178     161.3156     322.4069      1.704     3.32     926.1842     56.82945     132.0204         5     0.960     0.332 -45.55   0
       209    234.0919    707.4805 307.8138506  +6.3879493     758.1885      1442.94     1637.576     80.56164     161.5077      322.471      1.908     6.18     926.7319     56.82945     117.0983        12     1.335     0.803  -2.63   0
       210    895.6755    704.5237 307.5391818  +6.4113362     3664.466     5462.912     5251.588     81.07315     161.5077      322.503      1.653     4.21     914.4188     56.82945     511.6862        23     1.498     0.833 -41.85   0
       211    465.0010    704.7908 307.7180430  +6.3968130     1276.108      2007.75      2168.55     80.17587     160.9307     322.1824      1.721     4.70     922.3856     56.82945     193.3302        15     1.441     0.759 -35.35   0
       212    493.7422    704.3807 307.7061202  +6.3979461     883.7371     1099.018     1214.716     80.43326     161.1233     322.2145      1.679     4.53     921.6449     56.82945     145.3219         8     1.161     0.503 -40.10   0
       213    310.6775    704.5912 307.7821418  +6.3917157     713.7731     1139.809     738.5775     80.43326      160.738     322.2466      1.685     4.38     925.8064     56.82945     113.0305         5     1.224     0.446 -58.84   0
       214    267.4120    704.4435 307.8001151  +6.3903231     657.0423     883.5392     579.6188     80.30466     161.1233     322.1183      1.616     4.74     926.4764     56.82945     82.23248         7     1.120     0.568 -46.54   0
       215    239.1683    698.4481 307.8120470  +6.3918495     5828.173     9414.947     9594.074     80.56165     161.2515     322.3107      1.716     4.73     926.5632     56.82945     813.4048        34     1.586     1.002 -41.14   0
       216    646.2411    697.5024 307.6430153  +6.4058954     6954.281     10702.87     11597.33      80.8178     161.1233     322.6312      1.703     4.42      918.513     56.82945     941.3671        33     1.601     0.930 -39.35   0
       217    628.7123    698.5717 307.6502596  +6.4048670     975.8809     1572.796     1983.606     80.94558     160.9949     322.2786      2.095     5.63     918.9234     56.82945     135.3118        13     1.198     0.818 -35.16   0
       218    341.5677    697.4485 307.7695536  +6.3957024     673.9412     845.9443      835.486     80.56165     161.2515     322.3427      1.251     3.95     924.8247     56.82945     116.3048         5     1.153     0.388 -36.89   0
       219    906.0066    690.1599 307.5353722  +6.4176123     1153.585     2017.223     1851.815     80.17587     160.9307     322.0862      1.747     5.87     914.0339     56.82945     186.1288        13     1.432     0.677 -32.36   0
       220    717.8600    686.0216 307.6136554  +6.4130327     3471.341     5702.972     5954.397     80.43326     161.1874     322.3107      1.720     4.28     917.3101     56.82945     430.6217        25     1.442     1.023 -35.83   0
       221    673.1199    686.4985 307.6322214  +6.4113387     949.9836     1775.742     1972.854     80.68982     161.6356     322.4389      2.141     5.99      917.564     56.82945     144.3535        13     1.467     0.689 -28.51   0
       222    984.2346    682.5548 307.5031354  +6.4233636     8699.757     13701.02     14420.03     80.43326     161.1874     322.2786      1.694     4.16     912.0425     56.82945     1137.493        35     1.538     1.016 -35.93   0
       223    922.7148    682.9265 307.5286749  +6.4211569     2506.086     3795.117     3526.609     80.94557     161.5717     322.4389      1.622     4.34     913.6537     56.82945     316.8966        20     1.276     1.017 -48.52   0
       224      3.5777    682.1544 307.9104372  +6.3906488     1933.223     3224.339     3340.234     80.43326     156.0401     276.9175      1.730     4.11     927.6857     56.82945     255.0062        22     1.481     0.982 -32.50  24
       225    536.7512    680.7387 307.6890529  +6.4091498     635.1553     843.9094     438.9687      80.8178     161.1874      322.471      1.746     4.53     919.6128     56.82945      129.219         5     1.206     0.485 -31.52   0
       226    420.5539    680.4969 307.7373205  +6.4053530     620.9337     902.2122     468.3504      80.8178     161.1874     322.5671      1.590     5.01      922.827     56.82945     106.5142         8     1.321     0.824 -63.92   0
       227    203.3502    680.3290 307.8275336  +6.3981266     1262.304     1286.109     1206.979      80.8178     161.1874     322.4389      0.773     1.16     926.5464     56.82945     495.7794         5     0.598     0.434  26.00   0
       228     61.6293    677.3584 307.8864908  +6.3945844     24330.99     38963.04     41044.34     80.43326     161.1233     322.2786      1.722     4.35      927.344     56.82945     3322.797        47     1.618     1.064 -40.54   0
       229    522.8612    678.4498 307.6948988  +6.4096293     1999.803     3201.134     3344.008      80.8178     161.1874      322.471      1.729     4.11     919.8883     56.82945     308.3506        16     1.379     0.723 -32.32   0
       230    491.6269    675.5811 307.7079677  +6.4097667     1349.762     1998.434     1782.652     80.43326     161.0591     322.3107      1.655     5.68     920.6565     56.82945     206.7835        12     1.307     0.696 -34.61   0
       231    912.4503    674.9084 307.5332069  +6.4241250     1051.486     1395.497     1407.541     80.68982     161.1233     322.5992      1.373     4.27     913.7136     56.82945     170.0787        10     1.264     0.625 -34.08   0
       232    531.8319    672.0214 307.6913892  +6.4125843     967.9158     1610.846     1428.717     80.30466     161.0591     322.2145      1.633     5.69     919.4509     56.82945     148.1785        12     1.660     0.549 -55.57   0
       233    707.6231    669.6189 307.6184578  +6.4194631     3438.994     5113.808     5216.309     80.56165     161.1874     322.3427      1.637     4.33     916.9987     56.82945     458.5809        22     1.469     0.812 -39.07   0
       234    729.6523    667.9568 307.6093640  +6.4208864     4124.131     6237.697     5836.823      80.8178     161.2515     322.4389      1.629     4.22      916.887     56.82945     552.2539        25     1.543     0.833 -39.58   0
       235    561.0544    665.8938 307.6794582  +6.4160938     3365.364     5153.454     5579.338     80.68982     161.2515     322.6312      1.614     4.20     918.8199     56.82945     486.4231        23     1.533     0.820 -36.04   0
       236    397.1948    666.3745 307.7474976  +6.4104004     1306.268      1717.83     1824.551     80.30466     161.0591     322.2466      1.550     5.81     922.8672     56.82945     213.1019        14     1.421     0.708 -36.62   0
       237    221.5712    665.3859 307.8204705  +6.4049092     1672.703     2733.409     3362.737     80.43326     161.0591     322.3107      1.842     5.43     926.1445     56.82945     228.9851        20     1.595     0.867 -42.31   0
       238   1002.5450    664.0933 307.4961483  +6.4315976     4896.414      7730.45     7982.385     80.68982     161.2515     322.5992      1.669     4.03     910.8523     56.82945     608.2807        30     1.546     0.965 -40.78   0
       239    305.1878    664.6768 307.7857672  +6.4080121     1418.825     2328.055     1908.451     80.43326     160.8665     322.2145      1.712     4.82     924.9129     56.82945     188.4207        16     1.332     0.845 -36.42   0
       240    967.9426    662.8516 307.5105621  +6.4309558     7960.064     12347.77     12592.87      80.8178     161.2515     322.4069      1.651     4.13     911.8156     56.82945     988.7258        31     1.490     1.000 -35.87   0
       241   1017.4450    661.4777 307.4900470  +6.4331746     687.9808     778.5402     859.5483     80.68983     161.2515     318.4722      1.387     4.92     910.4119     56.82945     98.95502         7     0.993     0.689 -44.82  16
       242    687.6255    661.8036 307.6270261  +6.4220210     924.0067      1336.55      1569.94     80.30466     160.9307     322.2466      1.610     5.25     916.8456     56.82945     122.1686        10     1.311     0.594 -45.25   0
       243    126.4037    656.2729 307.8603021  +6.4054709     23159.85     36976.56     41711.57     80.30466     160.8023     322.2466      1.743     4.38     926.4835     56.82945     3105.726        50     1.659     1.057 -40.16   2
       244     79.6745    659.5314 307.8795990  +6.4025526     766.6139     1370.636     1146.768     80.94558     161.3796     322.4069      1.873     6.42      926.985     56.82945     130.5726        10     1.512     0.766 -29.15   0
       245    413.2417    657.2735 307.7411394  +6.4146968     2753.967     4279.443     4987.392     80.68983     161.3156     322.4389      1.693     4.64     922.1975     56.82945     360.2355        23     1.480     0.906 -41.37   0
       246    795.1320    656.7029 307.5825451  +6.4277229     1151.927     1749.594     1821.925      80.8178     161.3156     322.3748      1.650     3.89     915.2968     56.82945     196.0768        10     1.182     0.598 -34.87   0
       247    346.0390    651.1147 307.7692579  +6.4149839     622.1091       858.92     241.9852      80.8178     161.1874     322.4069      1.280     3.77     923.2056     56.82945     129.5881         7     0.933     0.717 -82.22   0
       248    962.7426    645.9283 307.5132887  +6.4377702     6663.218     11083.54     11925.81     80.94557     161.2515     322.3748      1.811     4.19     911.3467     56.82945     843.2499        37     1.509     1.184 -26.07   0
       249      7.7900    645.0090 307.9099436  +6.4061277     1139.014     1669.988     1672.765     80.30466     161.0591     319.7676      1.605     5.48     927.8141     56.82945     174.5397        14     1.375     0.779 -51.62  16
       250   1018.1511    641.0675 307.4904370  +6.4416259     89814.64     141707.2     147908.1     80.68982     161.1874     313.5009      1.671     4.16     910.1157     56.82945     11465.46        92     1.664     1.191 -37.85  24
       251    556.3686    641.1754 307.6822356  +6.4261432     47018.42     73166.99     76905.06     80.30466     161.1233     322.2145      1.675     4.34     918.5305     56.82945     6109.564        64     1.632     1.090 -38.32   0
       252    920.8574    642.7733 307.5307917  +6.4376749      611.132      1030.22     628.8602     80.43326     161.3156     322.2145      1.783     3.49     912.1725     56.82945     87.48999         5     1.029     0.341 -44.67   0
       253    199.2974    642.8980 307.8304799  +6.4134455      569.572     1174.522     1292.864      80.8178     161.7634     322.2466      2.254     4.61     925.7041     56.82945     113.3229         7     1.480     0.408 -27.61   0
       254    515.6716    641.3242 307.6991337  +6.4247178      883.095     1063.365     963.3645     81.07315     161.5077     322.4069      1.542     5.21     919.2053     56.82945     125.0981         9     1.252     0.614 -33.22   0
       255    781.4890    640.6820 307.5887492  +6.4338821     498.8525     768.7691     640.3772     80.56165     161.4437      322.471      1.532     4.53     915.2927     56.82945     87.04401         6     1.196     0.488 -43.12   0
       256    486.3813    638.0880 307.7114080  +6.4250720     698.6757      1138.97      1117.24     80.56164     160.9949     322.3107      1.580     4.14     919.5939     56.82945     114.8387         7     1.524     0.321 -39.31   0
       257    163.9351    637.8047 307.8453384  +6.4143591     2561.089      4057.79     3243.309     80.17587     160.9307     322.1824      1.651     4.49     925.8296     56.82945     361.2109        20     1.435     0.816 -43.39   0
       258     56.5809    631.9299 307.8901225  +6.4131714     1346.314     2246.282     2733.956     80.43326     161.1233     322.3427      1.848     5.41     926.9659     56.82945     178.3311        14     1.437     0.663 -32.49   0
       259    453.6296    624.9502 307.7254532  +6.4293982     59860.31     94565.52     98950.73     80.43326     161.3156     322.3107      1.692     4.18     919.8719     56.82945     7762.711        74     1.688     1.106 -38.71   0
       260    639.7281    621.9552 307.6482586  +6.4368716     968.2038     1545.079     1521.043     80.68982     161.2515     322.4389      1.784     4.38     916.4418     56.82945     135.3071        12     1.196     0.715 -47.08   0
       261    128.0710    619.9954 307.8608347  +6.4205058     1527.495     2454.714     2127.066     80.43326     160.8665     322.2466      1.655     4.81       925.73     56.82945     205.0979        16     1.400     0.763 -45.65   0
       262    407.3620    617.6757 307.7449149  +6.4308495     856.6063     1496.042     1473.338     80.68983     161.3156     322.4069      1.762     5.42     920.6156     56.82945     129.8511        11     1.508     0.549 -51.01   0
       263    599.6134    616.6060 307.6651001  +6.4377370     827.8742     1276.443     1203.651     80.43326     161.0591     322.2786      1.754     5.67     917.1296     56.82945     127.5693        11     1.515     0.598 -37.86   0
       264    299.0677    614.1075 307.7900138  +6.4286866     1983.316     3078.294     3078.401     80.68982     161.3796     322.4389      1.699     5.13     923.6487     56.82945     250.3851        18     1.460     0.784 -40.47   0
       265      6.9598    614.3992 307.9113233  +6.4187383     403.6338     825.3009     759.5059     79.91766     160.9949     314.0937      1.967     5.00     928.0549     56.82945      71.4931         5     1.258     0.562 -51.14  16
       266    451.3720    612.6951 307.7268034  +6.4343827     901.9676     1447.195     1860.825     80.94558     160.9949     322.3427      1.810     4.87     919.4866     56.82945     112.5492         9     1.187     0.566 -41.34   0
       267    725.6738    608.5209 307.6130118  +6.4452952     5379.096     8040.448     8149.176     81.07315     161.5077      322.471      1.665     4.32     915.4518     56.82945     725.5974        26     1.461     0.909 -39.61   0
       268    779.2698    603.7675 307.5909096  +6.4490504     13625.03     20847.74     21308.06     80.68983     161.2515     322.4389      1.644     4.17      914.548     56.82945     2004.552        38     1.559     0.976 -38.03   0
       269    996.4895    604.3124 307.5006650  +6.4560802     1003.129     1672.635     1674.583     80.56165     161.6995      322.503      1.819     6.52     909.5031     56.82945     111.1658        15     1.384     0.862 -32.55   0
       270    521.5918    603.7402 307.6979392  +6.4404349     1060.233     1771.583     2445.438     80.17587     161.0591     322.1183      1.895     5.80     918.2676     56.82945     139.9282        13     1.526     0.621 -38.56   0
       271   1018.9247    602.8261 307.4913957  +6.4574423     1930.167      3127.92     3005.584     80.43326     161.1233     306.5674      1.768     4.61     909.2139     56.82945      269.631        19     1.522     0.764 -36.88  16
       272    603.1905    601.7723 307.6641130  +6.4439817     2836.867     4343.408     4259.522     80.43326     161.0591     322.2786      1.636     4.44     916.5743     56.82945     438.8945        20     1.420     0.824 -36.14   0
       273    920.2546    598.0898 307.5325393  +6.4561053     1222.633     1991.679     2257.803      80.8178     161.0591     322.5351      1.811     6.46     910.3885     56.82945     170.5583        15     1.445     0.812 -44.00   0
       274    361.6707    595.6121 307.7646357  +6.4384260     878.3038     1362.618     1918.894     80.30466     160.9949     322.2145      2.088     6.34      920.606     56.82945     117.6691        14     1.541     0.828 -53.98   0
       275    215.4476    595.4954 307.8253719  +6.4335610     1274.456      1873.79     2239.322     80.68983     161.1233     322.5671      1.735     6.05      924.157     56.82945     165.1832        14     1.509     0.682 -36.93   0
       276    179.7319    595.8271 307.8401946  +6.4322229     540.7488     1067.795     1710.305     80.43326     161.1233     322.3107      1.873     3.65     924.8212     56.82945     79.08337         5     1.183     0.324  -9.90   0
       277    855.3987    587.0595 307.5598484  +6.4584938     2821.221     4238.603     4553.138     80.17587     160.9949     322.1183      1.587     4.11     912.4521     56.82945     373.5592        21     1.407     0.877 -38.46   0
       278    150.4566    586.9583 307.8526530  +6.4348999     674.3685     917.8953     739.5499     80.68982     161.1874     322.4389      1.524     3.71     925.1064     56.82945     125.1608         6     1.159     0.342 -41.52   0
       279    813.9482    584.3588 307.5771564  +6.4582238     2642.872     4214.259     4114.239      80.8178     161.3156     322.4069      1.722     4.39     913.1982     56.82945     361.7403        20     1.473     0.780 -38.87   0
       280    785.1706    580.3968 307.5892428  +6.4588978     2387.173     3843.293      4798.09     80.30466     160.9949     322.2145      1.886     4.61     913.7266     56.82945     318.2894        20     1.448     0.850 -39.78   1
       281    242.0653    579.2681 307.8148640  +6.4411561     7238.127     12068.45     13067.84      80.8178     161.3156     322.4389      1.794     4.36     922.9258     56.82945     937.6226        38     1.606     1.094 -40.08   0
       282    794.6489    575.6412 307.5854653  +6.4611783     156367.3     238609.3     250131.8      80.8178     161.1874     322.3427      1.677     4.29     913.3678     56.82945      20196.8       115     1.715     1.172 -38.08   0
       283    176.2683    573.8851 307.8423738  +6.4411662     54766.99     89447.27     95413.27     80.94558     161.5077     322.4389      1.763     4.33     924.4692     56.82945     7035.735        82     1.762     1.206 -40.08   0
       284    724.5139    576.0270 307.6145845  +6.4586735     688.7711     1088.851     1658.219     80.94557     160.9949     322.2786      1.351     4.51     914.7654     56.82945      131.163         7     1.116     0.517 -62.95   0
       285    100.3751    570.1118 307.8740225  +6.4401702     5853.262      9523.76     10098.68     80.94557     161.0591     322.2786      1.728     4.19     925.0325     56.82945     722.7463        31     1.539     1.010 -40.49   0
       286    965.3616    567.5267 307.5148268  +6.4702310     1469.967     2225.657     2153.663     80.68983     161.2515      322.471      1.599     5.17     908.2032     56.82945     200.9612        14     1.360     0.733 -30.93   0
       287    986.7072    566.1509 307.5060062  +6.4715114     613.7219     767.7394     514.0381     80.68982     161.1233     322.5351      1.506     4.99     907.3934     56.82945     105.3722         8     1.336     0.528 -41.37   0
       288    214.8250    565.6583 307.8266373  +6.4458597     705.7273     1087.406     1394.613     80.43326     161.2515     322.2466      1.514     2.64     922.9761     56.82945     123.4087         6     0.710     0.620 -63.99   0
       289    831.1104    562.9337 307.5707463  +6.4676441      4150.13     6338.457     6560.474     80.94558     161.3796     322.3748      1.622     4.61     911.9452     56.82945     582.1732        22     1.504     0.798 -37.74   0
       290    349.6529    561.0237 307.7707928  +6.4523040     16259.79     26222.55     28011.75     80.30466     161.2515     322.2145      1.724     4.25     919.7341     56.82945     2108.029        49     1.645     1.109 -35.66   0
       291    440.3473    561.1663 307.7331174  +6.4552894     762.0609     1130.391     1258.971     80.68982     161.2515     322.3427      1.724     4.98     918.6111     56.82945     109.3281         9     1.271     0.552 -43.51   0
       292    151.6456    560.0519 307.8530676  +6.4460494     1823.884     2882.817     2821.577     80.94557     161.1874      322.471      1.719     4.82     924.7797     56.82945     228.5096        18     1.484     0.788 -44.17   2
       293    157.2841    557.3606 307.8508166  +6.4473504      689.792     1065.161      1458.82      80.8178     161.1874     322.3427      1.930     5.23     924.7372     56.82945     97.91992         9     1.362     0.568 -32.02   3
       294    785.1874    556.2831 307.5900449  +6.4688552     5501.095     8538.684     9026.847     80.43326     161.0591     322.2466      1.655     4.52     913.0194     56.82945     734.7057        29     1.524     0.913 -39.65   0
       295    516.0110    555.9145 307.7018662  +6.4599954     6385.584     10267.37     10861.33     80.43326     160.9949     322.2466      1.692     4.13     916.5215     56.82945     864.8904        35     1.568     1.026 -36.90   0
       296    226.7080    557.3382 307.8219825  +6.4496946     776.5278     1255.952     2241.281      80.8178     161.3156      322.503      1.899     4.90     922.1694     56.82945     104.3666         8     1.346     0.506 -40.14   0
       297     89.3105    556.7914 307.8790680  +6.4452976     880.2565     1356.465     1264.788     80.43326     160.9307     322.1503      1.632     5.71     925.0035     56.82945     120.3861        10     1.169     0.787 -56.19   0
       298    374.3769    552.7697 307.7608017  +6.4565423      1257.68      1847.22     1453.193     80.17587     161.0591     322.2466      1.601     4.80     919.1464     56.82945     181.4373        13     1.329     0.716 -44.00   0
       299    163.0733    549.0914 307.8486913  +6.4509595     6219.606     10027.58     10336.82      80.8178     161.3796     322.4389      1.694     4.31     924.5563     56.82945     796.6005        30     1.529     0.992 -38.91   0
       300    560.7814    548.9475 307.6835043  +6.4643727     2357.719     3943.505     4600.467     80.30466     161.3156     322.1824      1.827     4.71     914.5764     56.82945     323.8804        21     1.574     0.794 -33.49   0
       301    258.2380    545.5460 307.8092843  +6.4556236      82561.8     131263.8     137753.9      80.8178     161.3156     322.4069      1.743     4.32     920.8361     56.82945     10739.34        87     1.710     1.195 -40.13   0
       302    801.9066    548.4265 307.5833637  +6.4726583     1303.927     1926.003     2362.098     80.94557     160.9949     322.2466      1.672     5.35     912.2839     56.82945     195.5806        15     1.429     0.739 -46.32   0
       303     34.7187    547.6895 307.9020497  +6.4472172     4734.078     7740.445     7608.249     80.56165     161.4437      322.503      1.723     4.16     926.0358     56.82945     609.4581        30     1.485     1.030 -40.33   0
       304    547.7712    543.0459 307.6891068  +6.4663736     819.3595     1259.997     1653.106     80.30466     161.3156     322.3107      1.767     5.07     914.3524     56.82945     96.45081        10     1.329     0.548 -26.46   0
       305    241.7833    540.7834 307.8162795  +6.4570369     1390.793     2273.473     2472.175     80.56164     160.9307     322.3427      1.710     4.93     921.0558     56.82945      201.475        16     1.319     0.894 -27.52   0
       306    957.7004    539.3276 307.5189537  +6.4816192     1654.498      2476.18     2811.909     80.56165     161.3796     322.4069      1.647     4.94     907.2985     56.82945     197.5363        15     1.353     0.746 -34.82   0
       307    781.3541    538.0270 307.5922498  +6.4762652     15442.41     24184.35     25344.16     80.30466     161.3156     322.3107      1.670     4.45     912.5313     56.82945     1940.308        43     1.603     1.004 -36.55   0
       308    484.9933    536.3882 307.7154071  +6.4670179     37880.98     66131.62     70520.01     80.43326     161.0591     322.3107      1.878     4.73     917.4308     56.82945      4755.54        70     1.773     1.281 -28.88   0
       309    635.6409    534.7517 307.6528867  +6.4727419     1026.583     1540.947     1629.014     80.68983     161.1874     322.2786      1.576     5.45     913.9246     56.82945     179.8717        14     1.532     0.689 -36.13   0
       310    197.4433    532.8182 307.8349650  +6.4588348     1826.327     3203.789     3335.375     80.30466     161.1233     322.1824      1.880     5.27     922.4932     56.82945     247.5229        21     1.651     0.856 -45.76   0
       311     33.4233    533.0845 307.9030814  +6.4532039     1122.059     1785.986     1476.451     80.68982     160.9949     322.3107      1.738     6.27     925.6918     56.82945     132.5957        15     1.471     0.752 -55.23   0
       312    655.0161    531.5126 307.6449474  +6.4747281     1280.589      2190.19     2053.444     80.56164     160.9949     322.2786      1.779     5.55     913.7961     56.82945     177.3997        16     1.507     0.766 -35.07   0
       313    644.9642    531.3312 307.6491289  +6.4744665      2950.81     4589.188     5060.994     80.68982     161.3156      322.503      1.636     4.42     913.7975     56.82945     371.1327        20     1.509     0.752 -36.22   0
       314    707.1255    530.2500 307.6233444  +6.4769936     1216.245     1973.818     2234.708      80.8178     161.3156     322.4389      1.659     5.00     913.6627     56.82945     165.0533        14     1.392     0.702 -29.28   0
       315     64.5251    529.0369 307.8903003  +6.4559227     582.6609     1158.003     1271.827     80.68982     161.3156     322.4389      1.688     3.94     925.0106     56.82945     102.2292         5     1.271     0.349 -43.31   0
       316    382.7746    527.1071 307.7581782  +6.4674203     1688.144     2684.918     2491.045     80.94557     160.9949     322.2466      1.580     4.56     918.0672     56.82945     227.2731        17     1.428     0.735 -42.32   0
       317    314.1914    525.3481 307.7867246  +6.4658434     3784.858     5816.748     5827.657     80.30466     161.1233     322.1503      1.631     4.22     918.6906     56.82945     472.7894        24     1.473     0.886 -39.82   0
       318    857.1487    524.2613 307.5612272  +6.4844826     1458.145     2164.833     2814.814      80.8178     161.1874     322.4069      1.658     5.76     909.7772     56.82945     210.0727        16     1.310     0.890 -38.96   0
       319    494.0794    524.6653 307.7120275  +6.4721631     2018.113     3351.583     3278.777     81.07315     161.3156     322.3748      1.765     4.25      916.396     56.82945     255.6958        22     1.401     0.995 -32.72   0
       320    129.3581    523.9052 307.8635454  +6.4602242     24311.74      39372.3     40829.98      80.8178     161.1874     322.5351      1.724     4.32     924.0385     56.82945     3008.085        47     1.629     1.077 -39.29   0
       321     94.4920    522.1758 307.8780855  +6.4597646     2546.833     3995.886     4175.918     80.94558     161.0591     322.2466      1.693     4.07     924.4056     56.82945     350.5891        22     1.460     0.891 -33.84   0
       322    331.6088    520.2703 307.7796612  +6.4685251     961.4846     1482.882     1777.758     80.30466     160.8665     322.2786      1.574     4.84     918.2701     56.82945     146.2675         9     1.174     0.564 -42.77   0
       323    954.8120    518.6291 307.5208470  +6.4900696     5009.616     7660.026     8102.166     80.30466     161.0591     322.3107      1.637     4.26     906.7147     56.82945     676.0062        27     1.517     0.881 -36.42   0
       324    527.9615    511.0214 307.6984126  +6.4789327     1229.388     2265.003      2806.83     80.43326     160.9949     322.1824      1.903     5.76     914.4347     56.82945     200.8375        14     1.607     0.582 -41.09   0
       325    426.3476    505.0719 307.7408214  +6.4779812     40403.94     64627.49     67572.77     80.68982     161.2515     322.4389      1.721     4.26     916.7805     56.82945     5065.583        65     1.679     1.134 -39.31   0
       326    634.3907    504.7080 307.6544157  +6.4851054     11463.01     17941.75     18357.67     80.43326     160.9307     322.1824      1.682     4.22     913.1745     56.82945     1571.773        37     1.570     0.984 -32.86   0
       327    274.4593    505.1237 307.8039100  +6.4728590     871.8494      1348.69     1079.099     80.94557     161.3156     322.3748      1.728     6.23     918.5008     56.82945     132.8314        12     1.552     0.702 -23.25   0
       328    191.5016    502.6641 307.8384508  +6.4710854     17769.42     30175.47     31738.69      80.8178     161.3156     322.4389      1.851     4.19     921.5574     56.82945      1951.99        51     1.646     1.240 -36.16   0
       329    968.2363    503.0239 307.5157932  +6.4969613     1084.058      1772.01      1577.01     80.43326     161.0591     322.1824      1.888     5.72     905.6216     56.82945     150.4449        15     1.385     0.915 -26.02   0
       330    808.1436    502.6527 307.5823086  +6.4917673     1117.423     1883.164     1667.146      80.8178     161.2515     322.4069      1.665     5.26     910.2265     56.82945     187.1386        14     1.416     0.710 -42.67   0
       331    157.4362    503.5553 307.8525702  +6.4695714     1504.039     2187.677     1476.905     80.56165     161.1874     322.2786      1.558     4.04     922.9195     56.82945     235.7075        14     1.237     0.758 -43.62   0
       332    556.1456    501.4684 307.6870268  +6.4838219     2780.352     4288.554      4454.12      80.8178     161.1874     322.3748      1.670     4.54     913.5629     56.82945     375.1042        21     1.492     0.838 -37.68   0
       333    897.4497    502.1476 307.5452277  +6.4949599      578.084     738.3048     701.1315     80.94558     161.1233     322.4069      1.479     4.31     908.1074     56.82945     106.1686         7     1.225     0.433 -20.78   0
       334    930.0554    498.7261 307.5317978  +6.4974614      4714.59     7238.078     6987.267     80.68982     161.1233     322.3427      1.625     4.23     906.9781     56.82945     635.7925        26     1.474     0.940 -30.89   0
       335    603.1997    497.1477 307.6676263  +6.4871825     5927.627     9358.718     10122.78     80.04687      160.738     321.9578      1.687     4.55     913.1649     56.82945     733.8669        28     1.552     0.926 -35.91   0
       336     90.6141    497.7527 307.8805214  +6.4697182      1096.64      1645.26     2169.679     80.17587     161.0591     322.1824      1.636     5.54     924.1444     56.82945     172.6485        12     1.260     0.784 -40.64   0
       337    203.5327    496.1777 307.8336725  +6.4741683     527.2838     821.5844     482.3349     80.43326     161.1874     322.3748      1.644     4.17     920.8207     56.82945      85.7677         6     1.067     0.464 -28.86   0
       338    952.6649    490.9671 307.5226656  +6.5014200     3443.961     5152.561     5401.893     80.68982     161.2515     322.3748      1.617     4.20     905.7847     56.82945     443.2571        22     1.459     0.846 -36.35   0
       339    515.4369    488.3870 307.7043768  +6.4878587     7083.106     11242.49     11669.98     80.30466     161.0591     322.1183      1.721     4.37      914.066     56.82945      929.734        31     1.551     0.968 -41.80   0
       340    391.3648    489.8213 307.7558662  +6.4831041     615.4434     880.2847     1194.754     80.30466     161.0591     322.1503      1.566     4.43     916.5317     56.82945     99.28821         8     1.109     0.503 -34.39   0
       341    361.3532    488.5893 307.7683740  +6.4826052     2483.254      3855.15     3977.031     80.30466     161.0591     322.0541      1.672     4.64     916.6324     56.82945     310.8889        20     1.489     0.825 -34.23   0
       342    817.2950    489.1530 307.5789600  +6.4976474      396.701     499.5764     212.4476     80.68982     161.1874     322.5351      1.132     3.48     909.5081     56.82945     91.35065         5     0.992     0.352 -45.11   0
       343    871.7910    484.2871 307.5564853  +6.5014777     3144.394     4993.958     5172.995     80.43326     160.9307     322.2466      1.664     4.48     908.4366     56.82945      406.446        23     1.442     0.927 -42.88   0
       344    525.0499    485.0004 307.7004976  +6.4895793     768.8992     1217.104     1450.466     80.04687     160.8665     321.9578      1.706     4.15     913.7565     56.82945     128.4393         7     1.012     0.598 -33.34   0
       345    346.3023    484.6232 307.7747595  +6.4837374     1569.868     1573.873     1552.683     80.94558     160.9949     322.2466      0.794     2.44       916.54     56.82945     489.8618         5     0.613     0.404  35.58   0
       346    219.7633    483.2145 307.8273683  +6.4800666     618.1434     1229.346     821.4541     80.43326     161.0591     322.1824      1.840     4.71      919.749     56.82945     102.1877         8     1.536     0.409  -1.29   0
       347    879.1848    478.6129 307.5536041  +6.5040676     2176.587     3366.094     3756.803     80.68982     160.9307     322.3427      1.685     4.84     908.0417     56.82945     322.1432        19     1.440     0.854 -41.20   0
       348    918.6491    477.6921 307.5372410  +6.5057658     1215.015     1744.436     1313.146     80.68983     161.0591     322.5671      1.548     5.89     906.5692     56.82945     171.8833        14     1.429     0.702 -36.39   0
       349    703.2795    474.5333 307.6268133  +6.4998709      2789.59     4250.553     4424.832     80.94558     161.3796     322.3748      1.637     4.32     911.9048     56.82945     379.6365        19     1.390     0.790 -34.15   0
       350    601.7832    469.4633 307.6691455  +6.4985661     9472.483     14925.15     15921.88     80.30466     161.1874     322.2466      1.703     4.70     912.3702     56.82945      1206.66        40     1.788     1.067 -48.99   0
       351     64.8465    473.6056 307.8920403  +6.4788206     1797.476     3039.996     3435.432     80.17587     161.0591     322.0541      1.792     5.08     923.8379     56.82945     243.4224        20     1.533     0.851 -30.86   0
       352    374.0378    472.8583 307.7636351  +6.4895264       3297.9     5314.152     5403.357      80.8178     161.3156     322.4389      1.681     4.40     915.8339     56.82945     424.0547        24     1.457     0.946 -38.59   0
       353    414.5856    472.6512 307.7467990  +6.4909731     779.7975     1210.075     1107.137     80.17587     161.2515     322.1503      1.676     4.72     915.5017     56.82945     128.6552        10     1.144     0.633 -39.81   0
       354    764.5349    465.9457 307.6016558  +6.5054660     16019.94     24648.35     26277.64      80.8178     161.1874     322.3748      1.674     4.45     910.2941     56.82945     2104.571        44     1.697     0.976 -39.09   2
       355    768.4531    461.1628 307.6001886  +6.5075720     1249.888     1997.998     2630.429     80.68982     161.2515     322.4389      1.916     5.39      909.978     56.82945     188.0856        10     1.402     0.585 -33.87   3
       356    284.3477    466.3480 307.8011104  +6.4892018     2360.251     3721.318     3757.782     81.07315     161.1233     322.4069      1.731     4.70     916.6061     56.82945     340.8792        23     1.525     0.939 -40.26   0
       357    407.9354    465.8246 307.7497915  +6.4935686      653.159     1094.102     706.9979     80.43326     161.2515     322.3427      1.799     5.01     915.0683     56.82945     101.1218         8     1.208     0.587 -28.45   0
       358    793.4587    463.2840 307.5897298  +6.5075322     1332.396     1995.465     1472.126      80.8178     161.2515      322.471      1.651     6.08     909.0916     56.82945     178.1155        15     1.284     0.810 -44.43   0
       359    367.3923    462.9215 307.7667304  +6.4934062     1380.862     2349.091     2514.965     80.43326      160.738     322.1824      1.848     5.44     915.4265     56.82945     192.0212        18     1.527     0.800 -37.89   0
       360    949.7502    460.7512 307.5248888  +6.5137993     2135.579     3012.362      3280.94      80.8178     161.1233     322.3427      1.524     4.12     904.9912     56.82945      278.878        17     1.393     0.731 -37.41   0
       361    698.3896    459.4647 307.6293507  +6.5059293     618.0109     979.1425     1359.056     80.30466     161.0591     322.3107      1.439     4.67     911.1859     56.82945     104.0571         6     1.335     0.463 -39.21   0
       362    355.9426    458.7283 307.7716278  +6.4947531     647.5236     1162.669         1380     80.94557     161.2515     322.3748      1.815     5.48     915.4185     56.82945     114.3541         8     1.290     0.656 -36.33   0
       363    101.9170    457.6805 307.8771806  +6.4866442     4178.738     6955.281     7856.062      80.8178     161.5077      322.471      1.812     4.87     922.8321     56.82945     518.8677        30     1.634     0.980 -31.85   0
       364    740.1104    456.8366 307.6121077  +6.5084103     2296.594     3368.133     3638.887      80.8178     161.1874     322.4389      1.598     3.77     910.8715     56.82945     337.5574        18     1.338     0.798 -41.00   0
       365   1003.8176    455.6324 307.5025995  +6.5177172     3920.511     6806.525     6627.952     80.43326     161.0591     322.2786      1.808     4.70     903.1422     56.82945      435.091        30     1.542     1.110 -22.93   0
       366    259.8846    454.9586 307.8116562  +6.4930822     1286.755     2096.945     2258.262      80.8178     161.1874     322.3748      1.800     5.57     917.1735     56.82945     170.3823        20     1.490     0.905 -45.87   0
       367    337.9384    452.5028 307.7793164  +6.4967190     2700.541     4658.371     4539.824     80.56164     161.3156      322.471      1.830     4.63     915.4467     56.82945     342.8416        28     1.659     0.936 -43.56   0
       368    693.8948    450.4653 307.6315202  +6.5094948     1517.381     2397.411     2389.151      80.8178     161.3796     322.4389      1.614     4.25     910.7833     56.82945     229.6741        15     1.375     0.770 -35.88   0
       369    967.6095    449.4834 307.5178472  +6.5190481     728.4365     1161.687     1957.919     80.43326     160.9307     322.2466      1.729     4.63     904.1202     56.82945     137.5759         7     1.015     0.648 -47.73   0
       370    226.0080    447.9911 307.8259631  +6.4948202     791.0601     1120.528     1075.789     80.17587     161.0591     322.2786      1.547     5.01     918.0446     56.82945      120.609        10     1.085     0.862 -33.78   0
       371    436.3997    444.5921 307.7386826  +6.5032908     436.0956     742.1483      758.936     80.17587     160.9307     322.2145      1.831     4.94     913.0798     56.82945     63.19763         5     1.154     0.599 -57.33   0
       372    535.4615    442.7860 307.6975929  +6.5073590      801.888     1434.991     798.2959     80.30466     161.1233     322.1824      1.782     3.57     911.9543     56.82945     154.8179         9     1.097     0.600 -37.52   0
       373    457.5402    441.3695 307.7300094  +6.5053307     1204.289     2015.384      1809.95     80.56165     161.2515     322.3748      1.786     6.11     912.4799     56.82945     162.0437        14     1.545     0.679 -31.54   0
       374    820.1996    440.4483 307.5793874  +6.5178553     1486.905     2075.336     2296.951     80.04687     160.8665     321.9578      1.627     5.77     907.7451     56.82945     210.0973        13     1.347     0.695 -37.83   0
       375    805.6578    439.4118 307.5854632  +6.5177972     1910.352      2949.65      3244.56     80.17587     161.1874     322.1183      1.768     4.42     907.9006     56.82945     243.3706        17     1.432     0.752 -35.64   0
       376    703.0321    437.6144 307.6281561  +6.5151068     14213.99        22329     23382.22     80.43326     160.9949     322.3427      1.667     4.47     910.2092     56.82945      2060.04        40     1.546     1.035 -37.87   0
       377    624.1687    433.6382 307.6610508  +6.5141084     2563.289     3845.825     4090.651     80.43326     160.9949     322.2466      1.603     4.03     910.7952     56.82945     324.6348        21     1.383     0.867 -38.14   0
       378    605.1817    439.6618 307.6687357  +6.5109852       620.18     1043.891     1124.394     80.43326     161.1874     322.2786      1.939     4.95      911.267     56.82945      115.691         7     1.259     0.550 -42.15   0
       379    618.9863    433.2421 307.6632170  +6.5140984     543.5676     1211.666     1482.542     80.17587     161.0591     322.1503      1.777     3.94     910.8278     56.82945     87.01349         5     0.863     0.514 -49.33   0
       380    599.4683    430.5339 307.6714160  +6.5145628     5075.578     7897.848       8838.8      80.8178     161.3156     322.4389      1.720     4.26     910.9851     56.82945     660.3458        25     1.561     0.870 -39.83   3
       381    595.5417    428.1115 307.6731286  +6.5154315     13819.63     21959.45     22936.02      80.8178     161.2515     322.5351      1.724     4.30     910.9001     56.82945     1717.291        41     1.621     1.033 -37.92   3
       382    928.2838    427.5125 307.5349203  +6.5268074     3742.054     5723.961     5442.149     80.56165     161.4437     322.4389      1.679     4.80     904.6793     56.82945     491.2888        23     1.472     0.851 -37.89   0
       383    367.4583    423.4439 307.7680334  +6.5097088     27197.97      43494.3        45377     80.68983     161.1874      322.471      1.761     4.25     913.5696     56.82945     3559.031        55     1.671     1.113 -40.08   0
       384    404.7028    425.3557 307.7524976  +6.5101698     526.0569     846.4016     785.4506      80.8178     161.1874     322.5671      1.596     4.11     912.3047     56.82945     79.97626         6     1.090     0.443  83.58   0
       385    113.7212    422.8793 307.8734532  +6.5014108      2255.74     3623.896     3609.937     81.07315     161.5077     322.5351      1.719     4.69     921.1681     56.82945     262.0443        24     1.580     0.914 -45.96   0
       386    884.0524    422.9318 307.5534489  +6.5272217      1356.34     2137.349     2865.723     80.68982     161.1874     322.3427      1.756     5.79     905.9181     56.82945     210.9131        14     1.324     0.928 -52.77   0
       387    897.1153    417.9215 307.5481902  +6.5297269     4921.627       7431.5     7236.656      80.8178     161.5716     322.5351      1.578     4.42     905.3373     56.82945     714.0617        25     1.421     0.919 -34.92   0
       388     46.7814    418.4036 307.9014101  +6.5010045     1398.547     2470.896     2252.006     80.43326     160.8023     322.2145      1.810     5.52     922.0684     56.82945     190.5803        18     1.437     0.915 -50.18   0
       389    579.0353    419.4062 307.6802784  +6.5184729     697.5037     909.3217      997.574     80.04687     160.9949     322.1824      1.480     2.79     910.7175     56.82945     118.8974         5     0.849     0.491  -0.03   0
       390    953.2033    415.5597 307.5249685  +6.5325748      569.386     798.9512     802.1329     80.04687     160.9949     322.1183      1.625     4.17     903.6862     56.82945     88.28125         6     1.082     0.459 -61.33   0
       391    224.9805    413.9891 307.8275374  +6.5088249     12772.75     21264.13     22300.95     80.43326     160.9307     322.2786      1.761     4.29     916.6778     56.82945     1613.711        41     1.617     1.086 -39.37   0
       392    719.5154    407.6939 307.6223136  +6.5280129     704.0947     990.7543     1394.291     80.68983     161.6356     322.5351      1.578     5.07     908.8899     56.82945      101.895         8     1.351     0.537 -41.27   0
       393     60.7998    407.5217 307.8959550  +6.5059697     861.7595     1216.226     1931.789     80.04687     160.6093     322.1183      1.656     4.13     921.6249     56.82945     114.6927         8     0.832     0.771 -23.42   0
       394    948.3609    406.3208 307.5272898  +6.5362281     914.0243     1437.176     1256.076     80.68983     161.3156     322.4069      1.797     5.08      903.413     56.82945     140.5648        10     1.300     0.561 -34.39   0
       395    688.1409    406.7177 307.6353802  +6.5273660     755.9045     1152.475     1648.698     80.94558     161.3156     322.4389      1.801     6.06      908.909     56.82945      116.701         9     1.373     0.752 -27.55   0
       396    338.1054    403.6779 307.7808930  +6.5168844     1230.512     2109.146     1775.172     80.56165     161.4437     322.4389      1.801     6.73     913.4057     56.82945     145.4336        17     1.496     0.849 -40.86   0
       397    171.1283    403.9382 307.8502467  +6.5111635      780.826     1184.919     1560.567     80.94558     161.2515      322.471      1.684     5.44     918.9886     56.82945     94.62012        10     1.095     0.763 -44.80   0
       398    125.3490    402.6107 307.8693079  +6.5101709     4647.691      7677.84     7906.379     80.17587     161.1233     322.1183      1.771     4.33     920.3387     56.82945     632.5609        30     1.538     1.009 -42.23   0
       399    230.0874    401.4760 307.8258383  +6.5141633     1260.524     1967.822     1955.356      80.8178     161.5716      322.503      1.705     4.58     916.2635     56.82945     190.8985        14     1.419     0.686 -43.27   0
       400    423.3630    401.0903 307.7455634  +6.5208153     703.2219     852.1182     786.7159     80.94557     161.1874     322.4389      1.327     4.66     910.6907     56.82945     116.7868         7     1.004     0.613 -33.67   0
       401    811.3998    399.2354 307.5844259  +6.5345785     709.6177     1297.884     1549.295     79.78823     161.0591     322.2145      2.355     7.15     906.7414     56.82945     104.0941        11     1.654     0.867 -39.41   0
       402    147.3534    398.3374 307.8603118  +6.5126759     2425.372     4141.398     4798.977     80.68983     161.1233     322.4389      1.955     4.63     919.6573     56.82945     311.8813        24     1.612     0.944 -47.99   0
       403    543.0378    397.6913 307.6959629  +6.5262328      1021.66     1667.426     1305.142     80.94557     161.1874     322.4389      1.588     4.23     909.4077     56.82945     166.9771        11     1.296     0.589 -34.85   0
       404    370.6286    393.3814 307.7677296  +6.5222280     1977.966     3299.736     2965.395     80.43326     161.0591     322.3427      1.790     4.55     911.7361     56.82945     275.8487        21     1.434     0.963 -51.83   0
       405    258.7560    393.2774 307.8142060  +6.5185123      683.983     1207.171     1203.447     80.68983     161.2515     322.4069      1.757     7.24      915.259     56.82945     131.2077        10     1.671     0.879 -76.29   0
       406    959.3044    392.6445 307.5232017  +6.5422405     1023.294     1766.617     2166.088      80.8178     161.1874     322.5351      1.913     5.18     902.5034     56.82945     129.6447        12     1.191     0.834 -32.17   0
       407    304.4854    391.5934 307.7952665  +6.5207445     664.3053     964.8347     971.3484     80.30466     160.9307     322.1824      1.731     3.73     913.8506     56.82945     101.6934         6     0.950     0.421 -71.51   0
       408    578.2062    388.9172 307.6816483  +6.5310343     539.5378       828.77     632.6602     80.43326     160.8665     322.1824      1.617     5.26     908.4952     56.82945     101.2897         6     1.761     0.443 -53.82   0
       409    424.6189    386.8424 307.7455216  +6.5267405      6770.55     11085.52     11133.88     80.30466     161.0591     322.1824      1.741     4.23     910.1848     56.82945     801.6128        36     1.632     1.040 -45.51   0
       410     21.0314    387.7347 307.9131433  +6.5127997     3087.721      5193.36     5129.571     80.56165     161.3156     322.3427      1.756     4.24     921.6093     56.82945      402.918        26     1.544     0.944 -38.71   0
       411    757.2861    385.8994 307.6073543  +6.5382756     1849.232      2979.65     3437.429      80.8178     161.7634      322.471      1.737     4.74     907.6555     56.82945     255.8253        19     1.526     0.744 -38.66   0
       412    765.2211    384.2220 307.6041141  +6.5392336     12299.76     18739.83     19552.26     80.56164     161.0591     322.3748      1.640     4.39       907.43     56.82945     1530.882        36     1.533     0.961 -39.26   0
       413    328.9162    382.3829 307.7854282  +6.5253684     1008.421     1779.182     1846.271     80.43326     160.9307     322.3427      1.777     5.35     912.4073     56.82945     153.4458        14     1.496     0.673 -42.49   0
       414   1009.1447    379.3063 307.5029426  +6.5494112      3566.02     5646.139      5758.51     80.68982     161.2515     322.5992      1.684     4.25     899.7261     56.82945     511.4283        22     1.455     0.893 -29.88   0
       415    174.0948    375.4016 307.8499780  +6.5230458     627.7311     1299.902     1302.371     80.30466     160.9307      322.022      2.139     5.96     918.1151     56.82945     105.2341         8     1.298     0.769  85.49   0
       416    940.7460    375.8483 307.5314745  +6.5485564     487.8241     737.0516     1364.052      80.8178     161.2515     322.4389      1.667     3.49     902.5373     56.82945     71.78302         5     1.012     0.347 -45.76   0
       417    472.8050    370.3517 307.7260594  +6.5351663     2872.705     4625.802     4723.321     80.17587     161.0591     322.0862      1.699     4.63     908.4943     56.82945     379.8923        20     1.461     0.820 -37.73   0
       418    444.9509    371.0337 307.7376077  +6.5339502     2168.897     3485.195     3103.862     80.68982     161.2515     322.3427      1.682     4.25     909.1811     56.82945     295.6163        20     1.409     0.836 -39.40   0
       419    901.4546    370.4233 307.5479799  +6.5494844     880.0142     1212.515     1080.519     80.30466     161.2515     322.2145      1.541     6.03     903.7408     56.82945     106.0364        11     1.215     0.841 -27.13   0
       420    830.5602    367.1270 307.5775433  +6.5484769     31478.65     51023.38     53195.06     80.68982     161.3156      322.471      1.749     4.29     905.6227     56.82945     4186.101        56     1.689     1.110 -45.72   0
       421    322.6844    362.7619 307.7886786  +6.5332605     879.1569     1416.767     596.3329      80.8178     161.1874     322.3427      1.690     5.87     911.6063     56.82945     132.3073        12     1.466     0.661 -46.62   0
       422    602.4473    359.4437 307.6725689  +6.5440163     2494.381     4083.419     4738.436      80.8178     161.1874     322.3427      1.846     4.43     906.1636     56.82945     359.5094        22     1.505     0.845 -36.53   0
       423     10.6783    359.9004 307.9183852  +6.5239432     1068.049       1794.7     1908.302     80.56165     161.5077     322.4389      1.736     6.09     920.9604     56.82945     126.6359        14     1.338     0.791 -38.04   0
       424    687.0337    353.1149 307.6376411  +6.5494620     75697.48     119257.5     125306.2      80.8178     161.1233     322.3748      1.679     4.42     906.9194     56.82945     9897.673        86     1.674     1.173 -38.45   0
       425    134.1821    357.5390 307.8671613  +6.5290780     529.6544     729.5054     578.4575     80.43326     161.1874     322.2145      1.742     4.53     919.0078     56.82945     96.68164         5     1.277     0.456 -31.82   0
       426    845.2811    354.4569 307.5718526  +6.5542005     1168.724     1809.241     1710.096     80.94558     161.2515     322.4069      1.697     5.32     904.9136     56.82945     168.5168        12     1.294     0.693 -40.97   0
       427     66.4924    352.3333 307.8954559  +6.5289481     1267.666     1982.462     2374.549     80.68983     161.4437     322.4389      1.761     6.08     920.2225     56.82945     162.6399        14     1.514     0.686 -51.15   0
       428    928.6099    350.2614 307.5373741  +6.5587164     868.7711     1293.791     911.5871     80.17587     161.1233     322.1503      1.667     5.32     902.2896     56.82945     123.0591        10     1.221     0.655 -42.08   0
       429    549.5102    349.6848 307.6948892  +6.5462718     2519.878     3981.936     4066.203     80.56165     161.5717     322.5351      1.709     4.05     905.6323     56.82945     319.4792        22     1.445     0.885 -32.63   0
       430     86.7821    348.6297 307.8871527  +6.5311606     5809.646     9498.489     9722.451     80.43326     161.0591     322.3427      1.744     4.38     919.9651     56.82945     719.7641        32     1.583     0.996 -41.67   0
       431    532.8191    345.9785 307.7019480  +6.5472426     6651.259     10728.17     11292.85     80.56165     161.1874     322.3427      1.685     4.15     905.8049     56.82945     868.5536        32     1.530     1.016 -42.16   0
       432    261.7795    343.5336 307.8146283  +6.5391529     2438.493     3701.928     3708.215     80.43326     161.2515     322.3107      1.622     4.04     913.5442     56.82945     316.5791        20     1.434     0.840 -39.33   0
       433    395.6960    341.1263 307.7590771  +6.5446458     24428.03     40048.71     41713.62     80.56165     161.3796     322.4069      1.749     4.28     908.9392     56.82945     3072.363        53     1.650     1.124 -37.26   0
       434    661.7567    340.5029 307.6485661  +6.5538234      526.178     658.6968     409.7162      80.8178     161.1874     322.5992      1.498     4.41     906.1253     56.82945     88.70172         5     1.219     0.454 -58.29   0
       435    575.1121    340.1553 307.6845738  +6.5510647     640.2945     909.9109     883.0444      80.8178     161.1233     322.4389      1.545     6.24     905.3353     56.82945     97.05157        10     1.254     0.872 -39.95   0
       436    503.3050    339.9453 307.7144124  +6.5487442     1140.587     1660.283     1711.239     80.68982     161.2515     322.6312      1.507     3.94     906.2783     56.82945     167.1576        12     1.209     0.711 -39.15   0
       437    375.4138    339.5238 307.7675570  +6.5446265     1056.105     1803.483     2430.433     80.43326     160.9949     322.2145      1.834     5.85     909.0942     56.82945      144.312        13     1.344     0.717 -37.06   0
       438    474.9477    336.5260 307.7263082  +6.5492049     1090.865     1787.898     1802.783      80.8178     161.3156     322.4389      1.755     5.28     906.8098     56.82945     128.0883        15     1.373     0.931 -41.60   0
       439    790.5519    333.5660 307.5952910  +6.5609971     835.8929     1710.165     1636.327     80.56165     161.2515     322.3427      1.967     5.43     905.4536     56.82945     134.0885        10     1.260     0.661 -28.81   0
       440    484.8509    331.5143 307.7223628  +6.5516064     8103.397     12971.59     13394.78      80.8178     161.1874      322.471      1.724     4.28     906.2988     56.82945     975.7379        33     1.564     0.996 -42.41   0
       441    753.8501    330.4067 307.6106450  +6.5610742     2922.803     4768.921     4905.711     80.30466     160.9949     322.0541      1.726     4.41      905.567     56.82945     385.5491        22     1.486     0.917 -43.39   0
       442    909.4113    330.2544 307.5460210  +6.5663364     823.2309     1292.221      1525.89     80.17587     161.1874     322.0862      1.446     5.56      902.216     56.82945     152.4122        10     1.227     0.710 -24.99   0
       443    701.4919    329.8597 307.6324158  +6.5595482     774.3135     1077.601     1050.396     80.68982     161.1874     322.5351      1.423     5.16     905.6998     56.82945     112.3721         9     1.066     0.705 -55.33   0
       444    311.5619    328.3517 307.7944596  +6.5470947     1040.709     1824.781     1859.812     80.68983     161.2515     322.2786      1.848     5.54     910.8369     56.82945     137.1365        12     1.380     0.627 -38.21   0
       445     70.1177    325.4447 307.8948589  +6.5401722     504.6812      703.139     282.5181      80.8178     161.2515     322.3748      1.407     4.15     919.8955     56.82945     77.70001         5     1.183     0.415 -14.25   0
       446    246.6138    322.4586 307.8216397  +6.5473448      642.421     1088.127     1206.153     80.17587     161.1874     322.0862      1.628     3.90     913.2799     56.82945       102.43         5     0.987     0.440 -76.40   0
       447    147.1532    322.0301 307.8629725  +6.5441759     985.5203     1370.388     1386.091     80.43326     161.3156     322.3107      1.572     4.90      917.791     56.82945     147.8175        12     1.365     0.695 -29.99   0
       448    374.6900    315.7006 307.7686606  +6.5544388     7023.439     11500.99     11995.68      80.8178     161.6995     322.3748      1.760     4.36     908.5314     56.82945     859.3529        39     1.646     1.067 -40.68   0
       449    230.5568    316.2081 307.8285212  +6.5493857     1996.774     3317.948     3426.233     80.30466     161.0591     322.1503      1.738     4.42     913.7119     56.82945     299.0079        21     1.473     0.909 -37.50   0
       450    728.6324    315.3773 307.6216266  +6.5664363     986.8704     1467.978     1879.599     80.30466     161.0591     322.1824      1.616     5.30     904.9044     56.82945     150.7319        13     1.375     0.654 -36.42   0
       451    742.5242    311.6743 307.6159795  +6.5684300     52804.85     80475.05     83917.65     81.07315     161.5077      322.503      1.698     4.33     904.7167     56.82945     6821.292        66     1.630     1.102 -37.76   0
       452    414.2557    310.9483 307.7523836  +6.5577294     2159.707     3469.743     3723.801      80.8178     161.2515     322.3748      1.703     4.38     907.6055     56.82945     261.7391        22     1.517     0.906 -40.38   0
       453    977.2043    309.0394 307.5185663  +6.5773596     1749.585     2794.683     3317.968     79.91766     160.9949     322.1183      1.814     4.40     898.9628     56.82945     234.4838        18     1.370     0.824 -41.91   0
       454    918.3556    307.9176 307.5430538  +6.5758583     2368.106     3477.587     3458.174      80.8178     161.2515     322.3748      1.529     4.18     901.2852     56.82945     348.9827        18     1.294     0.843 -35.65   0
       455    560.1298    308.7174 307.6918557  +6.5635434     1169.942     1607.751     1271.807     81.07315     161.5077     322.4389      1.474     4.04     904.4147     56.82945     166.4354        12     1.157     0.738 -15.55   0
       456    400.5395    306.7906 307.7582219  +6.5589856     1855.821     3008.318     3199.331     80.17587     161.1233     322.1183      1.769     4.46     907.7388     56.82945     241.1644        19     1.392     0.878 -34.05   0
       457    451.5869    307.0576 307.7370056  +6.5605887     933.3465     1492.161     2076.292     80.17587     161.1233     322.1503      1.658     4.83     906.1605     56.82945      177.686        10     1.103     0.608 -29.44   0
       458    821.9222    301.3555 307.5833389  +6.5753459     1063.499     1713.228     1452.819     80.68982     161.2515     322.4069      1.676     5.06     903.3852     56.82945     153.3906        13     1.295     0.835 -50.73   0
       459    280.8591    306.1251 307.8079643  +6.5552401     622.0636      951.468     820.0797     81.07315     161.2515     322.3748      1.449     5.07     911.2156     56.82945      93.4845         6     1.255     0.578 -38.65   0
       460    954.0715    299.2708 307.5285047  +6.5806211     543.1985     967.3922     981.2278     80.94557     161.3796     322.3107      1.801     5.46     899.7437     56.82945     91.65942         8     1.511     0.557 -42.12   0
       461    431.4252    298.2818 307.7456773  +6.5635356     1094.511     1695.179     1875.888     80.56165     160.9949     322.4069      1.833     5.48     906.5106     56.82945     141.0229        11     1.305     0.650 -29.61   0
       462    177.2505    297.8823 307.8512849  +6.5551591     2128.936     3506.375     3748.489      80.8178     161.2515     322.4389      1.758     4.67     915.8879     56.82945     294.5056        18     1.535     0.727 -33.14   0
       463    740.8504    296.2940 307.6171914  +6.5747247     5685.776     8987.155     9159.801     80.68982     161.1233     322.5992      1.689     4.94     903.8886     56.82945     735.6392        30     1.558     0.937 -39.91   0
       464    757.3859    294.1406 307.6103938  +6.5761670     2625.423     4179.823     4116.542     80.17587     161.1874     322.1503      1.650     3.89     903.7563     56.82945     364.2861        24     1.460     0.882 -45.46   0
       465    331.8965    295.8932 307.7871065  +6.5611799     798.9955     1217.034     850.4901      80.8178     161.7634     322.3427      1.616     5.50     909.2448     56.82945     99.76013        10     1.021     0.837 -39.60   0
       466    213.4061    295.9737 307.8363291  +6.5571636     569.7464     958.4152     868.5941     80.30466     161.0591     322.2145      1.644     4.04     913.8679     56.82945      81.2323         5     0.780     0.599  -3.61   0
       467     73.2746    295.3839 307.8945637  +6.5526903     965.8358     1735.257     1946.945     80.30466     160.9949     322.2786      1.869     6.01     919.4975     56.82945     124.4415        12     1.348     0.754 -35.05   0
       468    346.9765    288.9436 307.7810759  +6.5645559     1733.423     3291.251     3442.631     80.43326     161.2515     322.2145      2.017     5.21     908.7028     56.82945      223.918        25     1.709     0.986 -13.03   0
       469     60.7226    289.2181 307.8999866  +6.5548133     1190.752      1818.46     1296.241     80.30466     161.0591     322.3748      1.609     5.45     919.7662     56.82945     163.2048        15     1.397     0.857 -24.56   0
       470    995.5457    285.1637 307.5117458  +6.5878303     5867.599     8959.197     9286.423     80.68982     161.2515     322.4389      1.655     4.21     897.7627     56.82945     758.4586        26     1.461     0.915 -35.55   0
       471    473.7009    285.0227 307.7285604  +6.5704288     1967.616     3043.244     2628.495      80.8178     160.9949     322.1824      1.607     4.17     904.3045     56.82945      238.567        19     1.394     0.892 -35.92   0
       472    236.2551    280.4725 307.8273601  +6.5643323     5651.988      9240.51     10626.64     80.68983     161.1233     322.3748      1.793     4.11     912.4604     56.82945     710.1489        31     1.546     1.027 -41.27   0
       473    245.3127    280.6448 307.8235914  +6.5645658     472.3473     886.1926     1758.698      80.8178     161.1233     322.4069      2.174     4.21     912.0711     56.82945      91.7063         5     1.249     0.406 -38.60   0
       474    801.0936    278.6653 307.5927541  +6.5840186     648.8651     936.7023     1028.419      80.8178     161.4437     322.4389      1.525     4.21     903.0018     56.82945     113.4581         6     0.945     0.631 -76.94   0
       475    755.6644    273.6866 307.6117959  +6.5845551     608.6025      1015.59     1020.891      80.8178     161.4437     322.4069      1.776     4.13     902.8018     56.82945       105.12         5     1.579     0.308 -39.90   0
       476    213.0033    272.9808 307.8372727  +6.5666436     713.3318     925.3826     936.9819     80.43326     160.8022     322.2145      1.425     5.14     913.4995     56.82945     95.76898         8     1.005     0.744  88.75   0
       477    370.4370    271.1578 307.7719289  +6.5726876      1536.67     2752.563     2519.901     80.56165     161.2515     322.2786      1.852     5.08     907.4758     56.82945      182.348        17     1.372     0.851 -41.77   0
       478    957.5230    270.3502 307.5280399  +6.5926780     1072.047     1682.606     2030.553     80.68983     161.3156     322.4069      1.707     5.58     898.5135     56.82945     136.8263        12     1.424     0.617 -39.19   0
       479    292.8159    267.2343 307.8043089  +6.5716998     1098.646     1832.376     1476.388     80.43326     160.9949     322.2466      1.725     5.71     910.0204     56.82945     141.6766        16     1.398     0.870 -41.36   0
       480    140.1277    267.1286 307.8677458  +6.5666077     1721.958     2945.276     2847.323     81.07315     161.3796     322.3748      1.753     4.55     916.6453     56.82945       225.23        18     1.479     0.807 -39.48   0
       481    549.6054    262.7950 307.6977733  +6.5821521     2065.763     3265.178     2903.707     80.17587     160.9949     322.2786      1.662     4.77     902.5229     56.82945     270.9382        17     1.376     0.804 -41.36   0
       482    893.1896    261.7840 307.5550566  +6.5940668     1593.102     2991.444     3333.568     80.56164     160.9949     322.2786      2.050     6.31     899.9781     56.82945     250.8608        18     1.465     1.093 -15.24   0
       483    713.4391    260.3895 307.6297860  +6.5886328     4960.475     7603.505     7886.174     80.17587     161.0591     322.1503      1.663     4.15     902.3858     56.82945     662.3318        27     1.481     0.943 -38.54   0
       484    654.1561    260.2539 307.6544212  +6.5867042     2145.706     3403.869     3733.433      80.8178     161.2515     322.4069      1.725     4.24     902.6537     56.82945     274.9673        19     1.390     0.873 -48.89   0
       485    951.4414    260.0794 307.5309109  +6.5967159     720.4147     717.8186     104.6095     80.68982     161.2515     322.4069      1.373     4.50      898.281     56.82945     111.9975         8     1.202     0.478 -28.31   0
       486    909.3818    252.6257 307.5486360  +6.5983892      1103.21     1763.512     2016.479     80.43326     161.0591     322.3427      1.671     5.71     899.1402     56.82945     154.8434        13     1.393     0.660 -52.99   0
       487    369.1878    254.2044 307.7730194  +6.5796456     568.5436     780.4734     880.4841     80.43326     160.9949     322.2786      1.189     3.54     906.9703     56.82945     103.3992         5     1.106     0.327 -12.90   0
       488    212.9597    245.6372 307.8382140  +6.5779321     2045.845     3606.961     3779.987     80.56164     161.2515     322.2786      1.843     4.49     913.2923     56.82945     251.6613        22     1.426     1.005 -37.84   0
       489    855.5647    244.5699 307.5712666  +6.5999177     1882.752     2959.693     3416.923     80.43326     160.9949     322.2466      1.858     5.04     900.2603     56.82945     227.7638        18     1.485     0.818 -37.43   0
       490    746.0236    243.8858 307.6168022  +6.5965375     1454.304     2331.071     2625.447      80.8178     161.0591     322.2786      1.730     5.48     901.3926     56.82945     202.2788        17     1.435     0.824 -37.22   0
       491    446.8591    235.5061 307.7413799  +6.5899737     21556.24     34818.36     36428.52     80.68982     161.2515      322.503      1.733     4.28     903.0588     56.82945      2646.39        56     1.682     1.123 -38.97   2
       492    452.7091    229.9860 307.7391353  +6.5924492     1269.704     2183.774     2226.066     80.56164     160.9949     322.2145      1.780     4.30     902.4445     56.82945     194.7145        15     1.253     0.870 -34.05   3
       493    772.8764    234.6563 307.6059552  +6.6012467      12714.5     20365.65     22156.48      80.8178     161.1874     322.3748      1.738     4.33     900.9559     56.82945     1790.085        48     1.679     1.200 -30.86   0
       494    711.6905    230.5542 307.6315149  +6.6008934     610.5156     1029.993     792.7538      80.8178     161.1874     322.5351      1.608     3.38     901.2653     56.82945     92.85236         5     1.036     0.319 -22.77   0
       495    135.2032    228.8454 307.8710852  +6.5822487     2228.512     3781.363     3976.535     80.17587     160.9307     322.0541      1.693     4.26     915.8481     56.82945     298.8032        21     1.391     0.933 -41.31   0
       496    109.8997    227.7643 307.8816340  +6.5818431      1084.22     1679.057     2223.048      80.8178     161.1233     322.5671      1.915     5.78     917.1525     56.82945     143.0207        13     1.420     0.663 -49.32   0
       497    161.8083    227.3825 307.8600814  +6.5837482     539.3373     909.8771     708.3315     80.43326     160.9949     322.2466      1.856     4.44      914.379     56.82945     95.56458         7     1.265     0.443 -40.83   0
       498    766.1454    226.8044 307.6090155  +6.6042637     640.4012     983.1967     1538.735     80.17587     160.9949     322.0862      1.849     5.18     900.5824     56.82945     107.1299         6     1.107     0.684   5.77   0
       499    909.2256    225.2700 307.5496182  +6.6096795     1231.726     1795.039     1856.332     80.43326     161.1233     322.3427      1.630     6.02     897.8076     56.82945      172.847        14     1.354     0.753 -32.89   0
       500    570.8152    221.3587 307.6903554  +6.5999722      4507.07     7408.775     7891.957     80.30466     161.0591     322.1824      1.777     4.43     900.6198     56.82945     556.4656        34     1.636     1.088 -33.77   0
       501    533.4673    221.4785 307.7058687  +6.5986708     1946.284     3186.572     3308.948     80.94558     161.3156     322.3748      1.767     4.57     900.6149     56.82945     325.5421        18     1.439     0.779 -39.72   0
       502    291.4884    222.2212 307.8063790  +6.5902409     1225.539     1671.555     1259.904      80.8178     161.0591     322.2786      1.627     5.24     910.0927     56.82945     148.1426        12     1.061     0.842 -53.04   0
       503    375.5731    220.5741 307.7715002  +6.5937459     1262.212     2169.374     2253.669     80.30466     161.0591     322.2466      1.904     4.65     905.6572     56.82945     212.9069        15     1.392     0.883 -38.67   0
       504    931.8873    218.3253 307.5404352  +6.6133038     2660.031     4030.793      3819.82      80.8178     161.5716      322.471      1.609     4.37     896.8865     56.82945     351.7259        22     1.418     0.875 -39.50   0
       505    877.9585    217.8609 307.5628581  +6.6116943     10788.51      16612.5     16893.44      80.8178     161.2515      322.471      1.638     4.26     898.6113     56.82945     1549.478        38     1.577     0.997 -34.41   0
       506    553.1262    217.9800 307.6978186  +6.6007743     748.1895     1276.496     1256.652     80.43326     161.1874     322.3427      1.807     6.26     900.6152     56.82945     108.2032         9     1.347     0.817 -35.70   0
       507    305.7835    218.1526 307.8005772  +6.5924012     899.3171     1452.193     1673.353     80.30466     161.1874     322.1503      1.661     5.65     909.2667     56.82945     118.3525        10     1.269     0.709 -36.72   0
       508    964.6326    215.7724 307.5269151  +6.6154511     9477.307     14492.65     15230.13     80.30466     160.9949     322.2145      1.643     4.35     896.0515     56.82945     1258.447        34     1.514     0.968 -38.87   0
       509    197.2148    218.2697 307.8456794  +6.5887022      668.598     1101.028     1567.768     80.30466     161.1874     322.3107      1.748     4.24     913.4445     56.82945     114.7783         6     0.784     0.654 -47.85   0
       510      4.1171    214.3716 307.9260339  +6.5838088     23609.83     38890.72     40786.72     80.68982     159.5765     284.2109      1.759     4.11     919.9298     56.82945     2982.234        55     1.667     1.141 -45.11  24
       511    676.0338    215.6670 307.6468301  +6.6058469     2638.182     4185.745     4225.065     80.68982     161.3156      322.471      1.666     4.22     901.6083     56.82945     380.7712        20     1.436     0.808 -47.96   0
       512    250.4433    215.0780 307.8236728  +6.5918104     1090.624     1800.447     2088.431     80.68982     161.2515     322.4389      1.804     4.84     911.8467     56.82945     143.0994        12     1.374     0.672 -31.33   0
       513    484.6096    210.3841 307.7265416  +6.6016131     1891.518     2908.275     3262.885     80.56165     160.9949     322.3107      1.626     5.04     900.5798     56.82945      237.029        18     1.467     0.779 -45.64   0
       514    868.7198    206.3292 307.5670836  +6.6161472     2070.871     3165.722     3136.162     81.07315     161.5077     322.4389      1.662     4.74     898.3953     56.82945     262.9174        21     1.537     0.860 -34.92   0
       515    816.4841    207.2365 307.5887570  +6.6140267     1916.804     2755.453     2499.484      80.8178     161.2515     322.3748      1.549     5.13     899.7121     56.82945     290.7443        15     1.413     0.690 -37.75   0
       516    728.0977    203.8574 307.6255948  +6.6124657     38315.78     60548.27     63478.44     80.56164     161.1874     322.5992      1.678     4.26     900.2984     56.82945     5381.255        62     1.640     1.098 -39.37   0
       517    496.6708    206.5357 307.7216600  +6.6036066     2290.101      3676.92     4055.013      80.8178     161.2515     322.4069      1.741     4.23     900.5803     56.82945      299.417        21     1.537     0.799 -37.40   0
       518    331.2846    203.0662 307.7904911  +6.5994872     5690.865     11871.61     13544.64     80.94557     161.5077      322.471      2.232     6.46     907.6768     56.82945     585.1137        47     2.120     1.174 -63.08   0
       519    961.8440    202.6236 307.5285144  +6.6207873     2856.137     4596.123     5074.072     80.30466     161.1874     322.2466      1.682     4.10     895.6889     56.82945     393.9791        20     1.350     0.887 -37.96   0
       520   1000.2623    201.3173 307.5125951  +6.6226089     1703.433     2574.846     2063.232     80.94558     161.2515     322.3748      1.583     4.10       894.52     56.82945     223.2466        15     1.320     0.746 -48.01   0
       521    895.9869    200.9134 307.5559357  +6.6192943     7281.506      11236.2     11333.22     80.43326     161.0591     322.3107      1.649     4.32     897.4616     56.82945     1099.276        33     1.529     0.977 -40.11   0
       522    439.5778    199.9558 307.7456027  +6.6044080     4568.149     7459.563     7677.205     80.30466     161.1233     322.2145      1.759     4.26     901.9994     56.82945      543.789        30     1.605     0.986 -40.18   0
       523    214.4006    197.0725 307.8392551  +6.5980325     663.5498     860.9753     199.2405     80.17587      160.738     322.2466      1.207     3.98     912.9841     56.82945     124.9526         6     1.026     0.441 -76.62   0
       524     96.9012    191.1188 307.8882729  +6.5965358      4516.73      7592.21     7943.648      80.8178     161.6995      322.503      1.762     4.28     916.2159     56.82945     567.9965        32     1.542     1.071 -44.07   0
       525    916.5499    190.2944 307.5477477  +6.6243658     729.8298     1149.989      1092.89     80.68983     161.1233     322.5671      1.579     4.80     896.6118     56.82945     118.8736         9     1.366     0.479 -38.98   0
       526    267.2282    187.9380 307.8176152  +6.6035806     31517.59      52598.9      55520.5     80.43326     161.2515     322.3748      1.774     4.27     911.4153     56.82945      3793.72        61     1.679     1.182 -36.99   0
       527    242.5483    188.9896 307.8278335  +6.6023165     6325.376     10237.65     10478.62     80.17587     161.1233     322.1503      1.720     4.08     912.1917     56.82945     803.8915        35     1.662     0.984 -39.59   0
       528    593.2241    189.2649 307.6821246  +6.6139748     648.5744     1125.126     961.0961     80.43326     161.2515     322.3427      1.667     4.69     900.5649     56.82945     91.50537         7     1.312     0.476 -25.88   0
       529    696.3060    187.1404 307.6393658  +6.6183043     846.8994     1290.046     908.5475     80.68982     161.2515      322.471      1.660     5.23     900.6046     56.82945     118.5685         9     1.278     0.604 -52.74   0
       530    391.2823    183.4492 307.7662248  +6.6096022     47294.03      77165.7     81041.23      80.8178     161.2515     322.4389      1.771     4.22     903.4335     56.82945     6059.105        71     1.704     1.189 -38.70   0
       531    147.3173    184.7207 307.8675432  +6.6008750      3689.81     5978.303     5868.572     80.94558     161.5077     322.5351      1.724     4.29     914.1848     56.82945     446.4672        25     1.540     0.931 -48.07   0
       532    408.6791    183.9862 307.7589787  +6.6099646     1429.635     2260.533     2342.995     80.43326     160.9949     322.1824      1.716     4.90     902.3642     56.82945      175.354        16     1.459     0.821 -49.18   0
       533    295.3344    181.1504 307.8061668  +6.6073280      17226.8     28518.74      30586.1     80.68982     161.1233     322.3748      1.766     4.21     910.3309     56.82945     2188.442        48     1.670     1.113 -37.59   3
       534    303.0053    181.1999 307.8029780  +6.6075654     2054.543     4003.835     5021.372     80.17587     160.9307     322.2145      2.275     6.53     909.7009     56.82945     289.4417        31     2.037     1.076 -55.09   2
       535    730.5879    179.7275 307.6253707  +6.6225124        31815     49758.53      51974.1     80.30466     160.8665     322.2145      1.693     4.29     899.7932     56.82945     3958.272        56     1.631     1.077 -39.87   0
       536    678.5732    181.2779 307.6469308  +6.6201313      982.478      1288.74      1249.46     80.68983     161.1874     322.3748      1.510     5.02     900.8096     56.82945     155.1484        10     1.258     0.566 -32.28   0
       537    778.8369    180.2063 307.6053070  +6.6239288     1045.044      2006.74     2091.427     79.91766     160.9949     322.1824      2.127     5.71     899.5309     56.82945     173.0711        12     1.292     0.710 -35.96   0
       538     47.3347    176.8520 307.9093482  +6.6007565     8624.574     14182.27     14790.89      80.8178     161.1874     322.3748      1.765     4.30     919.2573     56.82945     1006.037        37     1.579     1.092 -37.32   0
       539     81.4057    174.5741 307.8952701  +6.6028449      1395.67     2584.878      2088.83     80.30466     161.0591     322.2145      1.911     6.53     916.6917     56.82945     194.1954        17     1.589     0.752 -51.95   0
       540    988.9810    174.0436 307.5181965  +6.6334940      1132.75     1808.153     2331.986     80.30466     161.1233     322.1824      1.638     5.56     893.6889     56.82945     146.3918        13     1.277     0.682 -21.62   0
       541    957.4389    172.8099 307.5313441  +6.6329506     499.6457     605.4148     112.7799     80.17587     161.0591     322.1183      1.257     3.47     894.8793     56.82945     78.92401         5     0.792     0.438 -69.32   0
       542    564.6015    164.4008 307.6948537  +6.6232819     873.7961     1155.651     1043.104     80.17587     160.8023     322.0862      1.561     4.96     900.5277     56.82945     154.0798        10     1.281     0.544 -44.82   0
       543    990.0737    160.2883 307.5182034  +6.6392102     2197.273     3359.079     4403.761      80.8178     161.5077      322.471      1.653     4.06     893.0593     56.82945     288.4878        21     1.402     0.890 -44.22   0
       544    573.0166    158.0965 307.6915693  +6.6261670     1109.173     1776.924     1618.532     80.68982     161.0591     322.2145      1.729     6.11     900.4633     56.82945     174.0919        14     1.441     0.750 -38.24   0
       545    266.0920    154.2405 307.8192245  +6.6174558     28692.14     47724.86     50269.65     80.94557     161.1874      322.471      1.799     4.35     911.6998     56.82945     3641.128        69     1.819     1.188 -37.84   0
       546     11.4054    152.8833 307.9250864  +6.6094419     4266.495     7013.502     7131.711     80.30466     160.8665     322.1503      1.813     4.85     922.5493     56.82945      537.677        34     1.795     1.105 -59.37  16
       547    581.4443    155.9124 307.6881411  +6.6273513     1919.511     3103.817     3063.444      80.8178     161.1233     322.4389      1.722     4.63     900.4247     56.82945     231.5204        22     1.587     0.884 -36.04   0
       548    697.8295    150.8648 307.6399519  +6.6333336     7717.846      12254.8     12597.47     80.56164     161.3156     322.3427      1.672     4.08     899.6563     56.82945     1005.254        34     1.557     0.973 -41.79   0
       549    175.3020    152.0872 307.8570188  +6.6152909     895.3539     1099.234     1146.306      80.8178     161.6995     322.4389      1.530     5.51     912.9914     56.82945     122.6215        11     1.200     0.714 -55.45   0
       550    252.0927    149.6436 307.8251962  +6.6188831     696.8958      980.199     402.3998      80.8178     161.2515     322.5351      1.547     3.85     912.0147     56.82945      116.124         5     1.088     0.471 -52.45   0
       551    108.5888    147.9252 307.8848772  +6.6147634     4630.187     7495.235     7791.694     80.43326     160.8665     322.2145      1.764     4.13     914.2281     56.82945     567.9257        33     1.559     1.052 -37.90   0
       552    636.4618    144.8731 307.6656523  +6.6337528     896.5413     1330.562     1318.518     80.94557     161.2515     322.4389      1.600     5.48     900.0764     56.82945     152.4742         9     1.282     0.662 -51.09   0
       553    325.6362    156.0923 307.7944222  +6.6186926     994.2693     1604.927     1505.164     80.94557     161.1233     322.4389      1.709     4.03     907.9233     56.82945     170.8212        11     1.070     0.778 -68.78   0
       554    447.6601    145.3396 307.7440846  +6.6272300     1251.202     2175.289      1485.07      80.8178     161.2515     322.4389      1.799     4.70     900.3804     56.82945     181.4247        13     1.318     0.707 -39.93   0
       555    379.2752    143.8945 307.7725470  +6.6255309     3679.349     6852.808     7152.896     80.56165     161.4437     322.4389      1.967     4.62     903.8182     56.82945     424.4312        34     1.599     1.211 -52.99   0
       556    343.7973    142.8176 307.7873242  +6.6247839      3106.23      5265.68     5546.886     80.43326     160.8023     322.1824      1.804     4.34     906.8419     56.82945     387.5349        25     1.485     0.979 -44.87   0
       557     98.1532    142.6189 307.8893923  +6.6166029     1623.138     2590.977     2345.045     80.30466     161.1874     322.2145      1.715     6.15     914.3704     56.82945      231.127        17     1.458     0.821 -46.48   0
       558    659.7600    140.5536 307.6561168  +6.6363166     795.6226     993.9094     935.6235     80.68983     161.2515     322.2466      1.530     5.13     899.8012     56.82945     110.0024         9     1.288     0.577 -34.04   0
       559    990.2634    137.0551 307.5189031  +6.6488098     1525.479     2342.514     2170.975     80.94557     161.1874     322.4069      1.671     5.29     892.2945     56.82945     214.3062        17     1.412     0.910 -33.59   0
       560    195.6149    131.7014 307.8492677  +6.6243915     5338.276     8577.318     9038.377      80.8178     160.9949     322.1503      1.756     4.17     912.4967     56.82945     638.5443        31     1.569     0.980 -38.60   0
       561     78.3387    131.5854 307.8979978  +6.6204910     2071.595     3362.653      3634.48     80.30466     161.1874     322.1824      1.788     4.37     915.8125     56.82945       282.91        21     1.416     0.959 -43.69   0
       562    657.2623    130.5955 307.6574895  +6.6403447     5881.003     9463.254     9750.956     80.17587     160.9949     322.1824      1.724     4.57     899.4821     56.82945      784.251        31     1.542     1.009 -38.02   0
       563    805.3269    130.3237 307.5959748  +6.6454114     1036.878     1647.288     1599.638     81.07315     161.5077     322.4389      1.632     6.16     896.9612     56.82945     143.2377        13     1.401     0.760 -44.11   0
       564    609.5132    127.8604 307.6774219  +6.6398745     9134.269      14671.9     15715.67     80.94557     161.3796     322.5351      1.769     4.51      899.914     56.82945     1220.571        37     1.632     1.026 -46.19   3
       565    613.0361    119.4085 307.6762424  +6.6434824     50790.01     81324.02     85001.44     80.30466     161.0591     322.1824      1.721     4.48     899.7073     56.82945     6570.984        68     1.667     1.137 -37.61   2
       566    244.4319    128.2453 307.8291015  +6.6274606     688.0126     1018.474     603.8747     80.56165     161.3156     322.2466      1.845     6.20     912.0842     56.82945     91.34143         9     1.565     0.691 -50.15   0
       567    547.7010    126.8304 307.7031403  +6.6382282     662.6396     1056.767     1246.803      80.8178     160.9949      322.471      1.751     4.69     899.8355     56.82945     103.6099         6     1.165     0.535 -27.93   0
       568      8.5406    126.3774 307.9271734  +6.6202891     1141.505      1983.09     2295.944     80.43326     161.1874     322.2786      1.816     5.20     921.6683     56.82945     138.0477        12     1.176     0.781 -35.97   0
       569    336.7920    123.4925 307.7908867  +6.6325277     3661.413     6399.423     7047.718     80.43326     160.9307     322.2145      1.966     4.63     908.0891     56.82945     471.7032        37     1.970     0.977 -51.60   0
       570    518.4838    122.8294 307.7154151  +6.6389005     1743.656     2813.762      2684.83      80.8178     160.9949     322.3107      1.648     4.07     899.7864     56.82945     265.3794        19     1.363     0.947 -48.09   0
       571    982.8385    122.3348 307.5224816  +6.6546401     721.5913     1268.055     1721.691     80.68982     161.1874      322.503      2.016     3.81     891.9718     56.82945     115.2441         6     1.175     0.354 -61.30   0
       572    292.1967    113.1248 307.8097657  +6.6353097     3337.984     5653.473     5729.645     80.30466      160.738     322.3107      1.789     4.38     911.4078     56.82945     396.3799        26     1.556     0.943 -38.05   0
       573    692.2383    107.6664 307.6437270  +6.6509832     938.3969     1590.175     2070.081     80.68983     161.1874      322.503      1.843     4.87     898.0942     56.82945     144.7714         7     1.035     0.649 -64.67   0
       574    663.6158    106.5150 307.6556591  +6.6505003     1313.068     1887.619     1917.649     80.43326     160.9949     322.3107      1.617     6.01     898.5369     56.82945     164.8734        13     1.305     0.779 -46.80   0
       575    677.5685    103.3664 307.6499672  +6.6522675      3245.92     4953.673     4716.554     80.30466     160.9949     322.1503      1.654     4.34     898.1309     56.82945     408.2969        23     1.422     0.902 -38.30   0
       576    419.2363     94.3041 307.7576146  +6.6473483     4050.006      6402.94      6431.76     80.94558     161.1233     322.5351      1.700     4.18     900.5375     56.82945       500.08        28     1.572     0.944 -38.49   0
       577      2.1994     95.5722 307.9308505  +6.6327942     768.6367     1500.853     2746.566     79.00726     140.4964     256.6176      3.137     5.69     920.9598     56.82945     102.0645         8     1.076     0.847 -73.87  25
       578    873.8849     90.6747 307.5688175  +6.6640743     2086.612     3355.094     3585.931     80.94557     161.5716     322.4389      1.727     4.25      892.946     56.82945     303.1347        20     1.354     0.946 -42.95   0
       579    891.7740     89.7949 307.5614133  +6.6650353     3753.859     5745.649     6123.953     80.30466     161.0591     322.2466      1.609     4.59     892.4916     56.82945     567.1415        23     1.465     0.833 -37.17   0
       580    583.8400     88.2426 307.6894225  +6.6553724     1639.421     2573.547     2681.561     80.56165     161.2515     322.2786      1.695     5.43      898.982     56.82945     197.6571        17     1.445     0.795 -44.04   0
       581    382.6400     86.1877 307.7730945  +6.6494707     1835.714     3055.673     2764.008     80.30466     161.0591     322.1824      1.739     4.49     904.6208     56.82945     253.4041        21     1.377     1.055 -42.22   0
       582    229.6124     87.2947 307.8366416  +6.6438703     766.4444     1192.451     1729.234     80.56165     160.9949     322.2466      1.647     5.74     911.9547     56.82945     104.1119        10     1.312     0.708 -60.76   0
       583    130.5653     83.0180 307.8779402  +6.6423027     3143.057     5051.785     5237.871     80.30466     161.0591     322.2145      1.738     4.14     912.2479     56.82945     392.5118        24     1.483     0.926 -35.31   0
       584     12.4087     80.8338 307.9271074  +6.6392236     11980.63     19701.09     21339.65     80.30466     161.0591     322.2466      1.745     4.17     918.2477     56.82945     1521.933        41     1.640     1.058 -41.16   0
       585    278.7606     81.5736 307.8164133  +6.6478852     1260.728     2168.832     2681.278     80.43326     161.0591     322.2466      1.791     5.89     911.8041     56.82945     164.1008        14     1.471     0.664 -39.58   0
       586    551.8859     80.6413 307.7029561  +6.6574399     778.7145     1309.231     643.4829      80.8178     161.1874     322.4069      1.681     5.48     898.8259     56.82945     114.6609        10     1.289     0.656 -38.54   0
       587    539.3199     80.5682 307.7081800  +6.6570487      811.092      1074.69     654.7458     80.68983     161.1874     322.3748      1.565     6.51     898.8779     56.82945     121.2799        11     1.352     0.881 -25.58   0
       588    746.9246     79.7618 307.6219408  +6.6643353     710.7106     1304.954     2237.139     80.68982     161.3156     322.4389      3.240     6.01     896.0404     56.82945     99.49133        10     1.120     0.906   3.63   2
       589    814.1098     75.5445 307.5941643  +6.6683237     6052.325     9215.371     10310.93     80.68982     161.1233     322.5351      1.662     4.43     894.0496     56.82945     882.9782        30     1.542     0.949 -41.63   0
       590    880.7265     76.9584 307.5664347  +6.6699665     724.0449     1140.671     859.0043     80.68982     161.3156     322.4389      1.530     4.30     892.2338     56.82945     122.9128         7     1.116     0.473 -43.82   0
       591    759.2476     75.8296 307.6169522  +6.6663712     3280.332     5112.314      5387.62     80.43326     161.3156     322.3107      1.640     4.26      895.577     56.82945     458.3098        20     1.398     0.857 -43.42   0
       592    404.3068     76.5085 307.7644179  +6.6541948       893.29     1276.858     1377.777      80.8178     161.7634     322.4069      1.501     5.52     902.3771     56.82945      115.776        11     1.378     0.624 -37.11   0
       593    521.5830     73.9691 307.7157724  +6.6591787     1075.298     1693.567     1823.714     80.43326     160.9949     322.3107      1.990     5.92     898.8262     56.82945     147.2556        12     1.645     0.599 -44.95   0
       594     37.3162     73.9481 307.9169915  +6.6429061     820.1202     1248.461     867.1938      80.8178     161.1874      322.503      1.638     5.98     915.9626     56.82945     118.7675        13     1.584     0.635 -35.85   0
       595     52.8396     72.6207 307.9105865  +6.6439773     3052.444      5022.37     4926.207     80.43326     161.0591     322.1503      1.742     4.30     914.9883     56.82945     363.0809        27     1.593     0.948 -42.62   0
       596    413.8961     72.2927 307.7605754  +6.6562574     795.8043     1273.558     1789.873      80.8178     161.7634     322.3748      1.832     4.88     901.3665     56.82945     122.2242        10     1.334     0.821 -52.93   0
       597    576.5943     69.4076 307.6930671  +6.6629065     1193.698     1893.907     1225.083     80.17587     161.0591     322.2466      1.684     5.30     898.3356     56.82945     152.0463        13     1.385     0.729 -34.23   0
       598     91.5131     62.7998 307.8948499  +6.6493352     920.8875     1640.952     1451.586     80.04687      160.738     322.0541      1.784     5.75     912.4929     56.82945     153.4294        10     1.470     0.782 -70.51   0
       599     67.7435     63.9525 307.9046872  +6.6480585     828.4988     1247.462     1630.004      80.8178     161.2515      322.503      1.840     5.64     913.5973     56.82945     146.3142        10     1.226     0.730 -62.23   0
       600    753.9524     63.3200 307.6195728  +6.6713592     1896.447     2897.325     2934.658      80.8178     161.2515     322.4069      1.602     4.36     895.2678     56.82945     272.7487        16     1.371     0.742 -38.01   0
       601    394.6175     63.3359 307.7688880  +6.6593083     1054.771     1747.203     1429.065     80.43326     161.1874     322.2466      1.745     5.09     903.5696     56.82945      164.443        12     1.311     0.815 -42.44   0
       602     80.4539     57.0524 307.8996394  +6.6513357     9131.337     14943.32     15236.01     81.07315     161.1874     322.4389      1.769     4.24     912.7151     56.82945     1100.983        39     1.602     1.083 -39.56   0
       603    409.6186     56.8155 307.7628745  +6.6625042     2494.122     3909.254     3952.229     80.56165     160.9949     322.3107      1.661     4.18     902.0847     56.82945     303.9488        22     1.423     0.884 -40.23   0
       604    231.4734     56.1166 307.8369210  +6.6568059     543.6005     907.2274     606.5536     80.94557     161.5717     322.4389      1.619     3.50     911.8513     56.82945     104.1891         5     0.833     0.665 -39.75   0
       605    623.1740     49.1221 307.6743940  +6.6728432     17488.46     28088.65     29709.01     80.56164     161.1874     322.3748      1.701     4.28     896.9804     56.82945     2132.967        49     1.632     1.082 -41.16   0
       606    247.2962     51.1141 307.8305153  +6.6594036     1303.375     2410.771     2704.202      80.8178     161.6356      322.471      1.895     5.48      911.819     56.82945     157.1765        18     1.475     0.945 -43.65   0
       607    523.0426     45.1525 307.7161361  +6.6711259     4931.798     7745.091      7662.86      80.8178     161.1874     322.3427      1.693     4.27     898.2509     56.82945      623.153        27     1.435     0.992 -39.73   0
       608    609.6497     39.5657 307.6803354  +6.6763359      2864.51     5490.022     6195.737     80.68983     161.2515     322.3427      2.081     5.74     896.7707     56.82945     375.9999        35     1.903     1.298  88.03   0
       609    428.5406     40.7836 307.7555522  +6.6697589     21901.78     35682.74     37343.16     80.30466     161.1874     322.1503      1.745     4.25     901.1198     56.82945     2597.218        49     1.626     1.125 -39.17   0
       610    249.1660     41.1383 307.8300752  +6.6635853     8617.217     14465.53     15522.93     80.68982     161.3156     322.3427      1.800     4.27     911.7947     56.82945     1050.548        41     1.625     1.095 -38.95   0
       611    309.1688     41.1605 307.8051419  +6.6655936     942.1743     1778.997      1632.56     80.43326     161.0591     322.2466      1.903     6.28     910.6094     56.82945     137.7783        14     1.346     0.823 -39.47   0
       612     14.4655     40.7299 307.9276099  +6.6558510     2248.492     3695.698     4103.546      80.8178     161.3156     322.4069      1.824     5.00     913.1343     56.82945     294.1819        23     1.550     0.940 -33.65   0
       613    906.3845     40.7632 307.5569867  +6.6857688     1918.066     2905.869     2942.595     80.43326     161.0591     322.1503      1.713     4.52     890.6157     56.82945     272.7078        16     1.405     0.722 -30.17   0
       614    241.1639     45.5287 307.8332520  +6.6615035     1828.322     3019.246      4419.01     80.68983     161.2515      322.471      1.828     4.63     911.8116     56.82945     276.2911        19     1.464     0.852 -47.90   0
       615    237.2319     37.6293 307.8351525  +6.6646328     2834.722     4779.043     5376.781     80.30466     160.9949     322.1503      1.799     4.27     911.7913     56.82945     392.7291        24     1.534     0.921 -42.01   0
       616    289.9737     36.0299 307.8132911  +6.6670667     869.6152     1662.012     1787.814     80.30466     161.0591     322.2466      2.199     5.62     911.7184     56.82945      143.773        11     1.641     0.542 -34.78   0
       617    927.1411     31.1031 307.5486851  +6.6904508     948.9512     1236.452      1214.47     80.56164     161.2515     322.5351      1.508     5.04     890.1896     56.82945      150.468        11     1.261     0.675 -34.63   0
       618    678.4581     30.3567 307.6520520  +6.6824431     1851.899     2987.809     2592.152     80.68983     161.1874     322.4389      1.653     4.71     895.4445     56.82945     220.3701        17     1.304     0.843 -42.06   0
       619    243.9913     24.9419 307.8327723  +6.6700986     656.1418     1253.521     1797.719     80.17587     161.1874     322.1183      1.780     5.80     911.7567     56.82945      98.3385         9     1.878     0.505 -41.17   0
       620    190.2148     25.4590 307.8551002  +6.6680758      675.874     1022.993     966.6498     80.17587     161.2515     322.1503      1.774     5.06     911.5095     56.82945     96.28589         6     1.182     0.612 -47.93   0
       621    166.6304     23.1779 307.8649771  +6.6682239     10146.75     16777.26     17498.26     80.30466     161.0591     322.2466      1.755     4.31     911.3403     56.82945     1311.119        38     1.634     1.057 -40.53   0
       622      2.2682     23.7532 307.9332525  +6.6624490     725.7333     1239.175     1072.428     79.91766     141.6684     257.9431      1.825     5.75     911.0046     56.82945     88.70892         8     0.995     0.934 -33.97  24
       623    912.2408     21.0375 307.5552147  +6.6941093     4135.137     6292.356     6523.412     80.56164     161.2515     322.2786      1.597     4.36     889.9681     56.82945     557.5307        22     1.411     0.865 -42.96   0
       624    510.7262     21.4702 307.7220516  +6.6804911      2781.03     4418.356     4639.405     80.94558     161.3796     322.4069      1.762     4.60     897.9556     56.82945      349.244        25     1.535     0.957 -38.68   0
       625    713.1367     19.7043 307.6379993  +6.6880024     1960.079      3227.67     3309.653     80.68982     161.3796     322.4389      1.712     5.28     894.5172     56.82945      269.337        22     1.627     0.900 -27.88   0
       626    449.0917     19.8380 307.7477183  +6.6790971     1642.842     2757.829     2643.275     80.94557     161.1874     322.4389      1.739     5.23      900.256     56.82945     231.4337        18     1.435     0.831 -38.06   0
       627     67.8387     19.9328 307.9061365  +6.6662366     484.4403      690.033     1041.924     80.68982     161.1874      322.471      1.551     3.83     910.8103     56.82945     81.57349         5     0.806     0.522 -33.66   0
       628    944.4627   1019.5989 307.5083680  +6.2828649     5871.344     10622.66     11022.83     80.17587     161.0591     299.5424      1.902     4.38     922.8035     56.82945     673.7895        39     1.648     1.214 -42.32  16
       629    771.6526     16.4247 307.6137927  +6.6913145     579.0203     989.0425     829.2851     80.30466     161.2515     322.3107      1.816     5.07     893.3205     56.82945     93.66675         5     1.044     0.695 -57.10   0
       630    704.2689   1017.7856 307.6081640  +6.2755885     2505.572     4396.489     4303.046     80.30466     161.1874     316.3232      1.813     4.73      926.727     56.82945     325.4493        29     1.678     1.186 -49.04  18
       631    427.5190   1018.3315 307.7230566  +6.2660931     903.7919     1214.016     1322.564     80.94558     161.5077     312.0801      1.683     6.12     931.5784     56.82945     126.0439        12     1.525     0.691 -30.89  16
       632    720.0307   1016.4623 307.6016637  +6.2766621     1061.943     1542.055     1366.995     80.56164     161.3156     322.3748      1.650     5.94     926.4041     56.82945     159.3911        14     1.494     0.689 -29.22  16
       633    350.9488   1015.0018 307.7549612  +6.2648987      1719.35     2873.581     2811.776     80.17587     160.8665     321.9899      1.655     4.39     931.5128     56.82945     247.5306        19     1.505     0.794 -44.36  16
       634    698.7461   1020.2289 307.6103752  +6.2743948     947.4716     1247.781      1081.16     80.56165     161.3156     292.3841      1.507     5.20     926.8586     56.82945     126.2405         9     1.200     0.636 -66.42  19
       635    229.2647   1019.2199 307.8053422  +6.2590702     1422.565     2130.426     2565.193     80.43326     161.2515     303.5523      1.637     5.92     932.0432     56.82945     187.6474        17     1.525     0.851 -42.00  16
       636    533.1441   1005.2176 307.6796407  +6.2750489     3944.258     6646.299     7293.809     80.30466     161.1874     322.1503      1.779     4.25     930.1714     56.82945     544.1547        32     1.589     1.100 -49.56   0
       637    737.6861   1004.5581 307.5947321  +6.2821679     7532.008     12288.29     12748.02      80.8178     161.1233     322.4069      1.767     4.38     925.7688     56.82945     943.1362        37     1.614     1.062 -45.12   0
       638    503.4390   1006.3492 307.6919367  +6.2735862     1101.438     1977.537     1567.682     80.56165     161.2515     322.3748      1.813     5.47     930.7643     56.82945     161.5942        14     1.364     0.771 -40.24   0
       639    283.4915   1003.7851 307.7833476  +6.2672651     14297.65     23121.54     25330.42     80.56165     161.0591     322.2145      1.775     4.42     931.9078     56.82945     1901.193        51     1.939     1.035 -35.53   0
       640    798.8215   1004.3245 307.5693547  +6.2843081     1123.727     1655.787      1633.11     80.43326     161.0591     322.3427      1.713     6.06     923.9507     56.82945     135.1031        14     1.341     0.769 -43.08   0
       641    407.4808   1004.3434 307.7318474  +6.2711966     970.7508      1236.72     870.9743     80.94558     161.2515     322.4069      1.652     6.72     931.3327     56.82945     137.0147        14     1.714     0.740 -30.38   0
