#   1 NUMBER                 Running object number                                     
#   2 X_IMAGE                Object position along x                                    [pixel]
#   3 Y_IMAGE                Object position along y                                    [pixel]
#   4 ALPHA_J2000            Right ascension of barycenter (J2000)                      [deg]
#   5 DELTA_J2000            Declination of barycenter (J2000)                          [deg]
#   6 FLUX_APER              Flux vector within fixed circular aperture(s)              [count]
#   9 FLUXERR_APER           RMS error vector for aperture flux(es)                     [count]
#  12 FLUX_RADIUS            Fraction-of-light radii                                    [pixel]
#  13 FWHM_IMAGE             FWHM assuming a gaussian core                              [pixel]
#  14 BACKGROUND             Background at centroid position                            [count]
#  15 THRESHOLD              Detection threshold above background                       [count]
#  16 FLUX_MAX               Peak flux above background                                 [count]
#  17 ISOAREA_IMAGE          Isophotal area above Analysis threshold                    [pixel**2]
#  18 A_IMAGE                Profile RMS along major axis                               [pixel]
#  19 B_IMAGE                Profile RMS along minor axis                               [pixel]
#  20 THETA_IMAGE            Position angle (CCW/x)                                     [deg]
#  21 FLAGS                  Extraction flags                                          
         1    638.5398     29.3399 307.6729588  +6.6960714     3824.504     11058.18     15179.51     92.05785     183.6782     367.2834      3.043     7.50     1174.144     64.73323     409.6134        70     2.408     1.862 -37.23   3
         2    647.8123     25.7936 307.6692213  +6.6978431     1434.343     4109.374     5682.958     91.61982      183.459     367.1373      3.014     9.23     1174.049     64.73323     163.4471        38     1.994     1.660 -58.65   3
         3    408.3727     29.6536 307.7686929  +6.6883023     3151.014     9325.826     12328.25     91.76606     183.8241     367.1373      2.893     7.47     1185.421     64.73323     345.9182        62     2.215     1.835 -43.83   0
         4    670.4064     27.0281 307.6597808  +6.6980822     7358.776     21192.13     31758.98     91.47334      183.459     367.0277      3.184     8.43     1174.058     64.73323     715.6243       104     3.109     1.785 -37.50   0
         5     55.0538     22.9824 307.9158859  +6.6792937     1256.639     3866.101     5337.334     91.47334     183.7512     366.9546      3.007     9.70     1203.175     64.73323     165.2992        35     2.204     1.580 -53.85   0
         6    145.8171     20.3068 307.8782235  +6.6834244     2198.385     5939.802     8129.192     91.76606      183.459     367.1008      2.922     7.15     1201.786     64.73323     248.2371        48     2.104     1.640 -45.74   0
         7    879.9164     16.4750 307.5729816  +6.7093753     1038.255     2537.832     3327.479     92.20339     184.0428     367.3199      2.739     8.36     1167.052     64.73323     113.9519        18     1.746     1.118 -37.03   0
         8    788.1470      7.3080 307.6114668  +6.7101246     1276.117     3450.792     4054.472     91.91207     183.5321     361.1348      2.595    10.08     1169.406     64.73323     161.6277        32     1.842     1.536 -51.59  16
         9    613.6148      3.0008 307.6842170  +6.7061208     5265.629     12179.53     14053.96     91.61982     171.0526     306.1546      2.356     6.87     1173.408     64.73323     560.5828        49     2.165     1.373 -14.95  24
        10    193.3312   1007.5875 307.8249963  +6.2773453     520.3073     954.2397     1240.861     91.47335     183.5321     367.1008      2.290     5.58     1234.619     64.73323     105.6831         6     1.219     0.721 -35.79   0
        11    945.7422   1004.3608 307.5123614  +6.3036192     5505.536     9988.388      10590.7     92.05785     183.7512     367.2834      1.957     4.39      1230.64     64.73323     754.3833        39     1.725     1.188 -43.11   0
        12    919.4143    996.0633 307.5235842  +6.3061760       1660.1     3106.273      2731.82     91.47334     183.5321     367.0642      1.975     5.67      1230.22     64.73323     178.1836        19     1.529     0.852 -40.17   0
        13    640.2446    992.2889 307.6397539  +6.2984996     3245.347     6490.823      7934.27     92.05785     183.5321     367.2834      2.237     5.33     1231.567     64.73323     336.2336        35     1.848     1.162 -43.54   0
        14    252.5221    992.4824 307.8009058  +6.2855514     2744.076     5899.433     6325.821     92.20339       183.97     367.3929      2.339     6.03     1234.904     64.73323     305.0327        36     1.876     1.292 -42.74   0
        15    779.0836    992.4654 307.5820371  +6.3030228     845.8458     1550.518     1659.317     92.20339       183.97     367.3199      1.851     5.41     1230.976     64.73323     117.9767         9     1.352     0.611 -71.17   0
        16     21.0595    990.0137 307.8971933  +6.2788651      1254.84     2854.812     3035.349     91.32664     183.6052     366.9181      2.254     7.85      1231.76     64.73323     177.3921        24     1.950     1.105 -46.62   0
        17    871.5049    988.9770 307.5437373  +6.3075192     672.4222     827.8917     866.2546     92.05785      183.459     367.1008      1.564     4.69      1229.86     64.73323     105.5977         8     1.047     0.597 -43.53   0
        18    565.5395    984.4652 307.6710701  +6.2992547      1104.29     2145.531     2436.228     92.05785     183.6052     367.2834      2.172     7.18     1232.732     64.73323      141.693        14     1.252     1.154  54.02   0
        19    996.3181    984.6281 307.4920013  +6.3134375      691.958     1504.152     2219.563     91.91207      183.459     367.1738      2.288     5.51      1228.45     64.73323     83.64526         6     0.954     0.899 -65.19   0
        20    604.1618    980.4343 307.6551522  +6.3021993      907.713      1822.96     2449.105     91.76606      183.459     366.9912      2.247     6.35     1231.583     64.73323     101.5277        10     1.367     0.829 -65.02   0
        21    284.4632    978.4013 307.7881062  +6.2924277     908.8959     1893.949     1817.134     91.32664      183.459     366.9912      2.155     6.72     1235.052     64.73323     112.4636        11     1.395     0.908  -7.30   0
        22    888.4555    971.2496 307.5372877  +6.3153996     5463.533      10013.4     11317.22     92.05785     183.6782     367.2834      2.022     5.07     1228.938     64.73323      656.469        42     2.038     1.118 -35.03   0
        23    424.3555    968.7269 307.7302864  +6.3010698      1347.92     2750.758     2526.303     91.91207     183.7512     367.2834      2.083     6.50     1233.719     64.73323     158.0238        21     1.342     1.320  85.72   0
        24    326.1334    967.3306 307.7711605  +6.2983840     5548.086     12313.28     13787.66     92.05785     183.7512     367.2469      2.333     5.30     1234.781     64.73323     576.7505        54     2.110     1.399 -40.07   0
        25    246.3739    966.2180 307.8043503  +6.2961920     4190.999     9403.021     10854.17     91.61982      183.459     367.1373      2.402     5.48     1234.742     64.73323     484.1324        50     1.978     1.474 -41.38   0
        26    574.5104    960.4490 307.6681516  +6.3094690     927.6075     1616.245     1844.101     92.05785      183.459     367.4294      2.095     5.83     1231.828     64.73323     135.0167        10     1.199     0.798 -88.58   0
        27    903.6122    956.7330 307.5314756  +6.3218949      786.856     1374.331      1374.63     91.47335      183.459     367.1373      2.297     5.37     1227.999     64.73323     119.3009         8     1.364     0.597 -59.81   0
        28    861.2159    955.2941 307.5491476  +6.3210880     690.4601     1016.046     1136.589     91.76606      183.459     367.0642      1.618     4.97     1228.545     64.73323     109.7869         6     0.922     0.758  68.62   0
        29    740.4057    949.9303 307.5995472  +6.3193072     1131.223     1997.512     2301.241     91.47334     183.2396     367.0642      1.913     5.49     1229.951     64.73323     166.5227        14     1.295     1.107 -46.66   0
        30    972.1238    945.1729 307.5033845  +6.3289313     875.5629      1763.71     2579.543     91.91207     183.6052     367.2103      1.889     4.56     1225.418     64.73323      146.894         8     1.657     0.356 -23.67   0
        31    659.1499    942.5700 307.6335719  +6.3196563     1665.126     3363.883     3916.998     91.61982     183.8241     367.1373      2.173     6.17     1230.056     64.73323     198.8097        23     1.804     0.880 -36.93   0
        32   1010.6601    941.5085 307.4874883  +6.3317166     718.9434     1065.819     923.9182     91.91207     183.6782     367.3199      1.660     4.31     1223.845     64.73323     98.83679         6     1.165     0.837 -29.50   0
        33     55.8226    939.6146 307.8844541  +6.3008339     1877.295     4278.878     5134.938     91.76606      183.459     367.1373      2.394     6.06     1230.985     64.73323     242.5073        32     1.690     1.336 -51.24   0
        34    199.6304    938.5264 307.8247171  +6.3060715     1244.253     2843.245     2588.192     91.91207     183.6782     367.2469      2.233     8.76     1234.593     64.73323     161.3054        24     1.531     1.401 -76.42   0
        35    653.7502    932.1038 307.6361694  +6.3237993     4374.417     9437.024     11555.45     91.91207     183.6052     367.4294      2.325     5.51     1229.839     64.73323     511.5168        46     2.002     1.332 -42.91   0
        36     14.3924    931.2502 307.9019581  +6.3029070     678.0508     1521.889     1897.631     91.47335      183.459      366.845      2.299     6.23     1230.581     64.73323     100.1016        10     1.264     0.864  76.65   0
        37    891.3326    928.1514 307.5375415  +6.3332915     2013.267     3707.329     3642.045     91.91207     183.6052     367.2834      2.031     4.98      1226.71     64.73323     275.3958        22     1.601     0.926 -42.56   0
        38    336.8911    925.4252 307.7681063  +6.3160452     9419.637     21300.12     25552.59     92.20339     183.3859     367.0642      2.430     5.44     1233.893     64.73323     1003.413        69     2.147     1.572 -36.59   0
        39     73.4686    938.4791 307.8771581  +6.3018907     1229.953     2888.556     3502.261     92.20339     183.8971     367.2103      2.535     8.75     1230.992     64.73323      139.759        23     1.900     1.126 -34.03   0
        40     70.3679    927.3159 307.8788255  +6.3063968     643.4948     1490.829     1828.873     92.05785      183.459     367.1373      2.309     4.64     1230.524     64.73323     96.31433         5     1.063     0.574 -48.54   2
        41    100.7374    916.3979 307.8665725  +6.3119166     942.4941     2060.198     1903.717     91.32664      183.459     366.9546      2.245     6.84     1230.626     64.73323     113.3182        13     1.353     0.971 -35.15   0
        42    881.3909    909.9017 307.5422882  +6.3404990     1480.993     2584.867     2351.005     91.76606     183.2396     367.0277      1.857     4.89     1225.957     64.73323     242.8196        15     1.427     0.770 -41.50   0
        43    852.7319    909.3525 307.5542203  +6.3397785     1379.491     2895.424     2943.878     92.05785     183.6052     367.2469      2.276     7.92     1226.435     64.73323     166.5764        23     1.913     1.047 -41.47   0
        44    815.8598    908.9029 307.5695632  +6.3387450     2068.429     4179.021     4466.887     91.76606     183.6782     367.3564      2.129     5.43     1226.696     64.73323     251.5941        28     1.684     1.148 -38.09   0
        45     83.9504    909.7332 307.8737761  +6.3141095     1359.411      3184.51         3469     91.91207     183.5321     367.2469      2.399     6.99     1230.342     64.73323     181.7406        24     1.594     1.267 -49.47   0
        46    551.8343    900.5196 307.6796002  +6.3334639     195380.1     438568.2     515468.1     91.91207     183.7512     367.2834      2.402     5.52     1230.261     64.73323     20314.75       183     2.355     1.722 -41.52   0
        47    396.2408    903.2773 307.7441851  +6.3271621     4146.003     9819.563     11299.35     91.91207     183.6782     367.3199      2.456     6.10     1232.674     64.73323     467.4686        52     2.110     1.466 -37.70   0
        48    339.3881    901.5327 307.7678765  +6.3259939     6854.753     16322.37     19728.87     91.47335     183.5321     367.1373      2.534     6.07     1233.398     64.73323     643.7509        66     2.176     1.587 -41.65   0
        49    639.9656    902.9261 307.6428834  +6.3353911     722.0001     1462.771     544.9474     91.91207     183.6052     367.2103      1.671     5.77     1228.963     64.73323     83.97217         7     1.287     0.728  81.75   0
        50    657.7128    897.7464 307.6356807  +6.3381178     2050.194     4565.456     5157.775     92.05785     183.5321     367.4294      2.497     5.72      1228.07     64.73323     254.7137        28     1.735     1.128 -25.68   0
        51    889.7520    896.5423 307.5392619  +6.3462919       3838.6     7641.718     9033.763     92.05785     183.6782     367.3929      2.225     4.87     1224.959     64.73323     461.2006        41     1.854     1.295 -23.56   0
        52    632.7283    891.7595 307.6462686  +6.3397624     2030.919     4629.801     5287.037     91.91207     183.6782     367.3199      2.267     6.52     1228.757     64.73323      240.968        33     1.945     1.216 -43.04   0
        53    820.9072    891.1259 307.5680635  +6.3462527      1130.81     2625.201     2559.434     92.05785     183.8241     367.2103      2.150     6.75     1225.666     64.73323     200.5017        19     1.812     0.941 -45.30   0
        54   1022.9236    890.5953 307.4841009  +6.3531454     3343.625     5004.797      5311.25     88.94638     158.0976     289.8661      1.631     4.39     1220.221     64.73323     492.2495        20     1.476     0.847 -62.31  24
        55    624.5848    887.3707 307.6498018  +6.3413048     1385.131     3442.401     5240.241     91.61982     183.3859     367.1738      3.012     9.47     1228.884     64.73323     168.0522        28     2.171     1.153 -49.71   0
        56    947.5234    889.7383 307.5154745  +6.3510101     685.1407     1280.617     1172.964     92.34871     183.6782     367.2469      2.223     5.72     1222.758     64.73323     94.78003         7     1.593     0.578 -35.12   0
        57    908.8608    884.3561 307.5317281  +6.3519554     2343.499     4498.767      5112.93     91.91207     183.6782     367.3929      2.101     4.93     1223.649     64.73323     308.9316        28     1.684     1.052 -38.39   0
        58    367.3506    880.5063 307.7569641  +6.3356052     1549.166     3523.604     4934.452     91.91207     183.5321     367.3929      2.842     6.60     1232.537     64.73323     186.9778        26     1.633     1.254 -29.28   0
        59    503.2581    870.4045 307.7008098  +6.3442882      1716.09     4349.065      5064.08     91.32664     183.5321     366.9912      2.560     7.99     1230.122     64.73323      207.646        35     2.063     1.309 -26.04   0
        60    847.3660    869.4573 307.5577936  +6.3560753     703.2976      1387.85     1311.883     91.91207     183.6782     367.2469      2.351     5.90     1224.254     64.73323     103.7345         8     1.269     0.771 -53.05   0
        61    550.4515    866.4243 307.6813259  +6.3474970     3563.349     8125.155     10838.29     91.61982     183.6782     367.1373      2.840     6.01     1229.269     64.73323     369.9225        51     2.094     1.503 -35.82   0
        62    886.0306    863.4966 307.5419207  +6.3598147     829.3613     1818.151     2136.238     92.20339     183.3859     367.3199      2.156     3.54      1223.14     64.73323     119.7633         5     0.815     0.444 -19.77   3
        63    108.7330    865.2906 307.8649817  +6.3332859     590.3758     1365.706       2143.2     92.20339     183.8241     367.2834      3.355     5.26     1229.961     64.73323     99.92639         6     1.083     0.722  -4.27   0
        64    885.3990    866.3148 307.5420884  +6.3586301     759.2465     1513.565     2207.073      91.1797     183.1664     366.8815      2.403     4.05     1223.335     64.73323     121.7312         6     0.942     0.584 -22.28   2
        65    520.9304    860.2305 307.6938070  +6.3490755     11089.44     25913.33     30819.01     91.91207     183.6782     367.1738      2.472     5.70      1229.22     64.73323     1155.765        75     2.246     1.585 -40.84   0
        66    934.3895    858.2501 307.5219934  +6.3635790     2734.028     5394.948     6195.229     91.32664     183.5321     366.8815      2.092     5.79     1221.517     64.73323      323.907        35     1.928     1.196 -33.31   0
        67    313.7020    849.2371 307.7803231  +6.3467343     1720.633      4070.95     4478.499     92.05785     183.5321     367.4659      2.435     6.52      1232.46     64.73323     203.7229        32     1.761     1.409 -30.95   0
        68     32.3336    850.6130 307.8972367  +6.3368010      786.735     1418.574     1097.789     91.47335      183.459     367.1373      1.764     3.79     1228.929     64.73323     119.9365         5     0.952     0.433 -15.22   0
        69    778.9872    844.6632 307.5870548  +6.3640523     33913.53     73045.95      84774.3     91.47334      183.459     366.9912      2.308     5.32     1223.365     64.73323     3871.927       102     2.242     1.539 -39.81   0
        70     13.8189    847.1435 307.9050505  +6.3376165     1164.656     2860.933     3969.306     91.47334     183.6052     367.0277      2.752     8.43     1228.552     64.73323     144.6543        18     1.570     1.265 -69.47   0
        71    236.5253    842.7379 307.8126248  +6.3468518      2755.31     6999.462     10228.23     92.34871     183.6782     367.2469      3.203     7.12     1232.467     64.73323     280.3334        52     2.150     1.695 -28.95   2
        72    904.2726    839.8723 307.5351319  +6.3701729     5733.273     11288.38     12390.33     92.34871     183.8241     367.2834      2.111     5.06     1221.569     64.73323     642.5591        46     1.976     1.216 -40.03   0
        73    707.3656    839.0716 307.6170177  +6.3639909      12649.8     28568.71     34450.25     91.91207     183.6052     367.2469      2.432     5.82     1223.816     64.73323     1301.094        66     2.260     1.436 -39.36   3
        74    700.9838    835.8230 307.6197802  +6.3651210     50897.88     115263.1     137270.8     91.76606      183.459     367.1373      2.435     5.64     1223.668     64.73323     5405.877       111     2.327     1.613 -40.07   3
        75    346.0226    836.8760 307.7673057  +6.3529126     10820.21     26605.61     32604.86     91.61982      183.459     367.1373      2.575     5.98     1230.991     64.73323     1094.205        81     2.244     1.711 -42.51   0
        76    407.8513    834.7100 307.7416766  +6.3558608     11181.22     27769.65     33432.57     92.05785      183.459     367.3929      2.557     6.07     1229.968     64.73323     1078.922        72     2.196     1.652 -42.05   0
        77    395.2661    836.3213 307.7468539  +6.3547775     807.7075     1785.786     2580.977     92.20339     183.8241     367.2103      2.524     5.04     1230.173     64.73323     89.35449         9     1.249     0.576 -40.55   0
        78    235.8818    821.4054 307.8136147  +6.3556390     780748.8      2474934      3160726     91.61982     183.1664     366.9912      2.884     7.95     1231.756     64.73323     65029.96       521     2.727     2.192 -45.69   4
        79    901.2801    831.2543 307.5366659  +6.3736327     4525.266     9207.831      10581.1     92.05785     183.6782     367.2834      2.184     5.37     1221.208     64.73323     522.5005        43     1.951     1.245 -45.52   0
        80    641.7780    830.5386 307.6445714  +6.3653422     3548.007     8262.734     9877.812     91.61982     183.6782     367.1373      2.498     6.88     1224.793     64.73323     345.1305        48     2.280     1.337 -37.62   0
        81    429.4594    828.9883 307.7328874  +6.3589408     808.2588     1938.901     2384.147     91.32664     183.5321     366.9181      2.243     6.18     1229.122     64.73323     121.6609         9     1.518     0.707  60.85   2
        82    677.1161    820.1081 307.6302323  +6.3708199     1282.891     2824.692     3346.024     91.76606     184.0428     367.3929      2.307     7.59     1222.816     64.73323     174.9434        18     1.396     1.156 -60.49   0
        83    410.7423    817.4073 307.7410597  +6.3631015     27630.73     69038.98     83468.04     91.32664     183.5321     366.9181      2.579     6.10     1229.162     64.73323     2652.584       108     2.341     1.759 -40.64   0
        84    445.3294    814.9675 307.7267640  +6.3652573     2225.566     5847.655     8115.804     91.91207     183.6782     367.2834      2.955     8.95     1227.586     64.73323     247.5175        49     2.214     1.866 -37.83   2
        85    442.0111    807.6407 307.7283910  +6.3681725     1088.478     2591.519     3414.476     91.32664      183.459     366.9181      2.685     8.01     1227.318     64.73323     121.2921        19     1.440     1.246 -42.06   2
        86    773.5056    812.7556 307.5904083  +6.3770467     7045.529     15224.39     17078.25     92.05785     183.6052     367.3929      2.283     5.50     1221.387     64.73323     725.6833        56     2.090     1.413 -42.18   0
        87    794.7484    807.6334 307.5817496  +6.3798645     681.5443     1575.126     2798.652     91.91207     183.6782     367.1373      3.628     6.22     1220.659     64.73323      92.3855         7     1.461     0.744 -71.03   0
        88    139.8370    805.4009 307.8540825  +6.3590511     1426.269     3789.014     5365.359     91.03251      183.459     367.0277      2.845     8.65     1229.571     64.73323     168.6243        31     1.941     1.337 -40.85   3
        89    131.6084    805.2344 307.8575087  +6.3588458     5801.038     14916.18     19313.45     91.47335      183.459     367.0277      2.742     6.08     1229.379     64.73323     555.5197        70     2.256     1.681 -37.79   3
        90    123.9594    801.6847 307.8608087  +6.3600568     1634.795     4356.855     7826.676     92.05785     183.6052     367.2103      3.839    13.72     1229.146     64.73323     174.5653        50     3.462     1.513 -83.41   2
        91      5.1515    808.8514 307.9099529  +6.3531388     662.5585     1435.204     1528.926     92.20339     183.5321     338.1232      2.566     3.73     1226.548     64.73323      98.3457         5     0.984     0.407 -44.93  16
        92    944.7029    832.9079 307.5185580  +6.3743844     1511.736     2911.803      2614.64     92.05785     184.2613     367.2103      2.003     6.97     1220.152     64.73323     197.7759        22     1.647     1.033 -39.50   0
        93    919.0612    801.4281 307.5302769  +6.3865366     4270.574     8426.124     9284.522     91.61982     183.6782     367.1738      2.076     5.34     1219.816     64.73323     476.1515        41     1.995     1.217 -39.92   0
        94    968.0771    800.9356 307.5099155  +6.3883589     1178.932     2131.114     2899.457     92.34871     183.6782     367.2469      2.385     4.91     1217.553     64.73323      138.671        12     1.174     0.746 -50.54   0
        95    674.6512    798.5320 307.6319846  +6.3796477     1178.098     2598.181     2907.259     91.91207     183.5321     367.1738      2.305     6.99     1221.551     64.73323     146.4482        17     1.342     1.205 -23.33   0
        96    561.8161    798.3128 307.6789007  +6.3759990     1315.359     3063.481     3709.984     91.76606     183.3859     367.1008      2.630     6.68     1223.754     64.73323     189.1213        20     1.484     1.218 -53.21   0
        97    528.4424    816.3129 307.6921671  +6.3674596     3828.494     9100.609     10539.59     92.05785     183.5321     367.2834      2.460     5.91     1225.378     64.73323     416.4559        51     1.998     1.530 -41.40   0
        98    973.5775    792.5542 307.5079106  +6.3920015     1298.079     2700.753     2823.964     91.61982     183.6782     367.0642      2.097     7.19     1216.789     64.73323     144.9926        22     1.617     1.319 -56.19   0
        99    942.6080    792.7593 307.5207791  +6.3908941      2061.46     4219.088     4505.879     91.32664      183.459     366.8815      2.073     6.13     1218.363     64.73323     224.4927        30     1.817     1.067 -48.99   0
       100    913.2792    793.3527 307.5329524  +6.3896802      1976.83     3875.092     4029.429     92.05785     183.7512     367.2103      2.124     5.71      1219.13     64.73323     222.4607        25     1.643     1.087 -30.47   0
       101    666.2642    792.3871 307.6356785  +6.3819073     886.0604     1720.251     1983.901     91.47335      183.459     367.0642      1.954     6.24     1221.433     64.73323     111.2987        11     1.331     0.822 -69.96   0
       102    238.6462    787.6055 307.8136101  +6.3696876     1249.454     3503.726     6450.169     91.32664      183.459      366.845      4.790    10.67      1230.22     64.73323     143.3978        32     2.331     1.362 -41.01   0
       103    957.7625    780.2872 307.5148981  +6.3965448     1729.827     3231.943     3941.212     92.05785     183.6052     367.2469      2.130     5.48     1216.739     64.73323     250.1229        23     1.572     1.089 -43.88   0
       104    904.8431    781.4885 307.5368588  +6.3943006     843.5119     1707.141       1745.4     92.05785     183.6052     367.2834      2.261     6.59     1218.169     64.73323     116.9623        11     1.528     0.799 -36.30   0
       105    468.6481    775.9697 307.7183877  +6.3821345     4715.347     6605.971     6576.948     91.61982     183.7512     367.1373      1.516     4.68     1224.279     64.73323     1327.397        12     1.586     0.393 -41.17   0
       106    999.6660    773.8675 307.4976925  +6.4005793      1110.82     1987.369     2261.504     92.05785     183.6782     367.2834      2.043     5.69     1214.931     64.73323     172.4683        13     1.425     0.757 -26.82   2
       107    800.4827    772.7558 307.5805402  +6.3944564     653.0481     1250.416     1573.393     92.05785     183.6782     367.2103      2.114     5.12     1218.396     64.73323     109.1885         5     1.088     0.681  19.91   0
       108    886.8010    770.1483 307.5447414  +6.3983872     1066.721     2309.034     2383.413     91.32664     183.2396     366.7353      2.152     7.53     1217.502     64.73323     132.7002        15     1.498     1.059 -33.76   0
       109    861.4938    765.7629 307.5554104  +6.3993616     632.2506     1123.845     1122.796     92.20339     183.5321     367.3564      1.878     6.32      1217.56     64.73323     112.1405         7     1.361     0.824 -64.49   0
       110    796.7347    765.2994 307.5823496  +6.3974115     2347.376     2209.442     2673.476     92.05785     183.8241     367.2103      0.720     1.01     1217.939     64.73323     1053.656         5     0.516     0.451 -19.03   0
       111     43.4622    760.3098 307.8956747  +6.3744593     1452.177     3531.603     3810.122     92.05785     183.8241     367.3199      2.441     8.28     1226.701     64.73323     169.2075        28     1.901     1.349 -28.01   0
       112    843.9983    761.2488 307.5628361  +6.4006472     886.8956     1770.713      1541.51     91.32664     183.2396     366.7719      2.095     5.77     1217.356     64.73323      110.604         9     1.168     0.803  83.92   0
       113    108.8097    759.3006 307.8685435  +6.3770533     530.0952     1351.069     1511.404     91.76606     183.2396     367.0277      2.765     5.06     1227.218     64.73323     91.57263         5     1.075     0.673  62.61   0
       114    655.6910    749.0065 307.6415372  +6.3994704      3245.71     7688.253     9139.937     91.61982     183.3128     366.9912      2.438     5.99     1219.358     64.73323     337.1503        45     1.999     1.435 -37.53   0
       115    602.2285    747.3663 307.6638194  +6.3983761     776.4222     1896.868     2578.971     91.47335     183.3859     366.9912      2.794     4.60     1219.823     64.73323     102.8934         7     1.136     0.529 -61.98   0
       116    118.9450    744.6645 307.8648264  +6.3834344     1814.225     4609.738     5086.159     92.20339     183.6052     367.2469      2.551     7.99     1226.739     64.73323      210.752        38     1.949     1.616 -36.19   0
       117    992.7624    743.5998 307.5015801  +6.4128502     1719.007     3465.768     3645.872     90.88509      183.459     367.0277      2.114     5.77     1214.126     64.73323     241.8179        23     1.667     1.059 -36.79   0
       118    772.5184    740.8718 307.5932404  +6.4066973     11341.06     25966.95     30325.71     92.34871     184.0428     367.2834      2.441     5.83     1216.494     64.73323     1150.981        75     2.201     1.582 -38.94   0
       119    629.7488    744.2526 307.6524830  +6.4005739     1275.275     2915.657     3405.271     92.20339     183.5321     367.2834      2.451     7.93     1219.268     64.73323     151.1572        23     1.590     1.151 -20.36   0
       120    902.5593    740.4493 307.5391891  +6.4111718     2385.588     4912.349     5438.438     92.20339     183.6782     367.1738      2.176     6.10     1214.841     64.73323     283.8571        30     1.831     1.117 -44.07   0
       121    246.3457    734.7922 307.8121978  +6.3917513     2877.329     7850.464     10502.57     91.47335     183.5321     366.9181      2.947     7.03     1226.289     64.73323     311.6384        51     2.067     1.660 -45.77   0
       122    653.0933    733.7866 307.6431306  +6.4056691     3500.709     8628.808     10217.27     91.76606     183.3859     367.0277      2.577     6.62     1218.515     64.73323       395.42        52     2.158     1.504 -43.43   0
       123    912.3934    727.1996 307.5355462  +6.4169680     625.3625     1438.021     1283.662     91.32664     183.3128     367.0277      2.244     3.41     1213.832     64.73323     89.18201         5     0.753     0.447  70.96   0
       124    724.9343    722.0773 307.6136571  +6.4128834     1761.691     4401.082     5684.384     92.20339     183.6782     367.2103      2.765     7.45     1215.957     64.73323     178.6606        38     1.976     1.462 -32.39   0
       125    990.9917    718.5270 307.5031592  +6.4231452     6073.641     12038.15     13761.91     91.61982     183.1664     367.0642      2.136     5.12     1212.666     64.73323     757.4733        47     1.906     1.281 -38.50   0
       126    929.3539    718.9005 307.5287738  +6.4209554      1517.12     3139.521     3767.217     92.05785     183.5321     367.5023      2.283     5.84     1213.076     64.73323     190.0105        21     1.674     1.003 -46.53   0
       127     11.4007    718.8605 307.9104096  +6.3905053     952.4656      2297.56     3560.565     91.17969      183.459     366.8815      3.038     6.85     1226.452     64.73323      122.088        12     1.488     0.884 -36.35   0
       128     68.7258    713.9888 307.8867438  +6.3944277     12397.14     32362.03     39502.37     91.47334     183.2396     367.0642      2.645     6.25     1225.731     64.73323     1268.246        87     2.297     1.784 -42.95   0
       129    530.7651    713.6014 307.6946700  +6.4099491     1018.247     2280.604     3097.724     91.03251      183.459     367.0277      2.486     7.00     1220.296     64.73323     156.3312        13     1.508     1.132  77.50   0
       130    919.6677    709.0294 307.5331330  +6.4247115     615.2323     1263.704     1492.401     91.76606     183.6782     367.2103      1.523     3.70     1212.771     64.73323     90.44775         5     1.111     0.354  71.12   2
       131    713.8669    705.8326 307.6188061  +6.4192249     1819.078     4214.958     4708.973     91.91207     183.7512     367.1738      2.583     7.61     1215.489     64.73323     195.8384        32     2.007     1.275 -47.99   2
       132    736.3796    704.0937 307.6095047  +6.4206883     2013.914     5055.237     6590.526     91.91207      183.459     367.0642      2.679     7.85     1214.818     64.73323     230.0524        40     2.163     1.386 -39.34   0
       133    568.5485    701.3324 307.6793756  +6.4162684     1534.371     3650.646     4876.203     91.91207     183.5321     367.2103      2.718     7.15     1218.372     64.73323     176.5829        26     1.584     1.295 -42.89   2
       134   1009.2735    699.9788 307.4961815  +6.4314080     3329.579     6686.708      7099.47     91.61982     183.5321     367.1738      2.102     5.39     1211.137     64.73323     393.1375        36     1.873     1.175 -46.92   0
       135    228.2239    700.9887 307.8208765  +6.4051066     755.5052     2012.771     2663.365     91.61982      183.459     367.1738      2.501     5.02     1224.486     64.73323     121.6237         7     1.335     0.534 -39.31   2
       136    974.6898    698.9185 307.5105963  +6.4307041     5342.768     10977.83     12201.49     91.76606     183.8971     367.3199      2.175     5.19     1211.537     64.73323     651.0447        42     1.857     1.276 -39.44   0
       137    133.4378    692.8617 307.8605578  +6.4053072      11283.4     30186.73     37532.06     92.05785     183.7512     367.2469      2.710     6.51     1224.232     64.73323      1130.73        87     2.400     1.791 -41.37   0
       138    420.1904    693.2640 307.7413289  +6.4146771     1318.286     3766.086     5109.326     91.47334      183.459     367.0642      2.943    10.10     1221.987     64.73323     148.8199        36     2.117     1.470 -40.65   0
       139    969.4826    681.9340 307.5133325  +6.4375457     4432.399     9629.764     11490.46     92.34871       183.97     367.3199      2.445     5.36     1210.608     64.73323     521.4005        54     2.035     1.535 -28.93   0
       140   1023.0639    677.6343 307.4911988  +6.4410901     38853.07      55885.4     58863.31     87.73204     156.2205     287.6371      1.552     4.67     1209.201     64.73323     6348.638        52     1.717     1.003 -78.99  24
       141    563.2250    677.4518 307.6823952  +6.4259528     22460.12     59135.85     73679.45     91.61982     183.6782     367.1373      2.698     6.50     1217.561     64.73323      2030.42       107     2.426     1.817 -42.31   0
       142    171.1631    674.3699 307.8455009  +6.4141989     1215.603      3387.12     3773.287     91.61982     183.3859     367.0642      2.624     9.86     1223.041     64.73323     160.7235        29     1.665     1.629  34.06   0
       143     64.1007    667.8087 307.8902334  +6.4133420     720.6492     1663.226     1684.563     91.76606     183.2396     367.0642      2.290     6.75     1224.351     64.73323     101.3309         8     1.488     0.858  41.75   0
       144    460.5394    661.2683 307.7256350  +6.4292286     28204.27      76556.2     96437.09     92.20339     183.6052     367.2469      2.757     6.80     1219.653     64.73323     2525.323       113     2.460     1.869 -40.91   0
       145      4.1301    661.8322 307.9153681  +6.4138105     763.1472     1649.532      2121.35     91.91207      182.065     324.0284      2.060     4.71     1225.794     64.73323     118.4542         7     1.223     0.515 -17.87  16
       146    135.4911    656.6241 307.8609328  +6.4203387     851.4764     2020.345     2031.306     92.20339      183.459     367.0642      2.204     7.34     1222.593     64.73323     98.14978        10     1.457     1.036  54.62   0
       147    416.5996    654.1738 307.7441434  +6.4306992     423.3224     630.8253     632.9813     91.61982     183.3128     367.0277      1.508     4.44     1219.778     64.73323      74.9165         5     1.173     0.478 -84.27   0
       148    307.2192    650.2081 307.7897538  +6.4287022     848.1279     2446.285     3409.954     91.61982     183.3128     367.0642      2.937     9.27      1221.13     64.73323     126.1941        15     2.121     1.130 -61.05   2
       149    732.4784    644.6125 307.6131316  +6.4451209     2661.136     6639.011     8381.049     91.61982     183.3128     367.0642      2.579     7.46      1211.47     64.73323     266.4818        45     2.121     1.429 -44.90   0
       150    786.0022    639.8104 307.5910389  +6.4488752     7206.733     17469.84     20250.12     91.61982     183.3128     367.0277      2.487     6.24     1210.902     64.73323     744.1666        66     2.211     1.567 -38.22   0
       151   1023.5851    639.1122 307.4922768  +6.4570146     627.2212     1007.191     1195.829     81.22408     147.4781     278.0125      1.733     6.23      1205.76     64.73323     165.9565         8     1.737     0.628 -85.12  24
       152    610.3477    638.0907 307.6641315  +6.4437684     1231.064     3736.781     4334.235     91.91207      183.459     367.3929      2.707     9.95     1213.118     64.73323     151.3184        33     2.000     1.380 -33.89   2
       153    927.6913    633.8828 307.5323251  +6.4560075     760.3539     1581.047     2174.541     91.76606       183.97     367.3199      2.109     6.35     1208.071     64.73323     114.1759         9     1.524     0.742  -6.75   0
       154    860.8580    623.1598 307.5604751  +6.4582266     2104.746     4997.162         6076     92.05785     183.6782     367.3199      2.291     8.64     1208.047     64.73323      1438.39        28     1.972     1.057 -34.97   0
       155    821.3421    620.2244 307.5770046  +6.4581320       1376.6     3303.369     4242.887     91.61982     183.6782     367.1008      2.537     8.69     1208.981     64.73323     139.3184        27     1.697     1.243 -39.17   0
       156    249.2146    615.9953 307.8150284  +6.4409003     3367.718     9511.156     12251.63     91.61982     183.3128     367.0642      2.841     7.26     1220.222     64.73323       307.15        60     2.270     1.683 -40.91   0
       157    801.2995    611.7881 307.5856224  +6.4609526        81193     198842.2     242167.4     91.76606     183.3859     366.9912      2.574     6.21     1209.021     64.73323     8338.196       169     2.635     1.778 -37.65   0
       158    183.1144    610.4935 307.8426970  +6.4409724     24153.15      70641.3     91856.88     91.91207     184.1885     367.3564      2.900     7.00     1220.738     64.73323     2229.716       122     2.529     2.011 -46.01   0
       159    107.3057    606.9435 307.8743357  +6.4399136     2825.139     7722.799     10124.77     91.91207     183.6782     367.4659      2.798     7.00      1220.58     64.73323     282.9844        52     2.123     1.614 -48.03   0
       160    356.5343    597.4879 307.7710343  +6.4521107     6957.277     20394.98     27091.76     92.05785     183.8971     367.2834      2.909     7.17     1216.131     64.73323     653.0173        86     2.423     1.925 -44.31   0
       161    837.8450    599.0783 307.5708548  +6.4674097     2287.439     5527.859      6609.16     91.91207     183.6782     367.2469      2.465     7.32     1207.105     64.73323     256.6956        38     1.982     1.343 -38.16   0
       162    157.8505    596.5884 307.8536722  +6.4458729     870.7937     2303.193     2874.687     91.32664     183.5321     366.9181      2.536     6.86     1219.842     64.73323     106.0298        10     1.706     0.774  83.94   2
       163    522.8920    592.1974 307.7020439  +6.4598190     2765.918     7972.224     10371.67     91.47334     183.3128     366.9546      2.785     7.66     1213.365     64.73323     259.9996        58     2.292     1.649 -43.29   0
       164    792.1624    592.1297 307.5900839  +6.4687680      2909.57     7243.124     9075.059     91.91207     183.6782     367.3199      2.620     6.91     1207.375     64.73323      288.594        51     2.260     1.462 -37.70   0
       165    169.8287    585.6083 307.8490642  +6.4508056     2684.408     8007.828     11578.43     91.61982      183.459     367.0277      3.362     7.89     1218.969     64.73323     293.5073        65     2.411     1.825 -48.24   0
       166     41.5831    584.6447 307.9024172  +6.4469308     2236.622     6216.624      8048.89     91.61982     183.5321     366.9912      2.801     7.55     1219.717     64.73323     257.9954        46     2.076     1.580 -42.05   0
       167    567.6351    585.1237 307.6836789  +6.4642240     1170.474     3299.695     4399.175     91.91207     183.7512     367.2834      2.941     9.53     1211.408     64.73323     135.0388        29     2.065     1.227 -34.45   0
       168    265.2223    582.0272 307.8095233  +6.4554589     34069.55     100907.8     132049.8     91.47334      183.459     367.1738      2.897     7.04     1216.903     64.73323     3164.988       137     2.585     2.009 -45.61   0
       169    808.5335    584.7076 307.5835267  +6.4723744       753.27      1771.91     2423.547     91.91207     183.8971     367.2469      2.986     7.45      1206.64     64.73323     101.7554        10     1.550     1.002 -59.60   0
       170    788.1483    574.1215 307.5923597  +6.4760714     8096.786     19995.18     24715.68     92.05785     183.7512     367.2469      2.606     6.49     1205.841     64.73323     769.8236        73     2.305     1.634 -42.51   0
       171    964.6340    575.5114 307.5189276  +6.4813315     1070.505     2414.302     2838.934     92.20339     183.6052     367.2469      2.208     6.77     1202.927     64.73323     121.8662        17     1.369     1.172 -34.21   0
       172    491.8511    572.7497 307.7156077  +6.4668195     17847.04     50452.52     67569.69     92.05785     183.5321     367.1738      2.934     6.87     1212.155     64.73323     1639.576       116     2.560     1.995 -34.83   0
       173    205.4830    567.6763 307.8348479  +6.4593969     859.2629     2403.504     3967.227     92.20339     184.0428     367.3929      3.743     6.31     1217.081     64.73323     110.4158        11     1.512     0.739 -83.66   2
       174    651.2816    567.2991 307.6495002  +6.4743569     1297.579     3722.324      4917.85     92.05785     184.1885     367.3564      2.914     9.15     1207.402     64.73323     172.7446        23     1.763     1.326  88.36   2
       175    714.7527    567.5929 307.6230985  +6.4763379     742.6878     1629.444     2098.601     91.47335      183.459     366.8084      2.456     7.15     1205.802     64.73323     94.55994        11     1.397     1.024 -69.32   0
       176    136.3612    560.5253 307.8638296  +6.4600483     10624.49     30275.24      38728.3     91.91207     183.6782     367.3199      2.836     6.86     1217.354     64.73323     1025.158        93     2.461     1.883 -42.61   0
       177    388.9952    564.0048 307.7586702  +6.4670152     648.8517     1729.071     2025.979     91.32664     183.2396     367.1008      2.070     4.49      1213.37     64.73323     89.70349         5     1.982     0.289  45.00   0
       178    319.3034    562.0139 307.7877148  +6.4655212     1267.867     3981.775      5960.32     91.91207     183.3859     366.9912      3.253    11.47     1213.956     64.73323     192.2131        19     2.357     1.556 -25.90   2
       179    502.6327    560.6274 307.7115343  +6.4721829     934.9366     2266.708     2985.356     91.47335     183.3859     367.0277      2.796     7.46     1210.698     64.73323     122.0089        15     1.365     1.143 -20.75   2
       180    862.9219    560.7249 307.5617190  +6.4840764      694.016     1685.808     2414.904     92.34871       183.97     367.3199      2.480     5.91     1204.302     64.73323     106.8063         8     1.701     0.578  87.27   0
       181    102.5680    559.5830 307.8779119  +6.4593116     1068.953     3057.834     4322.623     91.61982      183.459     367.1008      3.095    10.64     1217.433     64.73323     133.8716        27     2.074     1.520 -46.54   2
       182    961.7421    554.4283 307.5208393  +6.4899419     2896.265     6396.506     7492.193     91.61982     183.7512     367.1373      2.344     6.37     1201.655     64.73323     327.3639        38     1.849     1.358 -43.98   0
       183      2.2897    544.6133 307.9201131  +6.4621499     10182.68     18770.35     20697.27     90.73743     161.6206     293.8632      2.004     6.54     1216.463     64.73323     1089.197        46     2.100     1.136 -82.06  24
       184    433.2230    541.4848 307.7410420  +6.4777833        16994     49605.57     64206.72     91.91207     183.3859     367.1373      2.857     7.23      1210.85     64.73323     1537.709       104     2.491     1.916 -40.65   0
       185    641.1585    541.0930 307.6545937  +6.4848428     5406.819     14513.33     18547.66     92.20339     183.6052     367.3564      2.765     6.65     1206.208     64.73323     540.4626        67     2.249     1.698 -44.57   0
       186    198.5078    539.2206 307.8387124  +6.4709146     8117.666      23182.6     31432.97     91.91207      183.459     367.0642      2.971     6.94      1214.73     64.73323     738.5107        96     2.503     1.976 -33.97   0
       187    973.7242    539.9815 307.5163427  +6.4963033     832.7409     1579.132     1595.642     91.47334     183.3859     367.1738      2.150     5.08     1200.302     64.73323     109.8524         8     1.106     0.660 -38.77   0
       188    563.0948    537.4858 307.6871754  +6.4837445     1093.984     3460.217     4173.299     92.05785     184.1157     367.3199      2.757    10.86     1207.598     64.73323     171.2697        33     2.032     1.617 -49.36   0
       189    936.5880    534.6755 307.5319635  +6.4972677     2663.829     6057.333     7042.755     91.61982     183.3128     367.0277      2.392     6.89     1201.303     64.73323     290.4316        40     1.983     1.352 -39.93   0
       190    609.9281    533.3997 307.6678395  +6.4869845     2783.163     7918.676     10126.69     91.32664     183.0932     367.0277      2.819     7.54     1206.494     64.73323     265.4382        58     2.236     1.752 -38.49   0
       191    959.3330    527.0546 307.5227618  +6.5011660     2040.123     4459.055     5059.755     92.05785     183.6052     367.1373      2.322     7.06      1199.96     64.73323     229.3171        29     1.994     1.098 -39.33   0
       192    522.3326    524.7325 307.7045557  +6.4876585     3107.061     8568.173     11147.62     92.05785     183.6782     367.2834      2.859     7.06     1207.343     64.73323     318.4493        59     2.228     1.700 -49.84   0
       193    369.4781    523.9351 307.7681410  +6.4829124     1052.012     2635.856     3964.419     92.34871     183.7512     367.2103      3.058     7.70     1210.086     64.73323     132.4818        15     1.611     1.029  10.72   0
       194    878.7158    520.4430 307.5565076  +6.5012323     1722.956      4097.26     5966.622     92.05785     183.6052     367.2103      3.291     9.93     1201.197     64.73323     166.4797        34     2.248     1.224 -37.73   2
       195    885.8090    514.6144 307.5537542  +6.5038736     1213.422     2883.574     3790.401     91.76606     183.3859     367.1008      2.571     9.16     1200.701     64.73323     134.9319        25     1.736     1.539  70.79   2
       196    925.0707    513.4077 307.5374684  +6.5056694     681.9296     1425.719     1924.213     91.47334     183.2396     367.1373      1.974     4.99     1199.956     64.73323     114.2561         6     1.235     0.570 -23.34   0
       197    709.8605    510.9411 307.6270431  +6.4995693     1421.419     3702.256      4850.61     92.05785     183.6052     367.2834      2.838     8.95     1202.959     64.73323     170.2621        31     2.128     1.345 -40.95   0
       198     72.0244    508.7486 307.8923362  +6.4792839     820.8599     2033.665     2724.306     91.61982     183.6782     367.1373      2.769     6.73     1215.849     64.73323      110.564        10     1.868     0.680  41.10   2
       199    380.7751    509.3382 307.7639376  +6.4893152     1483.883     4230.492     5408.383     91.61982     183.6052     367.1373      2.950     9.58     1208.641     64.73323     199.9102        37     2.028     1.501 -29.90   0
       200    608.4727    505.7167 307.6693791  +6.4983674     4276.271     11843.28     15246.77     92.34871     184.0428     367.2834      2.843     7.27     1204.716     64.73323     403.9056        71     2.351     1.825 -41.30   0
       201    771.5678    501.7896 307.6016917  +6.5053910     7682.286     20136.61     25862.58     91.47334     183.3859     367.0642      2.739     6.76     1201.626     64.73323     727.0956        83     2.590     1.668 -41.52   0
       202    293.5800    502.6914 307.8004190  +6.4891613     928.4884     2191.394     3807.777     91.91207     183.3859     367.1008      3.536     7.06     1208.806     64.73323     133.5292        11     1.536     0.910  78.67   2
       203    956.4336    496.6404 307.5249906  +6.5136294     956.6931     2175.852      2147.84     91.76606     183.6052     367.0277      2.302     7.58     1197.962     64.73323     111.0283        13     1.521     1.058 -35.87   0
       204    109.2601    494.3755 307.8773415  +6.4864596     1782.868     5280.101     6885.961     91.61982     183.6782     367.1008      2.943     9.52     1215.107     64.73323     200.5055        47     2.301     1.573 -28.01   0
       205    745.5958    493.3190 307.6127773  +6.5080291     936.5651     2373.794     3378.752     91.47335     183.1664     366.9181      2.988     7.15     1201.343     64.73323     116.9132        15     1.618     0.884 -66.65   2
       206   1010.5144    491.7382 307.5026662  +6.5174395     2618.015      6048.21     7344.767     92.20339     183.8241     367.2469      2.522     6.08     1196.254     64.73323     277.5016        38     1.800     1.430 -14.01   0
       207    344.9825    488.9838 307.7795093  +6.4965305     1312.032     3634.797     4679.991     91.76606     183.3128     367.1738      2.747    10.44     1207.051     64.73323     155.6161        33     2.130     1.432 -48.36   0
       208    700.5826    486.3157 307.6317316  +6.5094306      712.692     1684.384     2668.784     91.61982     183.3128     367.1738      2.863     5.54     1202.288     64.73323     96.21533         8     2.035     0.425 -47.88   0
       209    871.8355    482.4635 307.5606474  +6.5166879      7991.69     8719.895     8842.471     91.91207     183.6782     367.2469      1.044     2.42     1198.332     64.73323      2423.34        14     1.097     0.528 -74.31   0
       210    709.7564    473.8628 307.6283368  +6.5148766     6590.052     17662.63     22239.04     92.05785     183.6052     367.3199      2.722     6.79     1201.305     64.73323     595.4944        74     2.369     1.701 -39.72   0
       211    812.3749    474.7984 307.5856320  +6.5178867     878.8378       2114.8     2297.378     91.61982     183.3128     366.9912      2.326     7.09     1199.794     64.73323     142.4865         9     1.633     0.863 -35.17   0
       212    630.6760    471.2995 307.6613080  +6.5133152     933.9172      2169.84     3252.813     91.47335     183.8241     367.2103      2.884     7.30     1202.142     64.73323     119.7743        15     1.660     0.899  12.29   2
       213    631.4573    468.4859 307.6610781  +6.5145029     933.3983     2008.807     2818.936     92.05785     183.6782     367.4294      3.173     6.16      1201.88     64.73323     137.2854        11     1.709     0.624   2.94   3
       214    603.2318    465.0753 307.6729305  +6.5149756     6446.384     18906.99     29655.43     91.91207     183.7512     367.2103      3.389     7.59     1201.691     64.73323       641.89       109     2.678     2.288  15.28   0
       215    935.0492    463.5736 307.5349959  +6.5265774     1962.219     4692.106     5759.248     91.61982     183.6782     367.1738      2.498     6.75     1196.154     64.73323     219.7076        35     1.859     1.311 -44.69   0
       216    374.2932    459.8885 307.7683060  +6.5095186     11104.67     33408.47      44736.8     92.05785     184.1885     367.3199      2.977     7.51     1204.192     64.73323     1027.292       105     2.559     2.015 -41.24   0
       217    866.9765    463.1863 307.5633171  +6.5244875     1927.774     2006.346     1601.436     91.76606      183.459     367.1373      0.475     0.82     1197.262     64.73323     1338.748         5     0.428     0.343 -46.11   0
       218    120.7945    459.1088 307.8737418  +6.5014059      1017.62     2766.918     3389.902     91.61982     183.3128     366.9546      2.655     9.13     1212.709     64.73323     125.2986        20     1.873     1.243  86.80   0
       219    891.2566    459.2193 307.5533538  +6.5269282     720.4481     1735.366     2524.389     91.47334     183.6052     367.0277      2.789     5.31     1196.617     64.73323     99.19153         5     1.225     0.651  19.03   0
       220    903.7918    453.9383 307.5483187  +6.5295233     2542.888     6175.104     6546.645     91.32664      183.459     366.9912      2.390     6.38     1196.079     64.73323     256.2493        39     1.847     1.409 -35.54   0
       221    231.9044    450.5688 307.8278302  +6.5086319     5437.877     16452.28     22282.18     92.20339      183.459     367.3564      3.054     7.63      1206.34     64.73323     502.0509        84     2.498     1.932 -43.63   0
       222    132.4268    439.0834 307.8695842  +6.5100622      2176.92     6035.074     7783.466     91.91207     183.3859     367.1738      2.786     7.77     1210.878     64.73323     239.2352        51     2.046     1.826 -64.88   0
       223    154.3121    435.9551 307.8605900  +6.5120829     766.9393     2087.656     3017.153     92.05785     183.5321     367.2834      2.211     5.60     1209.952     64.73323     102.6781         7     1.873     0.472  59.32   3
       224    155.9911    433.7632 307.8599661  +6.5130439     865.8869     2055.727     3192.765     91.47334     183.3859     366.9546      3.184    11.24     1209.749     64.73323     104.5397        16     2.681     1.312 -36.74   2
       225    377.8735    429.1852 307.7678561  +6.5223156     843.4856     2181.388     2770.303     91.47334     183.3859     367.1373      2.627     8.10      1201.27     64.73323     106.1064        14     1.622     1.129 -89.68   0
       226    966.8061    427.1475 307.5230150  +6.5426681     565.7462     1634.345     1790.889     91.47334      183.459     366.8815      2.850     4.63     1192.661     64.73323      97.3114         6     1.632     0.373 -37.07   0
       227     28.3009    424.3000 307.9133830  +6.5126958     1473.218     4005.363     5512.663     92.05785     184.1157     367.0642      2.876     9.57     1212.879     64.73323     182.1709        33     1.893     1.481 -66.86   0
       228    771.0616    420.5884 307.6046391  +6.5389048     5463.092      15046.7      21252.4     91.47334      183.459     366.9546      3.114     8.88     1196.508     64.73323     507.5319        99     3.176     1.902 -18.23   0
       229    431.4051    423.3159 307.7457941  +6.5265175     2766.065      8317.41     10763.67     91.47335     183.2396     366.9181      2.920     8.14     1199.283     64.73323     290.3118        63     2.375     1.761 -37.86   0
       230   1015.7766    415.2144 307.5030510  +6.5492127     2226.134     4779.033     4960.556     91.76606      183.459     367.1373      2.252     5.91     1190.115     64.73323     245.8608        33     1.877     1.173 -38.60  16
       231    452.0447    405.5406 307.7378123  +6.5345428     766.1322     2022.808     3107.722     91.91207     183.6052     367.3564      3.501     5.79     1197.172     64.73323     111.7289         7     1.533     0.616 -48.82   2
       232    837.2554    403.2584 307.5776953  +6.5482509     16157.35      41123.3     51128.71     92.20339     183.6782     367.2469      2.663     6.19     1194.048     64.73323     1468.243        96     2.400     1.783 -48.90   0
       233    479.2614    407.3045 307.7264345  +6.5347180     1219.464     3346.161     4559.478     91.76606     183.7512     367.3199      2.796     9.98     1196.343     64.73323     156.0482        29     2.193     1.265 -28.00   0
       234    609.1732    395.8381 307.6727973  +6.5437625     1171.107     3383.688     4757.554     91.61982      183.459     367.0642      2.978    10.05     1195.551     64.73323     133.6357        28     2.061     1.534 -33.98   0
       235    693.7009    389.3866 307.6378629  +6.5492275     33439.77     93565.84     118539.8     91.76606     183.3859     366.9546      2.791     6.90     1194.802     64.73323      3080.16       121     2.479     1.897 -42.23   0
       236     93.7446    385.2415 307.8874958  +6.5310052     2355.907     7334.635     9212.697     91.91207     183.6052     367.2469      2.938     8.54     1209.508     64.73323     275.0151        57     2.366     1.738 -52.14   0
       237    556.6473    384.7999 307.6950136  +6.5465786     956.3672     2963.258     3784.207      91.1797     183.2396     366.6987      2.916     9.15     1194.434     64.73323     137.5111        20     2.062     1.134 -14.33   2
       238    539.6697    382.3425 307.7021570  +6.5470302     2764.221     8137.175     10320.81     92.20339     183.6782     367.2103      2.861     7.56     1194.171     64.73323     292.0773        60     2.245     1.780 -40.86   0
       239    402.4543    377.6611 307.7593775  +6.5444078     9713.235     29643.15     39682.74     92.20339     183.6052     367.2103      2.981     7.63     1196.802     64.73323     943.9984        97     2.537     1.993 -43.78   0
       240    268.9184    380.5267 307.8148116  +6.5387850       1040.5     2799.224     4025.596     92.34871     184.0428     367.2834      2.858     8.39     1200.767     64.73323     123.9008        20     2.333     0.844 -31.94   0
       241    491.4502    368.1872 307.7226881  +6.5512751     3321.884     9839.504     13465.92     91.32664     183.6052     366.9181      3.139     8.16     1193.227     64.73323     350.2688        72     2.589     1.805 -40.04   0
       242    760.4595    366.5845 307.6108687  +6.5608537     1446.721      3850.12     4772.399     91.47335     183.6052     366.9546      2.736     8.16     1192.566     64.73323     169.0505        30     1.731     1.481 -47.95   0
       243    381.4247    352.3214 307.7689803  +6.5541723     2581.917     8289.145     10783.55     91.61982     183.5321     367.2103      2.948     8.58     1195.467     64.73323     274.3613        66     2.397     1.848 -41.63   0
       244    237.1322    354.0768 307.8289260  +6.5486489     889.3854     1867.766     2143.306     92.20339     183.8241     367.2103      2.297     6.20     1201.213     64.73323     97.38684        11     1.138     0.950 -22.14   0
       245    749.1835    347.8607 307.6161895  +6.5682120     23293.82     63992.05     81192.74     91.47334     183.6052     367.0277      2.758     6.62     1190.931     64.73323     2016.029       116     2.438     1.904 -44.07   0
       246    421.0803    347.4517 307.7526537  +6.5575006     856.0385     2648.749     2771.515     92.05785     183.6782     367.2469      2.687     9.19     1193.935     64.73323     128.1478        18     2.017     1.169  83.55   0
       247    983.7809    345.2460 307.5187107  +6.5770486     1100.487     2347.811      2477.07     91.61982     183.6052     366.9912      2.148     6.19     1185.045     64.73323     135.1641        12     1.342     0.803 -30.19   0
       248    925.0927    343.6861 307.5431714  +6.5757540     1298.091     2879.585     3037.624     91.91207     184.1885     367.3564      2.334     6.00     1187.756     64.73323     159.5503        19     1.461     1.034  87.26   0
       249    408.3484    343.5295 307.7580812  +6.5586972     814.2958     1979.233     2382.427     91.91207     183.6052     367.2834      2.551     5.97      1194.07     64.73323     96.96277         9     1.744     0.575 -15.08   0
       250    829.3376    335.9867 307.5832545  +6.5757676     506.6443     836.4503     822.9975     91.47334      183.459     366.9912      1.653     4.17     1189.612     64.73323     85.49915         5     0.809     0.613  -1.82   0
       251    747.6099    332.4724 307.6173628  +6.5745142     2753.165     7313.615     9673.368     91.47335     183.2396     367.1008      2.969     7.06     1189.674     64.73323     278.1946        53     2.167     1.636 -43.82   0
       252    184.3073    333.6621 307.8515855  +6.5553199     795.8537     2554.171     3112.387     92.05785     183.6782     367.3199      2.865     8.38     1203.051     64.73323     102.5864        13     1.665     1.178   8.81   2
       253    763.7997    330.4406 307.6106981  +6.5758891     1012.855     2743.074     3715.931      91.1797     183.3128     366.8815      2.983     7.51     1189.644     64.73323     126.1981        15     1.377     1.145 -86.33   0
       254     66.9291    326.9176 307.9006264  +6.5541938      598.205     1455.394     1574.766     92.34871     184.0428     367.2834      2.506     6.32     1209.372     64.73323     102.6619         6     1.176     0.954 -45.27   0
       255    353.7628    325.4171 307.7813946  +6.5643622     823.1785     2247.835     2876.627     91.61982     183.5321     366.9546      2.805     6.93     1195.349     64.73323     96.60315        10     1.302     1.033  55.03   0
       256   1002.2003    321.0343 307.5118645  +6.5876547      3201.08     7844.495     8951.786     91.03251      183.459     366.9912      2.376     6.18     1182.971     64.73323     359.3223        43     1.953     1.397 -36.60   0
       257    242.9878    317.4157 307.8277333  +6.5639816     2213.891     6803.491     8866.473     91.91207     183.3128     367.1738      2.973     9.19     1199.147     64.73323     264.5758        60     2.395     1.752 -43.54   0
       258    376.8111    308.3784 307.7723861  +6.5721638     619.6361     1861.151     2514.299     91.61982     183.3859     367.0642      2.795     5.26     1193.054     64.73323     88.70764         5     1.432     0.547  40.31   0
       259    148.4948    304.6352 307.8674629  +6.5661127     651.5664     1402.326     1978.316     92.20339     183.5321     367.3564      2.749     7.55     1204.892     64.73323      103.379        10     1.902     0.840 -30.01   0
       260    557.4584    300.3053 307.6975308  +6.5814954     712.5381      2205.12     3091.974     91.91207     183.6782     367.3929      3.177    10.71     1185.992     64.73323     118.7886         8     2.011     1.590 -79.29   2
       261    899.8129    299.4416 307.5551747  +6.5931885     676.0155     1854.859     2540.996     91.32664      183.459     366.9546      2.686     5.53     1184.725     64.73323     103.3013         7     1.279     0.674  10.45   2
       262    720.1312    296.8254 307.6299933  +6.5883240     1996.116     5916.846     7779.905     91.61982     183.5321     367.1738      2.768     9.07     1186.789     64.73323     204.6233        47     2.161     1.583 -43.88   0
       263    660.3704    295.2773 307.6549000  +6.5869836     795.4949         2045     3280.948     91.91207     183.7512     367.2834      3.110     6.10     1186.048     64.73323     109.0334         9     1.613     0.648 -47.22   2
       264    221.2629    281.9673 307.8379695  +6.5778957     846.5683      2210.37      3097.81     91.76606     183.7512     367.2103      2.473     6.62     1198.832     64.73323     121.8804        11     1.836     0.670 -76.01   2
       265    862.0983    280.7119 307.5714914  +6.5996757     888.7527     2183.626     3107.476     92.05785     184.1885     367.2834      2.871     8.80      1183.96     64.73323     111.0968        15     1.917     1.129  -1.89   0
       266    453.6017    271.9286 307.7416832  +6.5897657     8295.893     26639.33     36568.68     91.47334     183.1664     367.0642      3.091     8.01     1185.796     64.73323     819.7279       102     2.630     2.022 -41.58   0
       267    779.3739    270.9232 307.6062274  +6.6009810     5961.198     15872.87     21025.69     91.76606     183.6782     367.2103      2.807     6.41     1185.334     64.73323     573.7085        79     2.380     1.782 -43.42   0
       268    915.0946    261.4256 307.5500988  +6.6093916     755.9289     1602.797       2221.9     92.20339     183.3859     367.1008      2.748     6.88     1181.877     64.73323     124.1719         9     1.389     0.954  72.66   0
       269    577.6712    257.8476 307.6905586  +6.5996976     1771.244     5018.453     6200.236     92.05785     183.6782     367.2834      2.704     8.20     1182.711     64.73323     194.8652        41     2.076     1.536 -39.19   0
       270    540.3605    257.9023 307.7060745  +6.5984373     876.5765       2578.5      3434.15     92.05785     183.5321     367.5023      3.022     9.22     1182.653     64.73323     129.8922        18     1.841     1.288 -38.05   0
       271    884.4291    254.0517 307.5631016  +6.6114228     5513.914     13826.83     16376.96     91.76606     183.8241     367.1373      2.575     6.10     1182.029     64.73323     535.9718        62     2.156     1.602 -43.27   0
       272    938.0773    254.3050 307.5407795  +6.6130914     1389.161     3697.092      4469.19     91.76606     183.8241     367.3199      2.654     9.02     1180.894     64.73323     155.9004        30     1.903     1.314 -51.66   0
       273     10.8958    251.2729 307.9264970  +6.5835592     9980.569     29771.18     38754.94     91.91207     183.8241     367.2103      2.883     7.27     1212.695     64.73323     1058.933        97     2.472     1.957 -46.97  16
       274    971.1326    251.7368 307.5271174  +6.6152439     5213.153      12168.1     14027.97     92.05785     183.6782     367.2834      2.426     6.10     1179.896     64.73323     515.1941        52     2.051     1.434 -39.97   0
       275    682.9430    251.7283 307.6469817  +6.6057140     1046.152     3172.948     4125.566     92.20339     183.6782     367.2103      2.780     9.72      1184.38     64.73323      171.761        25     1.753     1.503 -78.80   0
       276    492.1098    247.2379 307.7265026  +6.6012395     785.8716     2157.412     2969.265     92.05785     183.6052     367.2834      3.047     7.36     1182.494     64.73323     106.9136         9     1.329     1.140 -72.09   0
       277    503.1608    243.2273 307.7220420  +6.6032624     991.9025     3029.302     4498.461     91.61982      183.459     367.0642      3.284     9.64     1182.034     64.73323     131.8339        21     1.821     1.422 -87.82   0
       278    875.5367    242.7689 307.5671802  +6.6157878     1095.546     2553.014      3629.08     91.76606     183.7512     367.2103      2.672     7.64     1181.563     64.73323     149.1844        18     1.533     1.109 -49.05   0
       279    823.0555    243.4306 307.5889861  +6.6137789     1024.138     2222.329     2429.149     91.91207     183.7512     367.2103      2.413     6.44     1182.967     64.73323     115.5424        14     1.215     0.958   4.80   0
       280    734.7153    240.0925 307.6258412  +6.6122335     17375.86     47926.86     59958.65     91.76606     184.1885     367.3564      2.749     6.72      1184.07     64.73323     1578.871        99     2.416     1.849 -42.77   0
       281    338.1465    239.5920 307.7907948  +6.5992816       2780.4     8175.345     12243.35     91.47334      183.459     366.9181      3.251     8.46     1190.666     64.73323     278.7638        71     2.542     1.873 -66.93   0
       282    968.3240    238.6191 307.5287270  +6.6205678     1616.344     3875.686     4109.426     91.61982     183.3128     367.1738      2.340     6.71     1179.118     64.73323     194.8202        30     1.660     1.357 -63.37   0
       283    902.5229    237.0571 307.5561482  +6.6190386     3876.022     9512.123     11504.82     92.05785     183.6052     367.2103      2.543     6.24     1180.565     64.73323     399.2574        53     2.052     1.562 -37.52   0
       284    446.2201    237.9747 307.7459017  +6.6035408     1748.105     4977.081      7621.41     91.61982      183.459     367.1373      3.165    10.63     1184.304     64.73323     199.4552        37     2.026     1.842 -31.91   2
       285   1006.6812    237.0881 307.5128246  +6.6224668     1079.191     2153.699     2598.854     91.76606     183.8971     367.3564      2.313     5.94     1178.041     64.73323     150.8358        13     1.408     1.018 -12.93   0
       286    103.7870    228.2780 307.8886465  +6.5961514     1871.075     5415.218     6956.123     91.61982     183.3128     367.0277      2.912     8.50     1205.871     64.73323     198.9581        48     2.324     1.611 -35.24   0
       287    273.8801    224.6026 307.8180309  +6.6033334     12282.98     38844.07     52282.52     91.32664     183.0932     366.9546      2.996     7.57     1195.393     64.73323     1318.502       104     2.522     2.049 -45.52   0
       288    249.3006    225.7436 307.8282147  +6.6020443     2277.563     7381.221     9329.237     91.76606     183.6782     367.5023      2.958     9.02     1196.911     64.73323     234.0703        56     2.167     1.872 -62.86   0
       289    397.9379    220.0591 307.7665887  +6.6093344      18392.3     57167.76     77706.04     92.05785     183.6052     367.2834      3.027     7.85     1186.195     64.73323     1874.236       117     2.622     2.026 -41.06   0
       290    154.1721    221.6367 307.8679173  +6.6005726     1685.989     4874.616     6704.851     91.47334     183.3859     367.0277      3.034     8.31     1203.085     64.73323     194.4972        40     1.948     1.679 -52.76   0
       291    737.1714    215.9557 307.6256338  +6.6222815     14256.56     39317.77      49783.9     91.61982     183.7512     367.1373      2.751     6.73     1182.529     64.73323     1321.941        91     2.385     1.842 -41.93   0
       292    302.5345    217.7440 307.8063459  +6.6071186     6826.384     21051.07     30412.77     92.20339     183.6052     367.2469      3.202     8.01     1193.238     64.73323     722.2938       110     2.908     2.136 -14.34   0
       293     54.2337    213.7657 307.9097476  +6.6004916     3696.837     10763.79     14445.43     91.76606     183.3859     366.9546      2.889     7.26     1209.788     64.73323     411.3123        71     2.443     1.832 -42.10   0
       294     88.6173    213.1859 307.8954676  +6.6018774      668.202     1256.668     2316.128     91.76606     183.3128     367.1738      2.134     3.11     1206.839     64.73323     106.5846         5     0.741     0.442 -70.12   0
       295    996.5369    196.2659 307.5184173  +6.6389886     1401.613     3085.397     3792.114     92.05785     183.6782     367.2469      2.406     5.60     1176.198     64.73323     183.7894        25     1.568     1.207 -36.16   0
       296    272.7956    190.8880 307.8196243  +6.6172184     11008.88     35343.16     47667.47     91.47334     183.3128     366.8815      3.036     7.74     1196.603     64.73323     1127.902       100     2.589     1.984 -41.56   0
       297    585.5236    192.7289 307.6894925  +6.6268470     605.6964     2004.818     3357.631     92.34871       183.97     367.2469      3.175     3.08     1179.693     64.73323     135.6028         4     0.793     0.415  -3.17   2
       298     18.3220    189.7273 307.9254993  +6.6092193     2110.545      5823.04     8227.097     92.34871       183.97     367.2469      3.021     8.09     1212.824     64.73323     243.4983        50     2.265     1.588 -43.30   0
       299    704.3850    187.1499 307.6402425  +6.6330903     3344.452     9676.275        12371     91.32664     183.6782     366.9181      2.836     7.79     1180.601     64.73323     338.1404        56     2.106     1.736 -38.68   0
       300    115.5906    184.9838 307.8852068  +6.6144213     1927.199     5040.099     6422.865     91.76606     183.3859     367.1373      2.776     8.39     1205.127     64.73323     238.7195        45     2.338     1.440 -43.96   2
       301    112.8803    181.7014 307.8864454  +6.6156863     415.1467       784.55     2856.948     91.91207     184.1157     367.3199      1.155     3.54     1205.286     64.73323     127.8464         5     1.473     0.245 -26.37   2
       302    386.1003    180.6786 307.7728449  +6.6252019     1625.497     4716.814     7024.173     91.76606       183.97     367.2834      3.185     8.43     1185.035     64.73323     195.4788        43     2.104     1.571 -58.39   0
       303    350.6881    179.6411 307.7876087  +6.6244532     1323.005     3719.368     4898.744     92.05785     183.6052     367.2834      2.860     9.45     1188.082     64.73323     181.1057        32     1.911     1.604 -56.94   0
       304    997.2487    172.7940 307.5189109  +6.6487043     994.8361      2057.19     2184.706     91.47334      183.459     366.8084      2.143     6.67     1175.138     64.73323     124.3923        12     1.416     0.897 -56.91   0
       305    202.2932    168.4610 307.8497072  +6.6241321     2191.349      6611.24     9116.682     91.91207     183.6782     367.3199      3.056     8.38     1200.695     64.73323     261.6661        61     2.421     1.777 -50.53   0
       306    663.9891    167.0301 307.6577238  +6.6400599     2546.585     7119.823     8951.646     91.47334      183.459     367.0642      2.804     7.83     1180.257     64.73323     281.6281        55     2.195     1.725 -40.21   0
       307     85.5535    169.6341 307.8982203  +6.6197581     868.9377     2034.867     2983.669     91.61982     183.6782     367.1738      2.583     4.18     1207.064     64.73323     123.0612         6     1.229     0.405 -60.04   2
       308    619.0892    157.0156 307.6767377  +6.6427068     20528.14     57567.41     87997.02     91.76606      183.459     367.0642      3.431     9.69     1179.519     64.73323     2073.447       172     4.059     2.040 -62.35   0
       309    343.2144    161.7254 307.7913238  +6.6316023     1437.251     4190.896     6070.953     91.47334     183.3859     367.1008      3.170    11.37     1189.236     64.73323     158.0767        42     2.510     1.607 -44.21   2
       310    525.5260    159.6098 307.7155666  +6.6385320     703.7684     1717.872     2361.844     91.61982     183.2396     367.1008      2.760     7.36     1177.855     64.73323     116.4742         8     1.324     1.145  45.78   0
       311    299.0445    149.8038 307.8100990  +6.6350559     1418.858     4281.431     5545.118     91.32664     183.2396     366.8815      2.823     8.86     1195.763     64.73323     165.9955        40     2.040     1.548 -60.26   0
       312    684.1301    139.9514 307.6502602  +6.6519086     1349.284     3682.584     3935.968     92.05785     183.6052     367.2834      2.656     9.81     1178.408     64.73323      150.652        30     1.944     1.380 -61.06   0
       313      1.8018    131.5552 307.9343464  +6.6326875     54982.18     84814.41     99142.48     86.03434     153.7983     284.9674      1.792     4.50     1214.215     64.73323     12959.48       123     2.634     1.391 -89.25  24
       314    426.5757    131.7958 307.7576644  +6.6467313     1484.468     3309.696     4444.951     91.47334     183.3859     367.0642      2.592     8.93     1180.412     64.73323     200.7567        28     2.402     0.926 -28.80   2
       315    424.7844    129.0752 307.7585015  +6.6477951     1111.284      1940.34     3016.153     91.47334     183.3859     367.1008      2.159     5.40     1180.472     64.73323     166.3419        10     1.253     0.657 -38.41   3
       316    898.0915    126.1289 307.5617272  +6.6646975     2094.922     5195.697     5783.929     91.91207     183.8971     367.2469      2.525     6.75     1173.426     64.73323     241.5453        36     1.904     1.317 -46.81   0
       317    879.9655    127.0962 307.5692344  +6.6636988     1198.226     2509.225     3307.158     92.20339     183.5321     367.4294      2.387     6.21     1174.039     64.73323     141.2073        17     1.359     1.050 -56.21   0
       318    590.5609    126.7565 307.6896260  +6.6542554     689.6666     1338.636     2070.482     91.76606     183.6782     367.1008      2.638     4.53      1177.54     64.73323     124.6283         6     0.993     0.587 -27.95   0
       319    388.8003    125.3847 307.7735936  +6.6481233     576.9372     1353.503     2168.161     91.61982     183.3128     366.9546      2.636     4.34     1184.389     64.73323     102.8809         5     1.138     0.470  -6.87   0
       320    138.4220    120.6458 307.8778943  +6.6417477     1298.267     3246.077     4887.222     91.61982     183.6782     367.0642      3.073    11.39       1203.6     64.73323     171.6523        26     2.043     1.882 -42.30   2
       321     19.1302    117.8253 307.9276058  +6.6389347     5172.644     14999.84     19925.87     91.61982     183.5321     367.1738      2.916     7.41     1212.596     64.73323     567.4336        71     2.396     1.789 -45.97   0
       322    820.6500    111.8221 307.5944223  +6.6680439     2888.568     7448.711     9381.749     91.47334     183.7512     367.1008      2.636     6.85     1173.941     64.73323     296.0765        54     2.182     1.606 -41.68   0
       323    765.7625    112.2464 307.6172393  +6.6660522      1627.36     4134.121     4883.265     91.76606     183.6052     367.1008      2.420     8.00     1175.305     64.73323     191.1649        32     1.852     1.374 -53.89   0
       324     59.5077    109.6681 307.9110892  +6.6436497     1339.323     3877.566     4716.984     91.91207     183.8241     367.2834      2.729     9.76     1208.549     64.73323     142.7317        32     1.701     1.634 -74.75   0
       325      2.7773    104.7993 307.9348498  +6.6437675     1111.127      2697.75     3929.531     91.61982     167.9675      302.187      3.019     8.70     1214.141     64.73323     155.2686        22     1.704     1.316 -63.73  24
       326    758.4565    101.2866 307.6206480  +6.6703359     621.8134       1445.5     2927.704     92.05785     183.6782     367.3929      3.254     5.97     1175.227     64.73323     112.8463         7     2.241     0.448 -15.88   2
       327     87.1208     93.9184 307.9001390  +6.6510735     3851.054     11483.44     15108.91     92.20339       183.97     367.4659      2.913     7.55     1205.503     64.73323     434.9922        66     2.278     1.846 -44.18   0
       328    415.0789     95.3534 307.7636796  +6.6613968       818.15      1584.08     2505.839     92.05785     183.7512     367.2103      2.649     5.84     1181.135     64.73323     119.5552        11     1.489     0.645 -21.34   0
       329    414.9225     91.6930 307.7638686  +6.6629031     766.0569     1449.987     2349.103     91.76606       183.97     367.2834      2.622     4.26     1181.298     64.73323      110.281         5     0.853     0.607 -26.69   3
       330    629.7007     85.5704 307.6747366  +6.6725598     7696.146     21796.05     27945.91     92.05785     183.3859     367.3199      2.841     7.10     1175.813     64.73323      767.557        87     2.418     1.894 -45.91   0
       331    529.9810     82.8073 307.7163098  +6.6703930     2069.722     4613.468     6772.819     91.61982     183.3128     367.0642      2.954     9.26     1176.659     64.73323     221.4442        37     2.224     1.601 -39.89   2
       332    528.5955     79.7038 307.7169910  +6.6716285     1182.282     2094.042     4195.475     91.76606     183.3128     366.9546      2.847     4.02      1176.68     64.73323     199.3353        10     1.117     0.708 -48.30   3
       333    254.8437     78.4221 307.8309027  +6.6630593     3261.804     10766.46     17038.11     91.47334     183.5321     367.0277      4.041    11.98     1200.185     64.73323     406.5267        95     3.548     1.855 -31.10   0
       334    435.1661     77.3988 307.7559319  +6.6694779     8871.765     26760.08     35617.84     91.03251      183.459     366.9912      2.940     7.47     1180.677     64.73323     1025.387        92     2.489     1.943 -40.85   0
       335     23.4568     78.0131 307.9271589  +6.6555175     835.6503     1643.634       2372.1     91.32664     183.5321     366.9181      2.310     5.12      1209.98     64.73323      128.056         9     1.165     0.677 -67.92   2
       336     19.3732     78.6987 307.9288341  +6.6550982     695.7875     1587.816     2495.582     92.20339     183.3859     367.2103      2.053     3.71     1210.419     64.73323     99.29663         5     0.841     0.471  10.29   3
       337    912.7809     76.7444 307.5572801  +6.6855751     1086.378     2712.008     3682.818     91.47334     183.6782     367.0277      2.928     7.32     1170.172     64.73323     148.4612        17     1.458     1.112 -84.67   0
       338    615.9773     75.7128 307.6807781  +6.6761751      1397.86     4009.785     5817.336     92.05785      183.459     367.1373      2.943    10.31     1175.533     64.73323     160.6787        33     2.012     1.471 -48.88   0
       339    243.7814     74.4066 307.8356401  +6.6643491     1268.771     3961.839     6608.198     91.61982     183.3128     367.0642      4.373    10.91       1200.6     64.73323     155.5399        37     1.936     1.714 -43.59   1
       340    685.0402     65.9066 307.6523809  +6.6825135     736.1479     1979.201     2300.866     92.20339     183.6052     367.3564      2.860     6.20     1174.953     64.73323     101.2982         9     1.660     0.650 -84.77   0
       341    173.3638     60.0734 307.8654161  +6.6679225       4320.2     12458.89     15692.15     91.91207     183.6782     367.2469      2.834     6.99     1201.983     64.73323     461.6228        69     2.333     1.778 -49.69   0
       342    517.0462     59.2750 307.7224858  +6.6796805     980.8611     2738.362     3740.958     91.91207     183.7512     367.2469      2.922     8.68      1177.03     64.73323     123.9377        18     1.854     1.134  16.76   0
       343    455.5951     58.0793 307.7480879  +6.6781338     618.1898     1288.011     1992.538     91.61982     183.0932     366.9912      2.658     3.89     1179.949     64.73323     94.14978         5     0.886     0.489 -86.77   0
       344    719.9210     56.5605 307.6381867  +6.6875282     983.8049     2196.902      2662.26     91.91207     183.7512     367.2469      2.532     7.12     1173.746     64.73323      106.212        14     1.364     1.042 -20.24   0
       345    918.6312     57.1243 307.5555072  +6.6938702     2067.079     4811.104     5389.079     91.91207     183.7512     367.2103      2.381     5.99     1169.079     64.73323     250.6927        35     1.746     1.435 -32.05   0
       346    983.3479     53.1168 307.5287205  +6.6976633     1185.672      2633.86     3310.843     92.05785     183.6782     367.3564      2.402     8.15     1164.971     64.73323     161.3335        18     1.797     1.033 -36.27   0
       347    702.8350     50.0645 307.6455134  +6.6896445     3285.245     9154.799     11411.03     91.91207     183.6782     367.2834      2.719     7.22     1173.849     64.73323     339.6721        63     2.253     1.788 -36.09   0
       348    623.0842     49.2501 307.6787156  +6.6873377     1636.951     4438.501     5102.054     92.05785     183.6782     367.3564      2.743     8.48      1174.74     64.73323     163.9391        41     2.022     1.541 -60.67   0
       349    423.5024     45.6805 307.7618569  +6.6821873     2493.112     7498.615     9836.718     91.91207     184.0428     367.3199      2.934     8.45     1182.997     64.73323     264.3519        58     2.272     1.838 -27.46   0
       350     24.5011     45.6503 307.9278241  +6.6689149     3721.325     10210.43     13168.06     92.05785     183.6782     367.4294      2.842     7.20      1206.29     64.73323     442.2015        69     2.365     1.852 -53.03   0
       351    319.9652     40.7597 307.8050914  +6.6807772     4943.039     14973.15     20779.68     91.76606     183.6782     367.0277      3.041     7.83     1195.617     64.73323      558.707        79     2.574     1.867 -46.21   0
       352     93.8444     42.0360 307.8991040  +6.6727200     1090.571     2796.282     3720.686     91.76606     183.6052     367.1008      2.762     8.00     1203.064     64.73323      156.594        22     2.286     0.912 -38.28   0
       353    383.5516     40.1103 307.7786637  +6.6831596     714.5967     1972.957     3327.137     92.05785     183.5321     367.4294      2.412     3.40     1187.601     64.73323     103.3264         5     1.470     0.228 -72.27   2
       354    646.7705     33.9745 307.6693785  +6.6944305     4639.404     13355.57     17144.33     91.47334      183.459     367.1008      2.846     6.78     1174.283     64.73323     482.8228        72     2.296     1.858 -50.03   3
       355    911.3992   1017.6351 307.5261905  +6.2970034     34124.71     62571.45     69186.91     91.03251      183.459     361.2091      1.982     4.54     1231.518     64.73323     4277.181        81     2.032     1.295 -39.33  16
       356    218.8248   1017.2543 307.8140731  +6.2742018     948.4476     1837.424     1981.797     91.61982     183.7512     363.8353      1.953     3.79     1234.666     64.73323     174.3153         9     1.040     0.809  39.42  18
       357    811.5138     34.0891 307.6008433  +6.6998394     852.4814     2069.088     2839.201     91.76606     184.1157     367.3929      2.664     6.45     1170.096     64.73323     133.9672        12     1.406     0.832 -59.93   0
       358    247.2640     31.1522 307.8356579  +6.6823251     2661.582      7803.08     10438.26     91.91207     183.5321     367.2834      2.944     7.85     1200.492     64.73323     313.2614        64     2.444     1.840 -38.59   0
       359    881.3793     31.5657 307.5718646  +6.7031924     944.7964     2155.812     3299.654     91.47335      183.459     366.9912      2.923     7.25     1168.045     64.73323     121.4429        12     1.315     1.121 -62.90   0
       360    221.2910   1015.6550 307.8131022  +6.2749443     582.9071     1024.562     1776.938     91.91207     183.5321     367.3929      1.807     3.40     1234.669     64.73323     108.1599         5     0.726     0.608 -58.70   3
       361    617.6113   1014.1641 307.6484240  +6.2887169     776.2636     1674.492     1920.949     91.47334      183.459     366.9912      2.284     6.99     1231.895     64.73323     97.69006        10     1.289     1.061 -41.86   0
       362    723.5997     27.2900 307.6376441  +6.6997364     796.6432      1747.73      1358.14      91.1797     183.0932     366.8815      2.292     5.30     1171.888     64.73323     98.94373         8     1.055     0.752  63.15   0
       363    809.4764   1011.4935 307.5687631  +6.2961706     1731.289     3153.762     2829.074     91.76606     183.8971     367.2469      1.961     6.84     1231.547     64.73323     215.9833        23     1.840     0.952 -35.85   0
       364    757.6247   1009.5016 307.5903831  +6.2952780     4848.371     9369.619     11510.88     92.20339     183.3859     367.1008      2.219     5.05     1231.808     64.73323     586.0977        47     2.061     1.232 -43.88   0
       365    227.0073   1008.7735 307.8109593  +6.2779759     848.8802     1795.413     2115.498     91.47334     183.5321     367.0277      2.170     6.48     1234.692     64.73323     108.2576         8     1.400     0.842 -46.27   0
       366    220.0297     16.0299 307.8474991  +6.6876624     534.6298     875.3946     1685.239     91.47334     183.3859     366.9546      2.200     3.75     1200.524     64.73323     77.29382         5     1.028     0.392  58.27   0
       367     52.2501   1006.9439 307.8836554  +6.2729138     1963.754     4029.823     3673.587     92.05785     183.6782     367.2834      2.086     5.46     1233.464     64.73323     247.3492        27     1.571     1.284 -48.06   0
