#   1 NUMBER                 Running object number                                     
#   2 X_IMAGE                Object position along x                                    [pixel]
#   3 Y_IMAGE                Object position along y                                    [pixel]
#   4 ALPHA_J2000            Right ascension of barycenter (J2000)                      [deg]
#   5 DELTA_J2000            Declination of barycenter (J2000)                          [deg]
#   6 FLUX_APER              Flux vector within fixed circular aperture(s)              [count]
#   9 FLUXERR_APER           RMS error vector for aperture flux(es)                     [count]
#  12 FLUX_RADIUS            Fraction-of-light radii                                    [pixel]
#  13 FWHM_IMAGE             FWHM assuming a gaussian core                              [pixel]
#  14 BACKGROUND             Background at centroid position                            [count]
#  15 THRESHOLD              Detection threshold above background                       [count]
#  16 FLUX_MAX               Peak flux above background                                 [count]
#  17 ISOAREA_IMAGE          Isophotal area above Analysis threshold                    [pixel**2]
#  18 A_IMAGE                Profile RMS along major axis                               [pixel]
#  19 B_IMAGE                Profile RMS along minor axis                               [pixel]
#  20 THETA_IMAGE            Position angle (CCW/x)                                     [deg]
#  21 FLAGS                  Extraction flags                                          
         1    188.8310     20.7268 307.8650527  +6.6681161     11259.42     16612.99     17417.89     78.35586     156.5873     313.0812      1.569     3.33     840.0127     55.18565     1585.018        38     1.446     1.033  75.80   0
         2    533.0943     18.9215 307.7220731  +6.6804144     3039.961     4593.575     4504.094     78.23138     156.7739     313.1123      1.537     3.32      830.801     55.18565     468.5535        22     1.418     0.883  78.08   0
         3    934.4313     18.5162 307.5553234  +6.6939980     4414.368     6420.739      6270.48     78.48013     156.4005     312.9567      1.600     3.41     828.4238     55.18565     610.3572        25     1.329     0.956  81.78   0
         4    471.1632     17.0552 307.7478687  +6.6791094     1868.579     2669.057     2904.383     78.35586     156.5873     313.1123      1.411     3.68     831.6046     55.18565     286.4587        16     1.309     0.739  81.00   0
         5    735.3353     17.0378 307.6381023  +6.6879597     1904.649     2697.884      2154.05     78.35586      156.525     313.1746      1.463     3.43     831.8886     55.18565     293.0439        16     1.205     0.770  73.84   0
         6    999.1179     14.7689 307.5285696  +6.6977020     1972.413     2881.445     2519.507     78.35586     156.4005     313.0501      1.487     3.62     824.9321     55.18565     303.6735        17     1.253     0.852  83.98   0
         7    718.6163     11.2582 307.6452433  +6.6897865     7680.388     10967.99     11025.49     77.85677      156.525     312.8009      1.502     3.25      831.795     55.18565     1043.097        28     1.359     0.925  77.46   0
         8    638.8776     10.4526 307.6784033  +6.6874519      3944.05     5550.895     5655.231     78.60421     156.5873     313.0812      1.517     3.40     831.5882     55.18565     615.2028        23     1.311     0.883  80.82   0
         9    341.0623     10.1356 307.8021588  +6.6776016     986.7188     1336.318      1598.47     78.48013     156.5873     313.1123      1.484     4.15     839.4366     55.18565     130.8878        11     0.911     0.871  56.95   0
        10    439.0260      6.7899 307.7615672  +6.6822692     6565.562     9686.353     10417.05     78.10671     156.4005      303.856      1.568     3.45     834.4731     55.18565     961.3569        33     1.427     1.005  81.28  16
        11    394.5776      8.3286 307.7799840  +6.6801433     817.2825     1208.844     949.5267     78.10671     156.4005     312.7386      1.577     2.65     837.5188     55.18565     154.3923         8     0.868     0.651  -2.36   0
        12     39.9837      6.2979 307.9273831  +6.6690639      8772.01     12989.96     13466.03     78.48013     156.3381     299.6251      1.554     3.50     840.2831     55.18565     1245.235        34     1.384     1.079  80.90  16
        13    685.8510      5.6021 307.6590478  +6.6910255     996.2677     1406.328     1108.897     77.85677     156.2134     292.7816      1.531     5.60     831.6383     55.18565     124.7474        12     1.040     0.849  78.22  16
        14    335.5947      2.2493 307.8046963  +6.6806733     12429.56     15943.47     17224.64     76.97558      137.145     249.7417      1.409     3.48      839.562     55.18565     1757.033        29     1.154     1.072  85.73  24
        15    514.7390      3.9714 307.7302026  +6.6859705     945.4109     1255.967     1523.999     78.10671     154.3305     274.1122      1.391     3.30      830.222     55.18565     146.5665         8     0.839     0.635  51.49  16
        16    109.1083      2.2383 307.8988002  +6.6730662     2609.812     3601.548     3758.661     77.60602      137.145     250.0927      1.439     3.22     839.1418     55.18565     382.6505        19     1.185     0.953  43.59  24
        17    430.6338      2.5589 307.7651966  +6.6837343     1006.911      1243.58     1935.118     78.23138     140.9991     254.6111      1.447     5.29     835.2974     55.18565     126.3203        12     1.043     0.840  80.91  24
        18    100.5839      1.5830 307.9023641  +6.6730498     1089.321     1332.663     1359.541     70.91303     127.8784     239.5439      1.240     2.76     839.0511     55.18565     235.7189         9     0.893     0.680  17.41  24
        19    803.9839      1.3516 307.6101032  +6.6967288     548.3409     710.3146     1280.686     67.82224     124.5583     235.6886      1.030     3.35     827.7949     55.18565     126.8895         5     0.771     0.422 -20.20  24
        20    401.7983      1.3362 307.7772192  +6.6832718     931.0161     1083.146     632.4571     67.67841     123.9308     235.4404      1.072     2.40     837.3597     55.18565     220.4009         7     0.862     0.469   4.81  24
        21    895.0703    991.8513 307.5390993  +6.2908948     11240.84     19223.32     21138.37     78.35586      156.525     313.1123      1.849     3.74     860.8255     55.18565     1332.227        57     1.610     1.447  80.05   0
        22    759.3866   1022.7998 307.5943987  +6.2735909     1265.011     1739.949     1704.935     76.97558     136.5039     249.1948      1.516     3.94     863.5816     55.18565     169.1862        17     1.260     0.900 -17.64  24
        23   1016.6990    991.3077 307.4886167  +6.2951735     4304.741     7741.465     7839.288     78.48013     157.0844     312.6763      1.884     4.10     855.9935     55.18565     491.3016        37     1.596     1.230  72.57  16
        24    607.7072    992.5890 307.6583867  +6.2809923     1415.216     2029.938     1969.693     78.23138     156.2758     312.8632      1.599     3.36     865.4915     55.18565     183.5048        14     1.056     0.840  68.90   0
        25    539.3566    990.9583 307.6868198  +6.2793785     4209.354      6936.84     7976.901     78.23138     156.5873     312.9878      1.842     3.57      865.708     55.18565     566.0087        34     1.480     1.271  34.94   0
        26    648.6211    990.2429 307.6414783  +6.2833289     1378.248     2043.598     2100.353     77.98184     156.4628     312.9255      1.612     3.95     864.8773     55.18565     199.8337        14     1.240     0.768 -89.70   0
        27     73.9697    989.2708 307.8800920  +6.2644633     926.6199     1404.784      1776.64     78.35586     156.5873     313.0501      1.638     3.75     861.3823     55.18565     126.2302        10     0.885     0.840  37.98   0
        28    492.1537    987.2001 307.7065439  +6.2793496     2161.236     3240.276     3435.507      77.7315     156.2134     312.6139      1.622     3.40     865.6561     55.18565     295.9706        15     1.136     0.805  65.48   0
        29    926.7473    979.4703 307.5263609  +6.2970621     41240.57     67879.25     72828.78     78.35586     156.4628     313.0189      1.805     3.66     859.9575     55.18565     4751.862        82     1.689     1.378  76.22   0
        30      1.1925    979.4320 307.9106377  +6.2660767     841.9984     932.4899     1168.879     65.77982     122.1088     233.1109      1.224     3.77     860.2713     55.18565     181.5861         6     1.034     0.394 -89.95  24
        31    234.1288    977.7107 307.8139893  +6.2746157     1878.709     2888.899     2286.928     78.48013      156.836     313.0812      1.563     3.20     863.4059     55.18565     318.6819        20     1.210     0.982  70.66   0
        32    632.6921    975.6945 307.6485798  +6.2888018     966.8072     1604.816     1783.374     78.48013     157.0844     313.0812      1.776     5.80      864.715     55.18565     113.6017        15     1.269     0.983  48.54   0
        33    122.0171    976.9061 307.8605615  +6.2711822     713.1112     1008.747     1006.869     78.35586     156.4005     312.9567      1.509     4.81     861.6342     55.18565     115.2455         8     0.981     0.667 -88.88   0
        34    824.6030    973.1188 307.5689844  +6.2962764     2199.104     3287.992     3035.928     77.85677      156.151     312.8009      1.589     3.51     860.9757     55.18565     287.7483        19     1.246     0.900  83.11   0
        35    772.8719    971.1663 307.5905288  +6.2953554     6513.071     10472.79        11254     78.35586     156.5873     313.0501      1.721     3.56     861.9596     55.18565     859.9159        35     1.534     1.116 -89.56   0
        36    242.2141    970.3019 307.8108819  +6.2779453     1649.806     2342.676     2012.623     78.35586     156.3381     312.8632      1.568     3.78     863.3228     55.18565     199.0602        18     1.191     0.953  87.06   0
        37    206.4378    969.7413 307.8257542  +6.2769756     877.4261     1547.976     1641.021     78.48013     156.6495     313.1123      1.803     5.96     862.7094     55.18565     114.4814        12     1.355     0.783 -60.36   0
        38     67.2358    967.9462 307.8836068  +6.2730391     2665.381     4133.952     4472.332     78.35586     156.5873     313.1123      1.657     3.97     860.9742     55.18565     345.9716        25     1.462     1.020  85.00   0
        39    961.1785    966.2172 307.5125078  +6.3036808     6310.435     10928.85      11881.8     78.23138     156.4005     313.0189      1.861     3.90     858.2665     55.18565     759.1803        42     1.563     1.300  75.39   0
        40    559.4710    969.9993 307.6791719  +6.2887034      929.838     1538.526     1674.141     77.85677      156.151     312.8944      1.939     4.47      865.077     55.18565     126.0022         9     0.992     0.723  62.18   0
        41    934.9016    957.9481 307.5236948  +6.3062183     1948.476     3163.918     3121.827     78.35586     156.5873     313.2679      1.714     4.44     859.0917     55.18565     221.3077        22     1.300     1.142 -89.34   0
        42    643.4014    960.2523 307.6446511  +6.2955344     702.4727     874.3447      719.621     77.85677     156.2134     312.6763      1.510     4.16     864.1486     55.18565     129.1882         6     0.722     0.683  23.09   0
        43    794.4471    954.5293 307.5821277  +6.3029435     1269.383     2244.287     2774.003     78.48013      156.525     313.0812      1.943     4.71     860.9563     55.18565     171.1312        15     1.247     0.940  55.50   0
        44    655.5201    953.9103 307.6398320  +6.2985575     4682.557     6900.883     7169.041     78.23138     156.7739     313.1746      1.557     3.24     863.8058     55.18565     598.5371        27     1.355     1.007  86.95   0
        45    267.7788    953.9813 307.8008174  +6.2855403     4380.994     6523.799     6521.056     78.23138      156.525     313.0189      1.543     3.19     863.4594     55.18565     630.3463        24     1.284     0.967  83.70   0
        46   1004.8802    952.5648 307.4948183  +6.3107729     630.6317     1064.272     1315.302     78.35586     156.6495     313.1123      1.887     5.60     856.4699     55.18565     74.05621        10     1.244     0.710 -88.94   0
        47    477.6851    951.9127 307.7137362  +6.2934313      1134.18     1627.211     1514.986     78.23138     156.7739     313.1434      1.542     4.41     865.0991     55.18565     135.0388        13     1.119     0.856  72.96   0
        48     36.4566    951.3513 307.8969449  +6.2788540     2365.269     3609.158      3502.03     78.48013     156.5873     313.1746      1.615     3.45     860.4594     55.18565     301.6021        22     1.298     0.968  81.16   0
        49    887.0644    949.7982 307.5438301  +6.3079873     903.1784     1271.157     1200.844     77.85677     156.3381     312.8632      1.651     5.26     860.0102     55.18565     129.5976        11     1.305     0.722  81.29   0
        50    303.5281    947.8412 307.7861814  +6.2892743     850.6397     1325.069     1688.188     78.35586     156.5873     313.1434      1.675     4.48      863.947     55.18565     160.0891         8     1.159     0.604  75.12   0
        51    979.8258    948.0308 307.5053729  +6.3118097     467.9924     853.8687     482.8986     77.98184     156.4005     312.9255      1.572     4.81     857.3013     55.18565     76.08661         5     0.981     0.668  57.73   0
        52    580.2730    946.2804 307.6713308  +6.2991904     1900.089      2878.82     2609.478      78.7281      156.836     313.1123      1.605     3.90     864.3522     55.18565     247.9766        17     1.262     0.835 -83.95   0
        53   1011.5636    946.2560 307.4922540  +6.3135999     766.7523      1457.06      1846.31     78.35586     156.5873     313.1123      2.020     6.06     856.2184     55.18565     101.6975        10     1.160     1.016   7.20   0
        54    619.3930    942.5755 307.6552123  +6.3020284     1328.751     1923.617     1971.196     77.98184     156.4628     312.9255      1.580     3.74     864.0297     55.18565     199.6056        15     1.078     0.979  63.30   0
        55    167.9583    943.4487 307.8426155  +6.2865363     458.6641     629.8899     676.2183     78.48013      156.525     313.0189      1.456     4.68     861.8712     55.18565     86.57391         5     1.023     0.608 -67.95   0
        56     69.3143    943.5928 307.8835651  +6.2831615     782.8894     1092.063     1112.698     78.10671     156.2758     312.8944      1.463     5.10     860.6401     55.18565     114.7349         9     1.094     0.671  59.81   0
        57    299.3489    940.2072 307.7881735  +6.2922853     1596.365     2339.537     2275.293     77.98184     156.4005     312.7074      1.557     3.35     863.8259     55.18565     205.6863        14     1.060     0.858 -80.95   0
        58    766.5790    937.0214 307.5942852  +6.3092402     784.5698     1224.815     1164.636     78.23138      156.525     313.0812      1.596     5.00     861.4747     55.18565     111.9915         9     0.931     0.831  87.50   0
        59    567.2845    938.0676 307.6769993  +6.3021460     676.0913     1055.857     1214.164     78.85178      156.836     313.1123      1.691     3.72     864.1821     55.18565     103.8652         6     0.986     0.640  38.50   0
        60    903.8080    933.0936 307.5374366  +6.3154415     6836.123     10668.28     11117.34     78.10671     156.2758     312.8944      1.641     3.42       859.21     55.18565     884.4987        35     1.466     1.107  74.17   0
        61    439.6924    930.3087 307.7302364  +6.3010766     2317.035     3331.559     3636.588     78.48013     157.0844     313.0812      1.548     3.43     864.4435     55.18565     304.4907        19     1.341     0.851  89.17   0
        62    341.3287    928.6373 307.7711330  +6.2984693     9994.373     14829.87     15565.33     78.35586     156.5873     313.1434      1.621     3.25     864.1235     55.18565     1368.867        36     1.375     1.119  76.85   0
        63    608.7371    929.9128 307.6600615  +6.3068990     494.8661     563.4418     568.6829     78.48013     156.7739     313.1123      1.155     4.17     863.8287     55.18565     99.39679         6     1.167     0.426 -59.29   0
        64    261.4518    927.6827 307.8043294  +6.2961835     7430.937     11064.97     11604.13     78.48013     156.5873     313.1434      1.629     3.43      862.877     55.18565     976.5692        34     1.439     1.036  81.86   0
        65    589.4564    922.1430 307.6683277  +6.3094614     1144.682     1538.498     1641.617     78.60421     156.6495     313.1434      1.481     4.21     863.6929     55.18565     162.9771        14     1.337     0.762  71.53   0
        66    773.6460    921.9224 307.5918565  +6.3157090     659.8679     798.2624     835.7795     78.35586     156.6495     313.0812      1.431     4.87     860.9761     55.18565     96.12677         8     1.292     0.662 -83.76   0
        67    919.6410    917.9896 307.5313674  +6.3222044     1098.727      1726.67      2086.13     77.85677     156.4005     312.8009      1.710     4.78     858.4478     55.18565     175.1085        13     1.286     0.862  70.92   0
        68    151.7388    917.7582 307.8502151  +6.2965959     609.8601      669.371     445.6501     78.48013     156.5873     313.1434      1.217     3.76     861.4008     55.18565     93.96631         5     0.915     0.444  44.57   0
        69    876.1445    916.4158 307.5494810  +6.3214033     616.9999     1036.084     869.5413     77.85677      156.525     312.8009      1.766     5.33      859.495     55.18565     103.7193         8     1.139     0.705  44.61   0
        70    986.2160    913.9247 307.5038594  +6.3261017     800.9549     1190.533      1740.25     77.98184     156.3381     312.9567      1.854     5.53      856.496     55.18565     116.1638        10     1.105     0.780  23.80   0
        71    755.8420    911.0775 307.5996124  +6.3195912     1770.019     2693.726     2580.089     78.35586     156.5873     313.1434      1.595     3.57      861.176     55.18565     279.8158        16     1.258     0.836  64.05   0
        72    579.6609    912.0954 307.6727320  +6.3132812     699.2343     998.1016     945.4376     78.35586     156.5873     313.1434      1.464     3.58     863.4697     55.18565     115.2246         7     0.825     0.628  70.96   0
        73      6.4243    908.3634 307.9108638  +6.2955880     1008.182     1595.911     837.5581     78.10671     156.4005     300.7289      1.449     4.58     858.5692     55.18565     152.2617        11     1.306     0.593  85.12  16
        74    620.2112    907.9072 307.6560354  +6.3163666     879.3197     1362.048     1117.589     78.23138     156.2758     312.8944      1.637     4.71     863.1749     55.18565     129.8749        10     1.131     0.832 -65.39   0
        75    987.3779    906.7455 307.5036168  +6.3291040     1049.355     1788.106     2356.689     77.98184     156.5873     312.8944      1.890     4.36     856.2682     55.18565     155.8201        10     1.162     0.689 -80.41   0
        76    540.9574    906.9716 307.6889742  +6.3141011     1291.168     1795.227     2086.462     78.10671     156.6495     312.9567      1.418     3.17     863.4739     55.18565     193.5932        11     0.998     0.698  85.03   0
        77    674.4108    904.7401 307.6336368  +6.3194862     2676.978     3956.473     3949.647     77.85677     156.4628     312.8009      1.526     3.36     862.5798     55.18565     348.3728        23     1.329     0.973 -86.24   0
        78     70.9691    900.7023 307.8843245  +6.3009214     2874.602     4608.272     4854.773     78.60421     156.3381     313.1746      1.698     3.76     859.3346     55.18565     393.1755        27     1.501     1.022 -84.69   0
        79    964.4868    902.2368 307.5132727  +6.3302023     660.6032      964.198     842.9719     78.48013      156.525     313.0812      1.525     4.67     856.8116     55.18565     89.27063         6     1.003     0.618  27.08   0
        80    835.2570    901.1689 307.5669689  +6.3263329     775.3428     1386.293     1112.366     78.35586     156.5873     312.9878      1.817     5.60     859.7042     55.18565     101.4027        10     1.154     0.767  55.92   0
        81    952.6291    899.8616 307.5182759  +6.3307875     811.8157      1321.64     1317.184     78.23138     156.5873     313.0189      1.650     5.23     857.0889     55.18565     131.2545        10     1.238     0.907  41.30   0
        82    214.4383    899.6068 307.8247943  +6.3061945     2237.857     3349.426     3233.332      77.7315     156.2758     312.8321      1.595     3.28     861.8134     55.18565     342.5538        21     1.212     0.997  80.03   0
        83     88.3758    899.9084 307.8771242  +6.3018343     2011.048     2873.831     2945.346     78.60421     156.4005     312.9255      1.470     3.51     859.6375     55.18565     289.2058        19     1.161     1.009  55.75   0
        84    248.5675    896.4753 307.8107294  +6.3086329     895.4027      1343.49     1398.392     78.35586     156.5873     313.0501      1.619     4.87     862.3678     55.18565     142.8258        11     1.366     0.602 -89.14   0
        85    353.2697    895.5886 307.7672866  +6.3125118     1048.773      1743.51     2431.621     77.98184     156.4005     312.9567      1.951     4.97     863.3883     55.18565     147.7114        14     1.230     0.914  88.25   1
        86    669.0457    893.7110 307.6362343  +6.3238596     7424.226     11015.33     11237.92     78.48013     156.4628     313.1746      1.572     3.39     862.4981     55.18565     1058.272        33     1.432     1.037  77.68   0
        87    806.3493    893.8423 307.5792175  +6.3283924     584.6974     724.6961     419.6845     78.60421     156.5873     313.0812      1.635     4.28     859.9343     55.18565     102.4964         7     1.413     0.369  66.13   0
        88     29.0203    892.0352 307.9020333  +6.3030881     1297.661     1982.384     2428.939     77.98184     156.4005     312.8944      1.645     4.54     857.9653     55.18565     200.6263        13     1.289     0.700 -82.90   0
        89    906.8855    889.9070 307.5376031  +6.3333715     2702.555      4007.55      4357.05     78.35586     157.0223     313.1746      1.590     3.34     858.1049     55.18565     352.5069        22     1.129     1.083  89.57   0
        90    352.1056    886.8743 307.7680630  +6.3160699     17007.58     25154.91     26718.46     78.23138     156.7739     313.0812      1.584     3.36     863.1533     55.18565     2458.095        50     1.481     1.136  83.50   0
        91     42.0606    890.3733 307.8966753  +6.3042127     1091.405     1866.473     2506.079     78.10671     156.6495     312.9567      2.173     4.57     858.1725     55.18565     156.3685        13     1.166     0.849  81.98   0
        92     86.7408    887.8627 307.8782092  +6.3067516     1334.003     2086.905     1841.394     78.48013      156.525     313.1123      1.672     3.97     859.2481     55.18565     185.0971        16     1.226     0.873 -79.07   0
        93    222.9362    886.0765 307.8217216  +6.3120649     1251.551     1907.795     1774.959      78.7281     156.5873     313.0501      1.753     5.06     861.9028     55.18565     186.8445        15     1.369     0.909 -68.36   0
        94    429.7784    877.6586 307.7361221  +6.3224778      1050.31     1531.052     1464.043     78.10671      156.525     312.9255      1.577     4.31     862.7618     55.18565      150.082        11     1.138     0.675  87.36   0
        95    115.2315    877.5368 307.8667282  +6.3119716     1762.189     2413.325     2265.172     78.23138     156.6495     313.0501      1.446     3.32     859.6929     55.18565     243.6694        14     1.131     0.768 -89.43   0
        96    683.5928    874.2046 307.6308479  +6.3323981     896.3406     1578.002     1951.257     77.85677     156.2758     312.9255      1.773     5.10     861.9224     55.18565     153.6663        10     1.249     0.644  69.14   0
        97    831.2579    870.5815 307.5696533  +6.3388258     3199.411     4784.668     4866.881     78.10671      156.525     312.8632      1.613     3.30     859.2391     55.18565     433.4984        25     1.447     0.991  83.61   0
        98    510.1780    873.7986 307.7028682  +6.3267642     754.5829     1260.707     1796.174     78.10671     156.2758     312.8009      2.426     3.72      862.649     55.18565      105.911         9     0.948     0.680 -74.00   0
        99    897.2065    871.7948 307.5422281  +6.3405254     2047.929         3132     3701.586     77.85677     156.3381     312.9255      1.633     4.07     857.9089     55.18565     291.7612        18     1.238     0.902  85.75   0
       100    868.0296    870.9587 307.5543716  +6.3398973     2066.359     3434.772     3727.742     78.10671     156.4628     312.9567      1.769     4.85      858.559     55.18565      270.205        24     1.534     1.079  88.59   0
       101     98.8513    871.0309 307.8737486  +6.3141065     2561.514     3874.948     4281.485     78.35586     156.7117     313.0189      1.573     3.12     859.1258     55.18565     368.1144        20     1.228     0.958  79.77   0
       102    567.1533    862.0612 307.6796045  +6.3335165     350545.2       513289     540899.5     78.35586     156.4628     313.1434      1.559     3.45     862.2144     55.18565     51428.56       200     1.704     1.347  81.03   4
       103    347.1319    869.0893 307.7707263  +6.3232445     741.6398     1068.676     1439.715     78.60421     156.7739     313.0501      1.279     4.11     862.6895     55.18565     120.3207         7     0.937     0.575 -78.64   0
       104    411.4931    864.6469 307.7441518  +6.3272361     8020.424     11783.52     12052.11     78.35586      156.525     313.2057      1.614     3.37     862.3792     55.18565      1027.41        41     1.510     1.068  72.43   0
       105    654.8885    865.3859 307.6430625  +6.3350788     1262.338     1610.302     1139.538     78.23138     156.4005     312.9878      1.433     3.99     862.1558     55.18565     170.4949        12     1.074     0.765  87.24   0
       106    354.5772    862.9821 307.7678403  +6.3260152     13026.15      19454.1     20859.02     78.23138      156.525     313.0189      1.593     3.35     862.5394     55.18565      1675.69        40     1.419     1.089  82.10   0
       107    905.6429    858.3783 307.5391737  +6.3463452      5195.27     8214.736     9577.785     77.98184     156.4628     312.8944      1.782     3.59     857.4268     55.18565     655.3656        34     1.466     1.147  83.11   0
       108    673.0278    859.2766 307.6357353  +6.3382071     3918.963     5516.873     5368.097     78.35586     156.5873     313.0501      1.478     3.31     861.8993     55.18565     562.4889        23     1.267     0.935  84.44   0
       109    744.6030    855.6110 307.6061373  +6.3421121     899.2197     1033.475     1264.566     78.10671     156.2758     312.9567      1.412     3.87     859.9996     55.18565     123.6973        10     0.947     0.777  59.09   0
       110    647.7379    853.3871 307.6464341  +6.3397927     3684.891     5516.391     6108.886     77.98184     156.4005     312.8009      1.615     3.53     861.7065     55.18565     499.1612        21     1.318     0.884  81.58   0
       111    190.2724    853.4008 307.8363844  +6.3244559     642.5722     897.9657     675.6768     77.85677      156.151     312.9255      1.476     4.40     860.7505     55.18565     100.7446         6     0.911     0.676  72.08   0
       112    836.2545    852.3691 307.5681881  +6.3465107     1621.613     2452.406     2056.977     78.35586     156.6495     313.0501      1.644     3.64     858.7159     55.18565     248.8166        15     1.121     0.864 -82.88   0
       113    638.3028    852.2519 307.6503900  +6.3399458     1014.914     1654.704     2290.361     78.35586     156.5873      313.299      1.771     3.78     861.6813     55.18565     162.7852        12     1.107     0.793  68.15   3
       114    640.7877    848.0202 307.6495001  +6.3417758     2207.898     3340.048     3809.147     78.23138     156.2758     312.9878      1.559     3.69     861.5229     55.18565     294.1071        20     1.239     0.991  80.97   2
       115    962.9666    851.1841 307.5156106  +6.3512263      813.118      1360.72     1581.283     78.10671     156.3381     312.9567      1.716     3.76      855.593     55.18565     115.8811        10     0.939     0.733 -89.58   0
       116    924.4597    846.1180 307.5317701  +6.3520338     3169.648     5226.618     5313.678     78.60421     156.6495     313.1123      1.766     3.61     856.8538     55.18565      423.967        30     1.447     1.131  80.33   0
       117    334.5365    846.9614 307.7767005  +6.3319562     1056.725     1264.524      1184.49     78.48013      156.525     313.1434      1.429     4.99     862.2322     55.18565     146.7482        10     1.151     0.636  69.79   0
       118    382.4101    842.0301 307.7569881  +6.3355971     2645.664     3935.328       4529.1     77.98184     156.4005     312.9255      1.600     3.48     861.9152     55.18565     382.8933        21     1.385     0.848  74.62   0
       119    800.7786    839.7772 307.5833410  +6.3505244     415.7691     513.2332     593.5699     78.23138     156.4005     313.0501      1.047     3.86     858.8801     55.18565     81.71277         5     0.934     0.456  45.03   0
       120    518.6633    831.8036 307.7007550  +6.3443835     3145.904     4621.493     4184.055     77.85677     156.3381     312.8632      1.556     3.53     861.3808     55.18565     417.2158        26     1.325     1.066  81.35   0
       121    863.1807    830.6313 307.5577345  +6.3563826     1100.394     1678.266      1793.98     77.98184     156.4005     312.9567      1.606     5.19     857.8939     55.18565     133.4085        13     1.110     0.867  74.85   0
       122    565.5682    827.9676 307.6814070  +6.3475370     6499.603     9644.349     10125.13     77.98184     156.3381     312.7698      1.565     3.29      861.088     55.18565     844.8502        31     1.376     1.007  82.13   0
       123    584.1134    828.8450 307.6736768  +6.3477954     723.3926     985.1883     1046.478     78.48013     156.4628     313.0501      1.308     3.31     860.9921     55.18565     118.8928         6     0.744     0.572 -39.69   0
       124    277.0317    827.9870 307.8012163  +6.3378592     743.7225     963.9404     662.5261     77.98184     156.3381     313.0189      1.349     3.81     861.7009     55.18565     133.5609         7     1.038     0.548  89.97   0
       125    572.3828    827.1928 307.6786033  +6.3480849     1353.951     2172.303     2454.268     78.10671     156.3381     312.9255      1.798     3.92       861.01     55.18565     180.6783        13     1.169     0.764  62.58   0
       126    483.4110    826.8414 307.7155598  +6.3452514     1667.929     2441.825     2059.776     77.85677     156.4005     312.8321      1.527     3.94     861.2626     55.18565     240.9248        15     1.221     0.843  75.32   0
       127    901.3348    826.1434 307.5420410  +6.3595081     1416.415      1974.56     2064.225     78.60421      156.525     313.0812      1.578     4.11     857.0466     55.18565     186.9008        17     1.253     0.936  84.01   0
       128    125.1442    825.7623 307.8643578  +6.3336762     1507.189     2304.155     2158.311     78.48013     156.6495     313.1123      1.608     3.37     858.5682     55.18565      235.706        15     1.080     0.948  81.16   0
       129    701.1170    824.9802 307.6252212  +6.3533034     819.4189     1049.919     1126.794     78.10671     156.2758     313.0189      1.537     4.27     860.2901     55.18565     116.1712        11     1.061     0.742 -78.99   0
       130    536.2692    821.7054 307.6937834  +6.3491413     20910.74     30170.57     31482.37     78.35586     156.6495     313.1123      1.556     3.21      861.069     55.18565      2906.06        46     1.438     1.083  80.83   0
       131    377.2494    823.6588 307.7597487  +6.3430075     729.7896     960.4491     552.2233     78.48013     156.5873     313.1434      1.380     4.63     861.5111     55.18565     97.58289         8     0.926     0.657  84.03   0
       132    950.0313    820.0007 307.5220247  +6.3636677      3796.19     6004.168     6246.148     77.85677     156.4005     312.8632      1.630     3.43     855.5173     55.18565     502.0907        28     1.373     1.114  70.20   0
       133    182.3440    821.2700 307.8407589  +6.3374525     714.1907     933.8553     796.1849     78.48013      156.525     313.0501      1.511     4.36     859.4819     55.18565     99.82471         8     1.036     0.805  36.52   0
       134     69.9252    818.4939 307.8875305  +6.3348200     625.3685     961.8394     752.7275     78.23138     156.7739     313.0501      1.405     4.97     857.2298     55.18565      108.472         8     1.396     0.501  66.46   0
       135    422.1061    817.5445 307.7413282  +6.3470351     614.0453       794.31     1116.655     78.35586     156.5873     313.2679      1.412     4.29     861.0054     55.18565     97.94843         6     1.090     0.482 -61.17   0
       136     46.5962    812.2629 307.8974272  +6.3366074     1580.762     2427.623     2756.124     77.85677     156.3381     312.8321      1.566     4.65     856.7311     55.18565     200.3219        19     1.430     0.931  88.19   0
       137    591.3069    810.9942 307.6712888  +6.3554048      590.568     1285.037     1556.283     78.10671     156.2758     312.8944      2.455     6.07     860.2792     55.18565     80.62152         8     1.166     0.890 -59.80   0
       138    328.8838    810.3909 307.7802779  +6.3468624     3508.424      5043.27     5154.053     78.10671     156.2758     312.9255      1.496     3.11     861.5251     55.18565       557.96        23     1.271     1.007 -73.15   0
       139    794.4366    806.3297 307.5870946  +6.3641197     58114.32     84479.38     88929.25     78.35586     156.6495     313.1434      1.586     3.25     857.9561     55.18565     7806.613        75     1.528     1.202  76.77   0
       140     28.6217    808.5755 307.9050148  +6.3375247     2271.562     3366.545      3878.54     78.10671     156.4005     313.0812      1.680     3.59     856.4114     55.18565        310.6        18     1.269     0.847 -82.96   0
       141    733.1320    807.9859 307.6124964  +6.3613884     758.3157     992.1798     1091.438     77.98184     156.4628     312.9878      1.357     3.08       859.77     55.18565     142.7662         8     0.841     0.729 -79.34   0
       142    722.7168    800.8497 307.6170605  +6.3639862     22686.34     33806.54     36201.32     78.48013     156.5873     313.1434      1.585     3.24     859.7089     55.18565     3096.337        51     1.539     1.113  80.69   3
       143    716.3973    797.3864 307.6198008  +6.3652047     93482.57     134373.5     142249.3     78.10671     156.2758     312.9255      1.577     3.23     859.5642     55.18565     13120.37        88     1.551     1.217  79.99   3
       144    437.7736    804.9449 307.7352459  +6.3527611     747.3108     1163.093     1398.004     78.10671     156.6495     312.9255      1.736     4.11     860.6314     55.18565     123.6664         7     1.173     0.411  86.00   0
       145    251.2232    782.7107 307.8134570  +6.3556822     775395.3      1748528      1950391     78.48013     156.4005     312.9567      2.275     4.35     859.5933     55.18565     64005.04       638     2.822     2.107  87.20   4
       146    919.7058    801.5204 307.5352358  +6.3702852     8688.891     13110.45     14063.76     78.23138      156.836     313.1434      1.637     3.34     856.3184     55.18565     1088.851        38     1.415     1.149  83.87   0
       147    361.2402    798.2610 307.7672504  +6.3529546     21825.04     31714.13      33618.9     78.48013     156.5873     313.1746      1.572     3.19     861.0049     55.18565     3167.175        50     1.462     1.121  82.33   0
       148    423.1235    796.0980 307.7416266  +6.3559221     23052.48     33642.47     35343.77     78.10671      156.836     313.1123      1.543     3.25     860.3035     55.18565      3392.45        52     1.481     1.117  78.34   0
       149    410.3365    798.3040 307.7468622  +6.3545829     1479.881     1955.284     1750.865     78.35586     156.7117     313.1123      1.426     3.70      860.466     55.18565     222.4128        14     1.176     0.883 -76.82   0
       150    649.9952    797.4495 307.6473727  +6.3629590     995.1475     1239.281     1210.475     77.85677     156.4005     312.7386      1.413     5.36     859.5713     55.18565     135.0966        11     1.240     0.653  67.21   0
       151    960.2239    795.1371 307.5186234  +6.3742712     1936.648     3041.248     3130.691     78.10671     156.5873     312.9878      1.658     3.34     854.6305     55.18565     293.2816        22     1.323     0.964  77.18   0
       152    916.6758    793.0114 307.5367787  +6.3736967      6887.56     10353.36     11131.76     78.10671     156.2758     312.9255      1.623     3.31     856.1667     55.18565     871.9107        35     1.398     1.099  84.40   0
       153    657.0870    791.9343 307.6446128  +6.3654728     6943.846     9907.259     10003.53     78.48013     156.7739     313.1123      1.496     3.39     859.3992     55.18565     1004.864        30     1.353     0.976  80.58   0
       154    147.9444    792.3044 307.8560184  +6.3482532     575.0143     895.5481     937.5379     78.35586     156.5873      313.299      1.967     3.76     858.0991     55.18565     105.3653         5     0.823     0.493 -58.39   0
       155    446.0009    789.9809 307.7323325  +6.3592138     1812.996     2378.788     2154.379     78.10671      156.151     312.8009      1.400     3.31     860.0419     55.18565     266.5781        16     1.204     0.797  82.50   0
       156    885.3309    783.9097 307.5500998  +6.3764083     757.3224     1323.967     1141.214     78.60421     156.7117     313.0812      1.951     5.79     856.6071     55.18565     123.5958        10     1.488     0.681  89.98   0
       157    610.4667    784.0978 307.6642351  +6.3671484     865.1394      1099.31     1200.058     78.48013     156.6495     313.1123      1.757     4.99     859.1238     55.18565     138.7128        10     1.310     0.564  62.87   0
       158    692.3456    782.1148 307.6303005  +6.3707049      2503.48     3548.036     3646.238     78.48013     156.5873     313.2368      1.487     3.56     859.0402     55.18565     365.6995        18     1.272     0.837  76.88   0
       159    136.5252    782.6839 307.8610843  +6.3518406     1153.571     1784.255      1577.12     78.60421     156.8982     313.1434      1.620     4.31     857.7236     55.18565     163.9055        14     1.222     0.929  87.64   0
       160    161.2990    782.5928 307.8508006  +6.3527107     1088.909     1551.322     1407.227     78.23138     156.2134     312.8944      1.569     4.03     858.0894     55.18565      145.592        12     1.050     0.793 -69.63   0
       161    426.0776    778.7380 307.7409835  +6.3631871     56615.96     81913.52     86004.91      78.7281     156.6495     313.0812      1.550     3.32     859.5781     55.18565     8023.597        75     1.512     1.206  84.84   0
       162    968.5006    780.3368 307.5156811  +6.3806567     626.3882     1111.613      739.304     78.23138     156.6495     313.1123      1.359     4.34     854.0194     55.18565     107.0707         6     1.370     0.392 -76.33   0
       163    543.8143    777.8012 307.6921244  +6.3675172     7270.048     10681.05     11155.04     78.10671     156.2758     312.8632      1.545     3.35      859.449     55.18565     1042.442        31     1.356     1.020  88.82   0
       164    460.5619    776.4857 307.7267395  +6.3652723     4660.458     6854.549     7342.154     78.48013     156.5873     313.0812      1.639     3.48     859.4293     55.18565     568.6184        27     1.400     0.980  81.61   3
       165    457.1413    769.6993 307.7283880  +6.3679591     2357.412     3287.432     3639.794     78.23138     156.5873     313.2057      1.474     3.22     859.1713     55.18565      377.911        20     1.313     0.890  89.51   2
       166    789.0701    774.3888 307.5903929  +6.3771257     12113.02     17809.86     18939.75     77.98184     156.3381     312.8944      1.575     3.22     857.4176     55.18565     1823.019        43     1.427     1.136  75.04   0
       167    683.6671    773.5439 307.6341917  +6.3739529     449.8312     926.3646     1306.835     78.60421      156.525     313.0501      2.340     5.59     858.7675     55.18565      74.0105         5     1.244     0.708 -45.66   0
       168     18.2593    770.6599 307.9105970  +6.3528267     1226.532     1795.194     1466.819     78.48013     156.5873     313.1123      1.556     4.51     856.3468     55.18565     167.0387        15     1.438     0.755 -68.66   0
       169    810.9352    768.8456 307.5814985  +6.3801440     1460.056     2021.877     1949.907     78.48013      156.525     313.0812      1.515     3.71     856.9897     55.18565     209.2111        14     1.202     0.754  85.54   0
       170    154.8437    766.6762 307.8540174  +6.3590638     3089.098     4618.427     4475.089     78.35586     156.6495     313.1123      1.576     3.55     857.6082     55.18565       447.29        21     1.341     0.880 -87.00   0
       171    146.7762    766.3961 307.8573768  +6.3589084     12125.83     18059.87     19786.66     78.10671     156.3381     312.9255      1.593     3.27     857.4864     55.18565     1670.409        43     1.446     1.145  83.26   0
       172    983.6780    762.9982 307.5099579  +6.3883200     1501.014     2235.339     2940.096     77.85677     156.0262     312.8632      1.610     4.47     853.2485     55.18565     189.9254        18     1.424     0.798  66.79   0
       173    934.5776    762.9947 307.5303485  +6.3866846     6417.588     9614.347     10458.72     78.10671     156.3381     312.9255      1.582     3.19     854.9572     55.18565     828.4565        33     1.394     1.068  78.98   0
       174    138.8005    763.7586 307.8607775  +6.3597290     3036.746     4687.562     5810.256     77.85677     156.2758     312.7386      1.735     3.40     857.3461     55.18565     433.4681        24     1.316     0.968  87.35   3
       175    139.0540    757.3776 307.8608873  +6.3623715     1947.541     2969.914     3694.679     77.98184     156.5873     312.8944      1.620     3.97     857.1957     55.18565     283.8079        18     1.259     0.961  82.16   3
       176    689.9910    760.4060 307.6320061  +6.3795875     1719.896     2562.283     2557.571     77.85677     156.4005     312.9255      1.512     3.43     858.2692     55.18565      286.103        19     1.247     0.996  55.38   0
       177    576.9014    759.8544 307.6789870  +6.3760329     2355.396     3407.363     3258.133     78.35586     156.5873      313.299      1.446     3.32     858.4899     55.18565     403.0497        17     1.243     0.832  87.05   0
       178    424.8508    759.2121 307.7421492  +6.3712060      1284.38     1912.892      2069.89     77.85677     156.4628     312.8009      1.506     4.21     858.7261     55.18565      193.215        12     1.161     0.671 -82.41   0
       179    708.2216    757.5522 307.6245311  +6.3813749     656.1414     879.0253     518.6997     78.10671     156.5873     312.9567      1.494     3.47     858.1672     55.18565     107.5193         5     0.836     0.568  51.47   0
       180    928.7562    755.0136 307.5330329  +6.3897851     3123.898     4638.326     5004.345     77.85677     156.4005     312.8321      1.577     3.19     854.9625     55.18565     416.9022        23     1.267     1.012  72.50   0
       181    958.1892    754.4031 307.5208303  +6.3910184     3280.905     4802.547      4708.37     78.10671     156.2758     312.9567      1.533     3.13     853.9969     55.18565      471.319        21     1.212     0.954  80.99   0
       182    681.1992    754.2635 307.6358630  +6.3818292     1520.569      2383.73     2622.338      77.7315     156.4005     312.8321      1.705     3.78     858.0759     55.18565     235.8803        16     1.266     0.822  59.55   0
       183    989.0035    754.2212 307.5080397  +6.3921206     1905.648     2823.881     2761.229     78.10671     156.2758     312.8632      1.583     3.48      852.992     55.18565     245.2641        17     1.191     0.909  72.04   0
       184    828.6526    752.4412 307.5746902  +6.3875071     1087.176      1608.41     1411.807     78.48013     156.6495     313.0812      1.618     4.90     856.6066     55.18565      156.791        10     1.012     0.714  88.61   0
       185    253.9045    749.4094 307.8134649  +6.3695185     1927.661     3015.324     4110.607     78.23138     156.2134     312.8632      1.895     4.77     858.4653     55.18565      277.402        18     1.462     0.906  60.54   0
       186    903.7794    750.1628 307.5435677  +6.3909545     790.9903     1259.582     1405.065     78.10671     156.3381     312.8321      1.587     3.43     855.4384     55.18565     118.0982         6     0.774     0.536 -33.53   0
       187    690.2913    746.4557 307.6323491  +6.3853562     701.9023      1051.35     1014.981     78.35586     156.4628     313.2057      1.307     3.34     857.7776     55.18565       129.42         5     0.747     0.433  23.82   0
       188    946.4581    744.5007 307.5260332  +6.3947151     1179.495     1880.773     1805.366     78.23138     156.5873     313.2368      1.826     5.42     854.1983     55.18565     150.6931        12     1.234     0.719 -77.26   0
       189    273.5231    744.5078 307.8054833  +6.3722003      737.374     877.6435     545.8375     78.23138     156.7739     313.0812      1.340     4.66      858.522     55.18565     107.4559         8     1.025     0.603  48.60   0
       190    973.2114    742.0397 307.5150052  +6.3966228     2663.166     3972.389     4631.421     77.85677     156.4005     312.8321      1.588     3.46     853.3488     55.18565     408.1885        23     1.406     0.947 -87.59   0
       191    920.1915    743.2504 307.5369832  +6.3943553     1224.211     1821.957      1591.12     77.98184     156.4628     312.7698      1.467     3.36     854.8804     55.18565     187.8013        12     0.958     0.916  44.31   0
       192    169.2913    744.0193 307.8487818  +6.3689016      731.239     1113.612     1431.979     78.35586     156.3381     312.9255      1.611     2.97     857.2113     55.18565     117.9853         7     0.753     0.643  71.59   0
       193    692.7498    741.4736 307.6314952  +6.3874950     962.0696      1535.95     1952.563     78.48013     156.6495     313.1123      1.942     5.93     857.5947     55.18565     130.0092        11     1.413     0.701  84.81   0
       194    981.4119    742.0489 307.5115993  +6.3968924     503.8531     860.5056     475.5878     77.85677      156.525     312.7698      1.898     3.90     853.1157     55.18565     96.29315         5     0.910     0.478  81.24   0
       195   1014.7714    735.6459 307.4979594  +6.4006472     1824.936      2737.06     2112.333     77.98184     156.6495     312.9878      1.611     3.51     852.0842     55.18565     252.6949        16     1.165     0.881 -80.82   0
       196    483.8578    736.4686 307.7184102  +6.3825714     675.1074     1000.594     1263.979     78.60421      156.525     313.0189      1.534     4.68     857.6719     55.18565     100.3311         8     0.901     0.819 -30.06   0
       197    816.2887    734.3414 307.5804308  +6.3945660     1156.613     1663.375     1902.184     78.35586     156.5873     313.2057      1.440     4.48     856.3423     55.18565     155.9373        13     1.229     0.814  82.29   0
       198    641.0771    735.4135 307.6531568  +6.3882689     747.4639     858.8176     1063.044     78.10671     156.2758     312.8944      1.219     4.22     857.4715     55.18565     109.1356         7     1.030     0.518 -67.49   0
       199    902.2939    731.1567 307.5448205  +6.3987507     1459.543     2270.217     2353.521     78.48013     156.5873     313.2057      1.641     4.52      855.031     55.18565     206.1442        16     1.387     0.844  55.57   0
       200    876.7402    726.8787 307.5555758  +6.3996642     931.9667     1200.215     1615.504     78.60421     156.5873     313.0501      1.350     3.89     855.5699     55.18565     150.9068         7     0.840     0.688 -19.99   0
       201    662.6371    726.2780 307.6445098  +6.3927610     716.3788     940.1226     358.8362     78.35586     156.6495     313.0812      1.585     4.66     857.3505     55.18565      109.935         8     0.981     0.629 -73.93   0
       202    859.1910    722.7337 307.5630025  +6.4007896     1544.784     2213.764     1765.854     77.98184     156.4005     312.9878      1.499     3.48     855.8133     55.18565     234.0546        13     1.171     0.708 -88.14   0
       203     58.4151    721.5739 307.8955793  +6.3744391     2642.976     3754.696     4161.673     78.23138     156.4628     313.0189      1.563     3.47     856.1378     55.18565     380.5928        21     1.258     0.922 -86.96   0
       204    122.2044    720.1892 307.8691377  +6.3771557     1075.442     2075.564     2131.481     78.10671     156.2758     312.9878      1.915     7.23     856.1871     55.18565     138.7251        19     1.861     0.787  72.92   0
       205    575.9444    716.2020 307.6808497  +6.3940203     548.2499     724.1788     750.8385     77.85677     156.2758     312.7698      1.611     3.82     857.0488     55.18565     77.27069         5     0.812     0.515  52.80   0
       206    671.1335    710.2684 307.6415184  +6.3996537     6847.168     9728.805     10040.49     78.48013     156.6495     313.1123      1.512     3.03     857.1555     55.18565     1086.796        32     1.323     1.068  65.93   0
       207    617.9369    709.6787 307.6636299  +6.3981181     1516.171     2314.524     2525.385      78.7281     156.6495     313.0812      1.775     3.31     856.9456     55.18565     269.2376        14     1.197     0.711  79.07   0
       208    528.8063    709.6431 307.7006453  +6.3951499     794.3398      978.103     961.5849     77.98184     156.2758     312.8009      1.352     3.68     856.8696     55.18565     175.9824         9     1.139     0.663 -72.80   0
       209    134.0426    705.9780 307.8647011  +6.3834197     3819.615     5846.792     5874.882     77.98184     156.4628     312.9255      1.573     3.29      855.805     55.18565     569.0869        28     1.436     1.025  83.48   0
       210   1008.1148    705.6819 307.5017253  +6.4127946     2675.153     3856.532     3423.117     78.23138     156.8982     313.1434      1.521     3.24     851.3737     55.18565     361.5931        23     1.272     0.991  67.22   0
       211    645.0259    705.7593 307.6525117  +6.4006421     2292.368     3429.103     3873.814     78.10671     156.4005     312.8944      1.568     3.16     856.9854     55.18565     376.3381        16     1.254     0.727  85.32   0
       212    256.2472    705.7426 307.8139625  +6.3876220     713.4452     1042.829     1307.545     78.48013     156.5873     313.2057      1.652     6.25     856.5493     55.18565     96.82056        11     1.339     0.819 -86.19   0
       213    788.0092    702.4177 307.5932441  +6.4067998     21525.45     30268.23     31968.41     78.23138     156.3381     312.9255      1.499     3.10     855.7413     55.18565     3253.973        49     1.411     1.109  77.71   0
       214    320.3425    705.8155 307.7873435  +6.3897431     604.7688     1030.803     1529.121     77.85677      156.525     312.8009      2.058     4.22     856.9317     55.18565     116.2039         8     0.945     0.630 -70.28   0
       215    918.0102    702.0850 307.5392662  +6.4112757     3826.668     5617.094     5884.025     78.10671     156.3381     312.9255      1.495     3.36     853.8252     55.18565      523.403        22     1.342     0.914  77.82   0
       216    486.8900    702.6021 307.7182888  +6.3966527      1553.94     2253.876     2517.639     77.85677     156.2758     312.8321      1.555     3.61     856.6535     55.18565     214.4807        16     1.247     0.808 -85.25   0
       217    515.6221    702.0653 307.7063750  +6.3978365     1047.483     1538.632      1776.09     78.10671     156.5873     312.9878      1.468     3.53     856.6227     55.18565     146.7173        11     0.985     0.803 -84.38   0
       218    289.8085    702.0974 307.8001484  +6.3902532     656.2153     940.9129      331.002     78.23138     156.2134     312.8632      1.638     4.20     856.6513     55.18565     88.77313         6     1.153     0.437  62.45   0
       219    333.1541    701.8513 307.7821566  +6.3918092     724.8557     918.3406      569.319     78.60421     156.4628     313.1434      1.279     3.87     856.7817     55.18565     115.5012         6     0.787     0.546 -61.46   0
       220    558.9475    700.7437 307.6884271  +6.3998326     474.8959     403.4718     251.2424     78.48013     156.5873     313.0812      1.219     4.31     856.6179     55.18565     78.27625         6     0.911     0.581 -88.43   0
       221    261.4672    695.9636 307.8121241  +6.3918339     6461.905     9545.939     9861.934     78.35586     156.5873     313.1434      1.564     3.19     856.1116     55.18565     855.4341        30     1.399     0.987  82.66   0
       222    668.5375    695.1405 307.6431038  +6.4058117     7370.842     10423.89     11191.16     78.48013      156.525     313.1123      1.501     3.04     856.9484     55.18565     996.5446        33     1.393     1.016  86.40   0
       223    650.8979    696.5969 307.6503805  +6.4046206     1013.882     1476.993     2080.666     78.23138     156.3381     312.7698      1.639     4.32     856.8693     55.18565     165.5257        11     1.135     0.729  84.42   0
       224    364.3077    695.3180 307.7694392  +6.3955510      564.474     903.4601     565.5084     78.23138     156.8982     313.1434      1.742     6.00     856.4559     55.18565     87.33167         9     1.136     0.890  75.40   0
       225    928.5112    687.8124 307.5353825  +6.4175176     1249.478      1632.81     1471.733     78.23138     156.3381     312.9878      1.393     4.72     853.1418     55.18565     164.0833        13     1.196     0.764  85.11   0
       226    740.1612    683.5233 307.6137483  +6.4130011     4119.137     6002.206     6768.562     78.35586     156.6495     313.0812      1.581     3.28     855.5924     55.18565     578.3959        25     1.327     0.966  74.09   0
       227    695.3210    683.8801 307.6323583  +6.4113553     1046.236     1158.706     382.6094      78.7281      156.836     313.2368      1.290     3.49     856.4139     55.18565     165.4077         7     0.843     0.603  69.97   0
       228   1006.5541    680.2026 307.5032251  +6.4232605     9181.557     13644.61     13815.28     77.85677     156.2758     312.7386      1.593     3.22     850.6188     55.18565     1234.905        37     1.379     1.125  78.25   0
       229    945.0045    680.7037 307.5287705  +6.4210021     2646.448     3949.836     4244.525     78.23138     156.2758     312.8321      1.553     3.28     852.4758     55.18565     382.8179        22     1.292     0.981  88.66   0
       230      5.6921    682.4120 307.9187941  +6.3888303     701.7324     1122.795     1161.355     78.23138     156.3381     293.7785      1.643     3.12      855.291     55.18565     136.2385         7     0.866     0.629  75.83  16
       231     25.8083    679.8089 307.9105286  +6.3905817     1928.943     3097.361     3971.574     77.85677     156.4005     312.9567      1.837     3.40     855.2509     55.18565     288.6189        19     1.274     0.895  78.27   0
       232    559.3191    678.4473 307.6890214  +6.4090488     707.2473      986.715     1153.882     78.48013     156.5873     313.1123      1.693     4.39     855.9522     55.18565     89.34869         7     1.012     0.541  61.84   0
       233    442.3527    678.3322 307.7375999  +6.4051789     682.6232     1148.227     893.5775     78.48013      156.525     313.1123      1.730     3.51     855.7168     55.18565      121.901         7     0.922     0.559  59.93   0
       234     83.9397    674.9883 307.8865517  +6.3945271     25981.45     39122.69     41335.22     77.85677     156.4628     312.8009      1.576     3.32     855.1479     55.18565     3708.963        58     1.511     1.189  81.47   0
       235    545.0704    675.9888 307.6950213  +6.4095867     2161.437     2873.411     3273.209     77.98184     156.3381     312.8944      1.398     3.05     855.8203     55.18565     318.8167        17     1.205     0.840  76.78   0
       236    935.0923    672.5386 307.5331603  +6.4240421     1051.675      1781.35     2085.556     78.35586     156.5873     313.1746      2.117     5.91     852.5467     55.18565     136.2985        14     1.449     0.717  81.34   0
       237    514.0451    673.2086 307.7079992  +6.4096955     1517.301     2130.917     1965.871     77.98184     156.4628     312.7698      1.422     3.45     855.7277     55.18565     213.8453        13     1.095     0.762  64.27   0
       238    554.3735    669.9302 307.6913612  +6.4123990     998.8477     1450.187     2021.176     78.10671     156.4628     313.0189      1.791     5.03     855.6834     55.18565     139.8024        11     1.110     0.781 -81.59   0
       239    729.9626    667.3061 307.6185273  +6.4193547     3764.508     5403.336     5253.543     78.60421     156.4628     313.1746      1.517     3.16     855.2345     55.18565      560.478        25     1.343     0.925  73.19   0
       240    751.9429    665.4626 307.6094606  +6.4208501     4328.095     5886.754     5648.772     78.60421      156.525     313.1123      1.465     3.06     854.9555     55.18565      664.063        23     1.245     0.896  73.97   0
       241    583.4330    663.4521 307.6795104  +6.4160457     3592.136     4976.819     4811.162     78.35586     156.5873     312.9878      1.483     3.18     855.5999     55.18565     515.3596        22     1.255     0.945  77.62   0
       242    419.5215    664.0011 307.7475632  +6.4103294     1328.914     1945.741      2158.04      77.7315     156.0262     312.8944      1.588     3.64     855.2286     55.18565     237.6157        13     1.197     0.728  85.01   0
       243    327.4865    662.3353 307.7858400  +6.4079307     1582.775     2080.435     2030.499     78.48013     156.7739     313.1123      1.486     3.86     854.9941     55.18565     215.4957        16     1.322     0.775  78.28   0
       244    244.0614    662.9048 307.8204655  +6.4048956      1721.05     2494.577     2398.068     78.23138     156.6495     313.1434      1.527     3.60     854.5383     55.18565     255.6772        16     1.215     0.845  85.65   0
       245   1023.6859    661.3694 307.4967396  +6.4316058     2301.898     2891.059     2915.846     67.96579     123.8521     235.1505      1.184     3.38     849.8401     55.18565     576.9305        13     1.273     0.554  87.71  24
       246    990.2509    660.5776 307.5106521  +6.4308185     8366.126     12347.41     13057.97     77.98184     156.6495     312.9567      1.589     3.23      850.745     55.18565     1185.296        33     1.381     1.043  78.35   0
       247    709.9802    659.2444 307.6270964  +6.4220147     1068.212     1324.668     953.8501     77.98184     156.4628     312.9255      1.355     4.65     855.3521     55.18565     147.1229        13     1.263     0.723 -89.78   0
       248    543.7908    660.9024 307.6960593  +6.4157713     616.3462      880.454     877.0258     78.23138     156.2134     312.8632      1.538     3.55     855.3555     55.18565     103.9901         5     0.755     0.666  76.20   0
       249    435.4387    654.9666 307.7412567  +6.4145923      2993.49     4530.458     4854.149     78.23138     156.4005     312.8632      1.553     3.32     855.0685     55.18565     378.9097        24     1.416     0.916  89.88   0
       250    148.6810    653.9205 307.8603773  +6.4054000     24946.33     36866.11      38074.8      78.7281      156.836     313.2368      1.573     3.25     854.3698     55.18565     3258.232        49     1.453     1.141  76.67   0
       251    101.7305    656.9383 307.8797727  +6.4025760     901.0283      1312.58      1683.62     78.60421     156.5873     313.1123      1.525     3.91     854.7252     55.18565      132.186         7     0.879     0.562 -60.50   0
       252    817.0048    654.5356 307.5828059  +6.4275336     1283.889       1808.2     1747.113     77.85677     156.2758     312.8632      1.500     4.21     854.2906     55.18565     183.8481        13     1.235     0.696  84.91   0
       253    368.2618    648.5649 307.7693699  +6.4149826     797.7142     991.4568     1395.739     78.48013     156.5873     313.0501      1.363     5.36     854.6362     55.18565     104.6517         9     1.242     0.653  84.29   0
       254    985.0850    643.5462 307.5133671  +6.4376769     7189.716     11418.07     11859.61     78.48013      156.525     313.2368      1.704     3.42     850.6185     55.18565     963.3843        36     1.545     1.097  62.99   0
       255     29.7007    642.6975 307.9101648  +6.4060313     1221.485     1795.043     1354.066     78.48013     157.0223     312.9255      1.568     4.80     854.9489     55.18565     161.4827        13     1.171     0.813  89.61   0
       256    578.6940    638.7782 307.6823068  +6.4260723     51256.33     73209.77     76579.66     78.48013     156.4005     312.9255      1.524     3.17     854.7625     55.18565     7003.223        68     1.464     1.163  79.45   0
       257    447.7784    641.3672 307.7365892  +6.4206195      467.489     567.8229     532.9887     77.98184     156.4005     312.8944      1.092     3.74     854.7557     55.18565     80.13007         5     0.991     0.405  84.26   0
       258    221.9494    640.0912 307.8304166  +6.4135701     777.0955     1188.492     1123.105     78.48013     156.4005     313.2679      1.756     5.35     853.7816     55.18565     97.60809         9     1.208     0.668  89.65   0
       259    537.7864    639.0759 307.6992859  +6.4245802     682.3442     1117.554     1364.286     78.10671     156.3381     312.9255      1.660     5.13     854.6832     55.18565     105.0198         9     1.297     0.573 -86.67   0
       260    803.4315    638.3458 307.5889853  +6.4337636     713.1733     943.9822     916.7296     78.35586     156.6495     313.0501      1.386     3.83      853.974     55.18565     117.7552         7     0.963     0.479 -81.41   0
       261    186.3517    635.5582 307.8453524  +6.4142455     2893.827     4143.295     4111.587     78.48013      156.525     313.0189      1.558     3.35     853.8682     55.18565     438.0214        21     1.377     0.957  76.72   0
       262    509.3456    635.1718 307.7112286  +6.4252394     645.4482     808.5922     853.1826     78.23138     156.6495     312.9878      1.490     7.20      854.614     55.18565     103.3539        10     1.470     0.989 -46.49   0
       263    989.7926    634.7705 307.5117053  +6.4414564     702.5509     1030.374     1735.219     78.10671     156.4005     312.8632      1.535     3.50     850.3815     55.18565     134.6664         7     0.892     0.558 -30.11   0
       264     78.8982    629.6529 307.8901747  +6.4130709     1338.645     1700.011      1768.87     78.35586     156.5873      313.299      1.404     3.89     854.3611     55.18565     202.9131        13     1.178     0.718  87.95   0
       265    475.9236    622.5621 307.7255326  +6.4293250     67262.88     95849.23     100352.4     78.35586     156.6495     313.0812      1.527     3.21     854.3255     55.18565     9659.878        73     1.496     1.171  79.65   0
       266     19.3651    624.1107 307.9150842  +6.4133557     1803.798     2714.118     2644.087     78.60421      156.525     313.0812      1.551     2.98     854.9827     55.18565     263.9396        16     1.104     0.847 -79.06   0
       267    661.9551    619.9499 307.6483594  +6.4366299     945.6909     1432.242     1994.961     78.48013     156.4628     313.1123      1.705     5.19     854.1081     55.18565      127.192        11     1.109     0.686  88.89   0
       268    150.4302    617.6566 307.8608735  +6.4204278     1878.436     2817.369     2589.445     78.35586     156.6495     312.9878      1.645     4.14     853.7365     55.18565     265.0651        17     1.249     0.893  74.16   0
       269    945.7802    615.6944 307.5306228  +6.4478639     687.1904     948.6139     576.0118     78.35586     156.4005     312.8944      1.596     5.04     850.7764     55.18565      127.502         8     1.165     0.616 -87.94   0
       270    429.4758    615.2499 307.7450683  +6.4307870     946.3262     1243.139     1311.011     78.35586     156.6495     313.0812      1.354     4.97     854.0841     55.18565     135.1964        10     1.037     0.915  78.80   0
       271    621.7703    613.8799 307.6652525  +6.4377915     915.6104     1410.868     1827.391     78.35586     156.5873     313.0501      1.759     3.73     853.8998     55.18565     167.3449         9     1.187     0.537 -80.14   0
       272    330.3170    613.6968 307.7863013  +6.4281029     550.7195     764.8735      972.947     78.48013     156.9603     313.1434      1.279     3.43     853.3079     55.18565     108.4145         5     0.838     0.605 -50.09   0
       273    321.3932    611.8409 307.7900698  +6.4285696     2194.989     3463.753     3561.914     77.85677     156.2758     312.8009      1.689     3.89     853.2367     55.18565     296.9468        21     1.425     0.885  82.99   0
       274    473.7104    610.7081 307.7268501  +6.4341441     849.4539       1384.6     2036.805     78.48013     157.0844     313.1746      2.086     4.56     853.9944     55.18565     161.2568         8     1.134     0.541 -76.21   0
       275    747.9728    606.0844 307.6130994  +6.4452286     5673.268     8091.876     8322.911     78.60421     156.3381     312.9567      1.478     3.45      853.382     55.18565     857.7274        27     1.378     0.899  79.57   0
       276    801.5226    601.3342 307.5910179  +6.4489781     14837.97     20502.31     21444.85     78.60421     156.6495     313.0501      1.509     3.21      852.875     55.18565     1911.044        43     1.421     1.051  85.86   0
       277   1018.7744    602.0156 307.5007632  +6.4559435     1020.681     1233.456     817.7011     78.23138     156.4628     299.1042      1.425     5.43     849.0709     55.18565     147.3695        11     1.194     0.697 -78.99  16
       278    543.7533    601.3523 307.6980747  +6.4403519     1337.473     1972.215     2332.494     78.48013     156.4628     313.1123      1.712     3.64     853.4108     55.18565      224.005        13     1.148     0.780  80.19   0
       279    625.5126    599.4663 307.6641819  +6.4438665     3099.372     4507.857     4429.322     78.48013     156.7739     313.0812      1.574     3.33     853.3579     55.18565     446.7753        23     1.333     0.913  83.09   0
       280     46.3900    601.0249 307.9046406  +6.4237943      629.649     981.3023      1044.23     78.10671     156.4005     312.9567      1.442     2.82     854.4457     55.18565     119.7432         7     0.717     0.680 -83.82   0
       281    942.4657    595.5046 307.5326748  +6.4560877     1205.868     1688.331      2141.49     78.48013     156.7117     313.1123      1.530     4.14     850.2891     55.18565     200.4344        10     1.162     0.601 -89.51   0
       282    383.9364    592.8634 307.7647340  +6.4385012      944.152     1326.743     1455.576     78.48013     156.5873     313.1123      1.511     3.70     852.7607     55.18565     147.5311         9     1.063     0.659  81.15   0
       283    237.8634    592.6968 307.8254043  +6.4336681     1289.616     1982.198     1466.577     78.35586     156.7117     313.1123      1.478     3.40     852.6205     55.18565     178.7529        11     0.899     0.828  79.76   0
       284    877.6577    584.5939 307.5599570  +6.4584299     2988.318     4414.216      4558.21     77.98184     156.4628     312.8009      1.569     3.62     851.2841     55.18565     438.9386        19     1.315     0.819  66.10   0
       285    172.8338    584.0612 307.8527019  +6.4350481     820.6928      1393.62     1852.711     78.23138     156.6495     313.0189      1.826     4.90     852.8431     55.18565     109.0212         9     0.958     0.709 -87.22   0
       286    836.3300    581.8328 307.5772144  +6.4581904     2737.495     3942.381     4436.099     78.35586     156.5873     313.1123      1.540     3.09     851.6996     55.18565     406.7935        18     1.181     0.862  83.69   0
       287    807.1215    577.9869 307.5894746  +6.4588028     2660.153      3937.91      4695.56     78.10671     156.3381     312.8944      1.531     3.31     851.7937     55.18565     396.4432        16     1.243     0.766  85.68   0
       288     63.9615    579.6613 307.8980643  +6.4332038     480.1417     645.2799     568.7103     78.48013     156.6495     313.1123      1.515     4.60     853.9452     55.18565     79.18207         6     1.274     0.472  55.47   0
       289    749.6042    578.3043 307.6133529  +6.4567507     647.6879     1073.366     2256.843     78.23138     156.2758     312.8321      2.480     4.20     852.5836     55.18565     90.33997         7     1.079     0.466  81.20   0
       290    264.3717    576.9404 307.8149260  +6.4410621     8067.885     11577.62     11729.39     78.10671     156.6495     312.9878      1.501     3.14     852.2409     55.18565     1137.916        31     1.350     0.996  79.51   0
       291    816.9352    573.2423 307.5855575  +6.4610890     168246.2     238309.8     250835.3     78.48013      156.525     313.1123      1.516     3.13     851.5035     55.18565     25461.71       128     1.616     1.247  75.93   0
       292    198.5164    571.5080 307.8424590  +6.4410928     61966.04     90235.54      95835.4     78.23138     156.8982     313.2057      1.586     3.20      852.333     55.18565     8267.023        84     1.549     1.256  83.37   0
       293    122.5569    567.7385 307.8741322  +6.4400959     6536.509     9677.817     9992.468     78.48013     156.5873     313.2057      1.611     3.15     852.9648     55.18565     821.9071        34     1.384     1.094 -89.98   0
       294    987.8669    564.7850 307.5148451  +6.4702824     1464.435     2124.661     1843.488     77.98184     156.4628     312.9878      1.476     3.30     847.4321     55.18565     212.8934        13     1.042     0.808  46.88   0
       295    236.8908    563.3382 307.8267972  +6.4457541     883.0508     1463.321     1431.403     78.48013     156.7117     313.1434      1.626     5.81     851.8937     55.18565     128.9671        10     1.307     0.745 -76.17   0
       296   1008.8962    563.7379 307.5061456  +6.4714155     895.2308     1445.357     1509.706     78.23138     156.6495     313.1434      1.700     5.24     846.4492     55.18565     128.9434        10     0.983     0.826  38.86   0
       297    853.4626    560.5441 307.5708114  +6.4675502      4489.93     6330.335     6537.354     78.60421     156.5873     313.0812      1.505     3.14     850.8615     55.18565     684.3086        23     1.298     0.913  84.17   0
       298    371.9075    558.6736 307.7708799  +6.4522108      17844.2     26230.73      27215.3     78.35586     156.7117     313.1123      1.570     3.28     851.1075     55.18565     2547.683        49     1.484     1.124  86.24   0
       299    462.3649    558.7448 307.7333085  +6.4552138      660.282     775.9374     1553.168     78.35586     156.5873     313.1123      1.340     5.21     851.5688     55.18565     138.7834         8     1.268     0.604  79.97   0
       300    173.7889    557.7719 307.8531915  +6.4459319     1957.455     2864.096     3344.173     77.98184     156.4005     312.9255      1.526     3.52     852.2097     55.18565     298.0266        16     1.211     0.873  79.51   0
       301    248.8632    555.4876 307.8220894  +6.4493967     856.8376     1262.441     599.5585     78.48013     156.7739     313.0812      1.520     4.73     851.6868     55.18565     132.4266        10     1.226     0.737  58.12   0
       302    807.4924    553.8588 307.5901288  +6.4687752     6180.769     8967.809     9377.028     78.35586      156.525     313.2368      1.518     3.06      850.739     55.18565      853.819        31     1.387     0.962  80.84   0
       303    538.2318    553.5632 307.7019730  +6.4598939     6740.298      9704.66      9545.41     78.10671     156.3381     312.8321      1.539     3.38     851.4633     55.18565     972.0951        30     1.321     1.037 -89.08   0
       304    110.9570    554.7446 307.8793879  +6.4450694     934.6441     1593.658     1631.049     78.35586     156.5873     313.0812      1.711     4.96      852.907     55.18565     125.9083         9     1.103     0.632 -89.67   0
       305    396.7060    550.3323 307.7608611  +6.4564856     1469.682     2198.444     2364.269     78.35586     156.7739     313.1123      1.577     3.96     850.7246     55.18565     187.8491        14     1.158     0.802  73.83   0
       306    280.5324    543.1826 307.8093511  +6.4555393     89471.72       132797     139394.3     77.98184      156.525     312.9878      1.592     3.21     851.2764     55.18565     11678.92        97     1.573     1.245  82.14   0
       307    185.2605    546.6732 307.8488013  +6.4508987     7286.204     10757.96      10874.3     78.60421     156.5873     313.1123      1.582     3.26      851.855     55.18565     1026.942        33     1.326     1.106  80.81   0
       308    824.0718    546.2045 307.5834990  +6.4724885     1521.789     2138.127     2319.606     78.10671     156.2134     312.9255      1.407     3.45     850.3831     55.18565     276.1173        14     1.226     0.685  81.31   0
       309    582.9700    546.6833 307.6836227  +6.4642315     2497.796      3983.09     4125.353     78.48013     156.4005     312.9878      1.719     4.01     851.6885     55.18565     330.4097        24     1.391     1.065 -55.03   0
       310     57.0084    545.4144 307.9021077  +6.4471061     5110.333     7673.908     8307.043     78.10671     156.3381     312.9255      1.618     3.45     853.7272     55.18565     706.3492        31     1.444     1.057  73.80   0
       311    866.2313    546.5640 307.5659760  +6.4737473     682.8932      1095.28     1505.516     78.10671     156.3381     312.8321      1.645     4.02     850.3903     55.18565     104.6891         8     0.982     0.587  73.95   0
       312    570.2055    540.5281 307.6891310  +6.4663451     865.8535     1127.504     1487.744     78.10671      156.151     312.9878      1.386     3.17     851.2529     55.18565     157.1583         8     0.959     0.556  72.06   0
       313    264.2607    538.1943 307.8162770  +6.4570521     1490.579     2147.175     1830.898     77.85677     156.4628     312.8632      1.490     3.51     851.1035     55.18565     226.7783        15     1.202     0.779 -87.77   0
       314    980.0522    537.0334 307.5190190  +6.4814778     1691.444     2451.995     2410.398     78.35586      156.525     312.9878      1.489     3.36     846.5535     55.18565      248.267        15     1.121     0.866 -84.00   0
       315    803.6674    535.6132 307.5923287  +6.4761792     17005.06      24156.6     25212.32     77.98184     156.4005     312.9878      1.508     3.19      850.156     55.18565     2322.744        40     1.391     1.023  79.91   0
       316    507.3001    533.9858 307.7154776  +6.4669394     41669.34     65877.71     69943.05     78.48013     156.3381     312.8009      1.710     3.36     850.6516     55.18565     5390.256        79     1.564     1.401  66.96   0
       317    657.3380    532.8810 307.6531979  +6.4724170     828.4292     1610.417     1725.049     78.60421     156.5873     313.0501      2.072     6.20     850.3911     55.18565     127.2705        12     1.450     0.833 -71.46   0
       318    219.8377    530.3680 307.8349904  +6.4587908     1877.313      2954.07     2788.931     78.10671     156.3381     312.8632      1.672     4.01     851.1604     55.18565     253.6532        20     1.253     1.068 -57.60   0
       319     55.1685    530.5499 307.9033734  +6.4531799     1356.566     1954.348     2056.846     78.23138     156.5873     313.0189      1.605     3.39      853.619     55.18565     225.3142        14     1.186     0.744 -82.11   0
       320    677.5491    529.1575 307.6449282  +6.4746299     1465.838     2286.441     2600.465     78.60421     156.5873     313.0812      1.558     3.73     850.0653     55.18565     210.7406        16     1.291     0.797  85.15   0
       321    667.2684    528.9011 307.6492069  +6.4743920     3250.807     4765.945      5170.81     78.48013     156.7117     313.0812      1.535     3.05     850.0817     55.18565      484.309        22     1.252     0.953  78.22   0
       322    105.8121    530.2006 307.8823525  +6.4550276     746.5145     1248.746     1265.671     78.10671     156.2758     312.8944      1.835     5.06      852.607     55.18565     99.95801         9     1.047     0.693  81.90   0
       323    729.4481    528.0742 307.6234084  +6.4768119      1402.02     2183.028     2161.151     78.35586     156.6495     313.1123      1.667     4.16     851.0096     55.18565     239.3157        18     1.411     0.849  71.52   0
       324     86.3604    526.3383 307.8905613  +6.4559677     687.1608     1077.311     1390.513     78.48013     156.5873     313.1434      1.543     4.40     852.9007     55.18565     113.9705         7     1.362     0.405 -78.59   0
       325    404.9605    524.7275 307.7582940  +6.4673317     1750.219     2359.971     2648.475     78.35586     156.5873     313.1434      1.484     3.33     849.7573     55.18565     284.5799        16     1.185     0.861  73.44   0
       326    336.5097    522.8569 307.7867867  +6.4658080     4152.086     6068.587     6184.551     78.35586      156.525     313.1746      1.568     3.20      849.699     55.18565      586.182        24     1.318     0.950  87.86   0
       327    516.5323    522.3365 307.7120345  +6.4720574      2347.51     3131.118     3111.744     78.48013     156.5873     313.1434      1.407     3.42     850.1498     55.18565      310.677        18     1.233     0.833  87.50   0
       328    151.6276    521.5406 307.8636168  +6.4601426     26742.15     39340.05     41268.17     78.10671     156.6495     312.9878      1.606     3.29     851.8906     55.18565     3413.541        53     1.454     1.161  82.03   0
       329    879.5869    521.6485 307.5612628  +6.4844781     1687.326     2291.132     2084.606     77.85677      156.525     312.8009      1.443     3.54     849.4619     55.18565     251.6379        15     1.233     0.746  71.49   0
       330    116.7541    519.7592 307.8781604  +6.4597055     2684.302     3761.315     3522.462     78.35586     156.5873     312.9255      1.492     3.41     852.3122     55.18565     369.9358        19     1.255     0.864  85.57   0
       331    353.8883    518.0655 307.7797301  +6.4683689     1170.962     1712.634     2103.798     78.48013     156.7739     313.0812      1.690     3.88     849.3464     55.18565     157.5558        11     1.157     0.684  83.76   0
       332    977.2044    516.0938 307.5209021  +6.4900267     5347.515     7586.693     8243.998     78.23138     156.2758     312.8321      1.526     3.17     846.2726     55.18565     803.2446        26     1.306     0.938  82.93   0
       333    550.1858    508.4515 307.6985232  +6.4789159     1425.717     2019.791     2229.647     77.85677     156.5873     312.8321      1.531     3.48     849.5101     55.18565     224.8604        13     1.093     0.779 -79.37   0
       334     15.8574    505.8485 307.9205335  +6.4620531      25736.8     38556.18     41059.51     78.48013     156.5873     313.2057      1.592     3.29     854.3089     55.18565     3608.496        61     1.539     1.197  85.34   0
       335    448.6279    502.6781 307.7408987  +6.4778972     44577.99     64742.85     67957.59     78.35586     156.5873     313.0812      1.562     3.16     849.2895     55.18565     5994.821        64     1.486     1.169  79.73   0
       336      1.6215    500.2535 307.9266348  +6.4638833     9854.213     15217.07     17953.83     71.46062     128.9409     240.1939      1.735     4.66     854.6334     55.18565     2132.709        49     2.267     0.957  88.38  24
       337    656.6941    502.3369 307.6544901  +6.4850039     12819.17     18111.31     18735.44     78.35586     156.6495     313.1434      1.521     3.19     849.4583     55.18565     1754.003        37     1.369     1.040  77.18   0
       338    425.5694    504.7862 307.7504050  +6.4762541     451.8474     725.5702     955.6161     78.10671     156.3381     313.0189      1.682     2.81      849.171     55.18565      90.9845         5     0.719     0.454  69.21   0
       339    296.7111    502.8176 307.8039909  +6.4727444     993.9352     1618.753     1725.744     78.23138     156.3381     312.9878      1.783     5.81     848.9838     55.18565     137.7079        12     1.371     0.727  68.28   0
       340    213.8258    500.2682 307.8385016  +6.4710135      19270.5     30271.19     31934.52     78.10671     156.4628     312.9878      1.692     3.45     850.5533     55.18565     2611.242        55     1.572     1.218  67.59   0
       341    990.3004    500.7853 307.5159744  +6.4967826     1153.564     1627.404     1677.459     78.48013     156.3381     312.7386      1.557     3.52     845.6549     55.18565     153.3405        12     1.097     0.721  88.46   0
       342    179.4078    501.1328 307.8527671  +6.4695002     1429.746     2079.132     1470.561     77.98184     156.3381     312.9255      1.465     4.14     851.2294     55.18565     203.2424        13     1.302     0.676  80.76   0
       343    830.8450    500.3109 307.5822228  +6.4916593     1105.228     1372.005      1271.99     78.48013     156.4628     313.1123      1.299     3.61     849.3669     55.18565      198.887         9     0.950     0.740  66.67   0
       344    578.4926    499.0477 307.6870818  +6.4837452     2924.903      4105.03     4102.755     78.35586      156.525     313.2057      1.491     3.45     849.3698     55.18565     400.1383        19     1.300     0.819  81.78   0
       345    919.5214    500.1818 307.5453940  +6.4946718     641.8241     1046.951     1267.689     77.98184     156.2758     313.0189      1.824     2.95     847.3623     55.18565     118.1144         6     0.906     0.625  61.39   0
       346    952.2780    496.3549 307.5319160  +6.4973439     4989.509     7333.075     7541.553     78.35586     156.5873     313.0812      1.568     3.35     846.3569     55.18565      719.871        31     1.407     1.039  82.17   0
       347    625.4553    494.7787 307.6677190  +6.4870789      6871.04     9723.623     10351.17     77.98184     156.5873     312.8944      1.479     3.15     849.3863     55.18565     980.8214        29     1.343     0.959  79.81   0
       348    112.8777    494.9528 307.8806071  +6.4698147     1137.716     1783.163     1649.786     78.35586     156.6495     313.0501      1.659     3.50     851.9919     55.18565     181.3914        11     1.154     0.796 -82.43   0
       349    525.1160    493.3208 307.7094442  +6.4843222     503.9235     1004.823     1111.431     78.48013     156.8982     313.1746      1.386     3.99     848.9196     55.18565      68.6955         6     1.391     0.327  14.26   0
       350    974.9000    488.6253 307.5227780  +6.5012889     3676.047     5362.973     5415.628     78.48013     156.3381     312.9878      1.568     3.57     845.7441     55.18565     554.8807        25     1.332     0.995  77.98   0
       351    537.5960    485.9708 307.7045075  +6.4877741     7612.523     11071.32     11666.95     77.98184     156.4005     312.9255      1.505     3.15     848.5387     55.18565     1019.283        30     1.334     0.991  82.97   0
       352    413.7113    487.3878 307.7559153  +6.4830384     884.9698     1230.838     1305.389     78.23138     156.3381     312.9878      1.525     3.48      848.457     55.18565      135.279         8     0.954     0.579  66.67   0
       353    383.5595    486.0906 307.7684823  +6.4825628     2686.683     3898.896     3967.415     78.48013     156.5873     313.1123      1.486     3.29     848.2164     55.18565     365.7545        20     1.268     0.909 -81.39   0
       354    753.2161    486.3842 307.6149338  +6.4948156      604.336     609.2025      616.057     78.23138     156.2758     313.0189      1.199     3.00     849.1191     55.18565     101.9852         5     0.739     0.440  20.51   0
       355   1005.4119    484.3919 307.5102457  +6.5040535     661.8158     913.6637     758.4414     78.10671     156.4005     313.0189      1.565     4.41     845.3088     55.18565     93.81134         7     1.132     0.489 -87.03   0
       356    106.8030    485.2140 307.8834586  +6.4736303     597.8692     823.1743     808.8115     78.10671     156.2758     312.9567      1.454     3.91     851.8983     55.18565     96.22626         6     0.760     0.577 -51.20   0
       357    894.1606    481.8242 307.5565426  +6.5014037     3327.011     4804.564     5397.075     78.10671     156.4005     312.8632      1.527     3.24     847.5972     55.18565     477.6263        24     1.296     1.005  69.54   0
       358    546.8664    482.6658 307.7007680  +6.4894488     867.0678     1348.432     1795.637     78.48013     156.5873     313.1123      1.624     4.68      848.374     55.18565     116.9426         9     0.969     0.642 -76.91   0
       359    242.1814    481.1132 307.8273700  +6.4798727     591.3176     797.9878      472.752     78.23138     156.3381     312.9567      1.337     3.56      849.316     55.18565     109.0578         5     1.102     0.332 -79.27   0
       360    901.4570    476.2971 307.5536968  +6.5039287     2326.891     3009.721     3207.216     78.35586      156.525     313.2679      1.411     3.66     847.0934     55.18565     296.1766        16     1.216     0.769  72.96   0
       361    941.0010    475.6426 307.5372931  +6.5055179     1391.335     1942.829     1822.504     77.85677     156.2758     312.7074      1.467     2.76     845.7928     55.18565     221.9733        12     0.936     0.804  64.84   0
       362    120.1735    475.2007 307.8782432  +6.4782132     831.9711     995.9847     887.8318     78.10671     156.2758     312.8944      1.296     3.32     851.5678     55.18565     126.4967         9     0.914     0.681 -67.21   0
       363    725.5223    472.1180 307.6269151  +6.4997791     3047.366     4313.744     4329.426     78.60421      156.836     313.2057      1.492     3.42      848.484     55.18565     429.5608        21     1.256     0.914  83.90   0
       364    279.4035    474.1274 307.8121455  +6.4840062     422.7152     654.0186     230.0968     77.98184      156.151     312.9255      1.467     3.46     847.9306     55.18565     83.40491         5     0.810     0.428  69.57   0
       365     87.2664    471.2424 307.8920440  +6.4787404     1981.859     2891.224      2735.11     78.48013      156.525     313.1434      1.514     3.43       851.96     55.18565      315.132        17     1.230     0.862  76.25   0
       366    436.6931    470.4934 307.7469380  +6.4907826     1041.798     1434.601     1685.914     78.48013     157.0844     313.0501      1.703     4.88     847.9822     55.18565     153.5154         9     1.230     0.548  77.86   0
       367    624.1616    466.8787 307.6691927  +6.4985526     10288.27     14609.09     15342.83     78.35586     156.6495     313.0812      1.501     3.28     848.1617     55.18565      1495.76        30     1.333     0.977  84.82   0
       368    786.8096    463.5175 307.6017464  +6.5053771     17461.83     24794.38     26111.42     78.10671     156.2134     312.9255      1.536     3.24     848.1826     55.18565     2611.256        47     1.411     1.109  78.79   2
       369    790.6613    458.5461 307.6003131  +6.5075579     1491.461     2266.505     3133.259     78.48013      156.525     313.0501      1.689     4.18     847.9521     55.18565     189.3399        15     1.237     0.854  77.99   3
       370    306.5500    463.8131 307.8012177  +6.4891750     2834.343     4012.705     4105.471     77.85677      156.525     312.8009      1.533     3.57      847.373     55.18565      378.407        21     1.322     0.868  79.47   0
       371    396.3777    470.3655 307.7636874  +6.4894838     3595.488     5297.678     5208.028     77.98184     156.3381     312.8321      1.560     3.30     847.7422     55.18565     502.6888        25     1.368     0.922  85.00   0
       372    737.7952    461.3717 307.6221776  +6.5046253     518.4588     653.5945     364.7636     77.98184     156.4005     312.8944      1.464     3.64     847.9662     55.18565     88.44226         5     0.968     0.394  84.39   0
       373    389.6503    460.3426 307.7668188  +6.4933955     1623.238     2168.226     2532.942     78.48013     156.5873     313.0812      1.528     3.76     847.3739     55.18565     200.0894        14     1.124     0.842  81.90   0
       374    916.8380    460.9763 307.5478207  +6.5107663     484.5887     775.6078     417.6018     78.10671     156.3381     312.8632      1.375     3.96     846.1243     55.18565     69.00555         6     0.977     0.460 -51.52   0
       375    815.8376    460.4807 307.5897907  +6.5076001     1425.716     1975.419     1924.432     78.48013     156.6495     313.0189      1.461     3.47     847.9647     55.18565     190.3034        12     1.103     0.705  80.36   0
       376    972.0874    458.4867 307.5249544  +6.5136364     2116.493     2939.967     3316.715     78.23138      156.836     313.1746      1.504     3.58     845.2263     55.18565     324.5101        15     1.237     0.748  84.52   0
       377    720.3914    456.9237 307.6295559  +6.5058798     654.1221     998.4006     881.0398     78.10671     156.0886     312.8944      1.258     3.50     847.8684     55.18565     125.7266         5     0.765     0.462 -75.02   0
       378    378.1174    456.2126 307.7717480  +6.4947135     715.1594     1075.179     1327.029     78.10671     156.3381     312.9255      1.403     4.40      847.187     55.18565      113.738         8     1.068     0.515  60.01   0
       379    762.2946    454.3225 307.6122375  +6.5083538     2435.342     3400.854     3308.886     78.23138     156.7739     313.1434      1.511     3.23      847.678     55.18565     345.3745        16     1.137     0.829  71.88   0
       380   1023.9163    452.6147 307.5036218  +6.5177877     644.2354     860.4022     581.9222     64.43265     120.4211     231.2641      1.301     3.34     844.5605     55.18565     195.5807         6     1.268     0.254  84.95  24
       381    282.1971    452.3391 307.8117190  +6.4930938     1439.793      2141.56     2915.508     77.85677     156.3381     312.8009      1.660     3.60     847.2754     55.18565     199.2618        15     1.149     0.868  76.52   0
       382    360.3333    450.2627 307.7793349  +6.4965730     3116.898     4558.762     4848.311     78.48013     156.5873     313.0812      1.584     3.71     846.9275     55.18565     428.8262        23     1.405     0.924  84.93   0
       383    716.0588    447.8145 307.6316610  +6.5094952     1731.469     2481.238     2324.982     77.85677      156.525     312.8321      1.465     3.63     847.5214     55.18565     255.7488        16     1.266     0.780  68.35   0
       384    247.7707    445.7326 307.8262405  +6.4946648     892.9012     1391.353     1663.477     78.23138     156.5873     313.0501      1.790     4.38     847.7949     55.18565     137.1291        11     1.061     0.817  82.91   0
       385    124.2833    455.3761 307.8772049  +6.4865345      4456.73     6718.833      7343.67     78.35586     156.3381     313.0189      1.647     3.25     851.0046     55.18565     650.7305        29     1.398     1.027  74.69   0
       386    557.2460    440.1490 307.6978848  +6.5073468      897.848     1244.597     1479.675     78.60421     156.4628     313.1434      1.477     4.30     846.6661     55.18565     129.3565        10     1.018     0.838 -34.34   0
       387    458.7255    441.3875 307.7387653  +6.5035356     591.7318      892.538     471.0484     77.98184     156.2758     312.8632      1.519     3.43     846.8412     55.18565     85.20117         5     0.749     0.454 -17.30   0
       388    842.4214    438.1902 307.5794950  +6.5176890     1550.502     2312.378     2375.673     78.10671     156.3381     312.8944      1.609     3.65     846.7747     55.18565     241.2667        14     1.197     0.763  85.19   0
       389    479.7714    438.8492 307.7301089  +6.5052886     1443.878     1975.581     2016.175     78.10671     156.6495     312.9878      1.445     3.46     846.7575     55.18565     214.0113        13     1.077     0.788  87.10   0
       390    828.0381    437.0382 307.5855081  +6.5176844     2216.984     2946.367     3286.812     78.23138     156.4628     312.9567      1.412     3.54       846.79     55.18565     338.5117        13     1.121     0.702  83.57   0
       391    725.3328    435.2253 307.6282309  +6.5150019     15750.61     22423.49     23581.79     78.10671     156.4628     312.9878      1.523     3.14     846.9008     55.18565      2280.28        43     1.401     1.071  84.35   0
       392    646.4719    431.2647 307.6611210  +6.5140000     2589.573     3693.107     4517.329     78.48013     156.5873     313.1123      1.486     3.30     846.9094     55.18565     359.2831        19     1.276     0.840  73.44   0
       393    627.1851    436.3932 307.6689601  +6.5112379     743.7756     821.1057     1382.448     78.10671     156.3381     312.9255      1.262     3.08     846.8509     55.18565      121.595         6     0.717     0.635 -62.44   0
       394    621.4819    428.0067 307.6716106  +6.5145090     5501.364     8377.521     9536.778     78.10671      156.151     312.9255      1.576     3.50      846.418     55.18565     749.0674        21     1.368     0.851  85.39   3
       395    617.8110    425.7055 307.6732126  +6.5153360     15266.58     22804.98     24453.48     78.10671     156.2758     312.8632      1.593     3.29     846.2826     55.18565     2194.014        44     1.442     1.155  77.80   3
       396    950.5767    425.1098 307.5350062  +6.5266971     3849.678     5600.352     5964.304     78.48013     156.4005     312.9567      1.542     3.30     844.9949     55.18565     544.6904        25     1.437     0.884  85.54   0
       397    389.7282    421.0233 307.7681093  +6.5096285      29554.8     43612.96     46280.74     78.10671     156.4628     313.0812      1.554     3.24     846.0817     55.18565      4123.16        56     1.485     1.147  81.53   0
       398    135.6679    420.4330 307.8736551  +6.5013410     2270.486     3480.508     3534.985     78.35586     156.5873     313.0812      1.635     3.24     849.9077     55.18565      328.835        20     1.300     0.861  79.00   0
       399    905.9757    420.4507 307.5536891  +6.5271328     1506.895     2491.912     2910.292     78.10671     156.5873     312.9878      2.001     4.78     845.4228     55.18565     214.9498        15     1.299     0.908  45.21   2
       400     68.9179    415.8699 307.9015334  +6.5009795     1529.926     2217.876     2752.635      78.7281      156.836     313.1123      1.647     3.75     851.0507     55.18565     255.6075        17     1.317     0.891  73.79   0
       401    919.3791    415.4574 307.5482886  +6.5296411     5328.108     7444.075       8206.4     78.10671      156.525     312.8944      1.519     3.26     845.1991     55.18565     718.3177        24     1.293     0.903  79.73   0
       402    601.0153    417.2626 307.6804727  +6.5182592     663.6069     992.7399     812.9543     77.98184      156.525     312.8944      1.673     3.61      845.716     55.18565     114.3826         5     0.813     0.541  88.25   0
       403    975.1549    413.0799 307.5251990  +6.5324825     458.8096     481.8434     546.5144     78.48013     156.5873     313.0812      4.591     4.95      844.359     55.18565     93.38464         6     1.346     0.514  70.32   0
       404    247.2489    411.5926 307.8276075  +6.5087396     14156.44     21033.18     22512.91     77.98184     156.4005     312.7074      1.598     3.36     846.5521     55.18565     1992.769        43     1.436     1.134  75.08   0
       405     82.8919    405.1906 307.8960898  +6.5058577     744.0995      1218.78     978.9593     78.10671     156.2134     312.8321      1.673     5.11     850.5217     55.18565     99.72327         9     1.264     0.709  87.83   0
       406    742.1390    405.1330 307.6222589  +6.5279855     747.1979     927.6434     1434.395     78.48013      156.525     313.0812      1.412     4.10      845.498     55.18565     107.3935         8     1.032     0.546  36.87   0
       407    710.2372    404.2878 307.6355389  +6.5272681     722.7445     1132.634     1845.672     78.48013     156.4628     313.0812      1.802     3.76     845.6953     55.18565     123.2271         7     1.047     0.469  61.57   0
       408    970.7367    403.6787 307.5273488  +6.5362160     1089.249     1449.782     1579.827      78.7281     156.6495     313.0812      1.454     3.09     844.0438     55.18565     180.0144         8     0.870     0.639  88.13   0
       409    147.4737    400.1462 307.8694357  +6.5101118     5068.378      7700.53     7791.565     78.35586     156.5873     313.0501      1.600     3.32     849.4003     55.18565     661.5128        30     1.453     1.003  78.64   0
       410    360.2248    401.3901 307.7810247  +6.5167432     1374.755      1840.66     1644.366     78.10671     156.4005     312.9567      1.486     3.74     845.3334     55.18565     169.1984        14     1.045     0.895 -84.73   0
       411    192.9862    401.0435 307.8505015  +6.5112711     778.3566     1282.936     1352.818     77.85677     156.4005     312.8321      1.683     4.88     847.8359     55.18565     110.3218         8     0.968     0.697 -89.53   0
       412    252.3063    399.0594 307.8259291  +6.5140829     1337.932     1735.793     1623.351     78.35586     156.5873     313.1434      1.397     3.91     846.0966     55.18565     187.5417        13     1.187     0.769  74.09   0
       413    169.5443    395.9438 307.8604102  +6.5125884     2486.161      4117.43     4431.206      78.7281     156.5873     313.1123      1.784     4.46     848.7338     55.18565     332.7751        24     1.609     0.881 -84.68   0
       414    833.1512    396.3014 307.5847488  +6.5346711     770.6641     1163.892     1235.433     78.48013      156.525     313.2679      1.625     5.81     845.0251     55.18565     108.7756         9     1.426     0.667  63.65   0
       415    564.9940    395.1487 307.6961779  +6.5261819     953.8605     1324.077     1303.885     77.98184     156.4005     312.7386      1.321     4.26     844.6847     55.18565     179.2533         9     1.088     0.557  65.09   0
       416    280.9701    391.4615 307.8142790  +6.5181817     1037.011     1256.923     954.8815     78.23138     156.5873     313.0501      1.426     4.51     845.4791     55.18565      142.788        11     1.201     0.695 -87.26   0
       417    392.9399    390.7009 307.7677954  +6.5222528     2207.697     2940.783      3034.63     78.23138      156.525     313.2057      1.487     3.34     844.6652     55.18565     297.4612        14     1.099     0.815  84.97   0
       418     11.9657    391.0831 307.9260252  +6.5092940     720.1284     1129.467     900.7338     78.48013     156.5873     313.0501      1.554     5.43     851.5103     55.18565       99.927         9     1.246     0.667  53.52   0
       419    981.3556    390.1101 307.5233916  +6.5421711     1002.731     1406.585     1722.005     78.48013     156.4628     313.1746      1.563     3.44     843.2639     55.18565      148.778         9     0.955     0.692  80.22   0
       420    446.8431    384.4636 307.7456150  +6.5266348     7452.389     10913.76     11789.58     78.48013      156.525     313.1123      1.611     3.42     844.1989     55.18565     1068.938        33     1.449     1.039  86.45   0
       421    327.1351    388.0041 307.7952199  +6.5211585     623.9731     1074.313     1618.479      77.7315     156.3381     312.8632      1.917     2.86     845.0504     55.18565     113.1473         6     0.896     0.444  53.23   0
       422     43.1015    385.2013 307.9132915  +6.5127699     3126.075     5092.538     5473.443     77.98184     156.3381     312.7698      1.715     3.65     850.8006     55.18565     460.1887        27     1.446     1.051 -81.57   0
       423    600.7571    386.6147 307.6816089  +6.5309017     531.6746      723.274     601.3608      77.7315     156.3381     312.8321      1.516     4.40     844.3097     55.18565     74.16467         5     1.149     0.479   4.79   0
       424    787.4754    381.8198 307.6042078  +6.5391237     13369.68     19041.15     19852.25     78.10671     156.4005     313.0189      1.499     3.15     844.6106     55.18565     1869.095        38     1.405     0.996  77.51   0
       425    779.5049    383.2622 307.6074704  +6.5382621     2116.396      2868.49     2673.671     78.23138     156.6495     313.1123      1.448     3.23     844.6491     55.18565     314.0665        19     1.234     0.912  65.08   0
       426    301.6598    380.5720 307.8060519  +6.5233713     451.5549     640.1595     239.3298     78.10671     156.6495     312.9878      1.083     3.42     844.9435     55.18565     83.78589         5     1.047     0.324 -69.67   0
       427    350.6021    379.9669 307.7857428  +6.5252635     1108.474     1674.375     1717.291     77.73149     156.4005     312.8632      1.592     4.17     844.6223     55.18565     184.7081         9     0.972     0.724  76.82   0
       428    962.2274    373.5197 307.5318926  +6.5483819      594.137     838.5948     1344.779     78.35586     156.4005     313.1123      1.505     4.42     842.9855     55.18565      93.9342         7     0.864     0.642 -80.39   0
       429    195.7776    372.4860 307.8503048  +6.5231528     885.7299     1007.116     557.1239     78.48013     156.4005     312.9567      1.402     5.44      847.065     55.18565     110.5507        10     1.127     0.741 -88.77   0
       430      1.7402    370.8578 307.9309555  +6.5172982     829.9527     1698.747     2518.621     73.07881     130.2943     242.1336      2.653     7.26     850.9385     55.18565     129.8929        15     1.762     0.838 -83.75  24
       431    494.9911    368.0523 307.7261667  +6.5350226     3271.908     4720.061     4703.521     77.98184     156.4628     312.8009      1.498     3.18     843.6389     55.18565     484.7989        24     1.343     0.944  84.40   0
       432    467.2418    368.5052 307.7376783  +6.5339058     2320.676     3455.278     3210.089     78.48013      156.525     313.2057      1.507     3.43     843.6227     55.18565     352.0396        20     1.259     0.903 -86.89   0
       433    923.6986    367.4055 307.5481025  +6.5496209     996.7519     1306.973     1519.939     78.23138     156.2134     312.7386      1.412     3.46     843.5074     55.18565     153.6324         8     0.920     0.581  82.98   0
       434    852.8616    364.7055 307.5776194  +6.5483718      34754.2     51268.38     54228.14     78.35586     156.6495     313.1123      1.572     3.38     843.8978     55.18565     4989.107        63     1.586     1.115  82.47   0
       435    344.9176    360.3204 307.7887654  +6.5331825     976.4781     1312.273     1093.156     78.60421      156.836     313.2057      1.537     4.56     843.9345     55.18565     130.4114        11     1.045     0.856 -82.25   0
       436    624.6633    357.2278 307.6726650  +6.5438323     2948.268     4162.867     4198.557     78.10671      156.525     313.0189      1.488     3.21     842.9212     55.18565     421.7475        19     1.211     0.869  78.61   0
       437     33.0151    357.2112 307.9184260  +6.5239839     1220.022     1663.175     1532.916     78.23138     156.2758     313.0189      1.464     3.80     850.1202     55.18565     157.2845        10     0.998     0.689 -81.15   0
       438    709.3169    350.7027 307.6377185  +6.5493569     84376.58       119812     125865.8     78.48013     156.9603     313.1434      1.517     3.18     843.0844     55.18565     12471.78        94     1.530     1.224  75.40   0
       439    155.5362    355.0551 307.8676076  +6.5289954     581.3799     694.8307     59.15373     78.60421      156.525     313.0812      1.390     4.18     848.5734     55.18565     95.61414         6     1.002     0.498  87.74   0
       440    867.4761    352.4794 307.5719578  +6.5539065     1274.169     1813.476     1608.934      78.7281      156.836     313.2057      1.560     4.48     843.4368     55.18565     174.6295        13     1.199     0.767  66.34   0
       441     88.5553    350.2853 307.8955904  +6.5287117     1293.078     1648.695     1888.657     78.48013     156.4628     313.0812      1.342     2.93     849.4716     55.18565     176.1079        11     0.916     0.770  78.23   0
       442    571.7291    347.3438 307.6949859  +6.5461407     2746.999     4147.815     4572.223     78.48013      156.525     313.0501      1.664     3.49     842.3745     55.18565     363.4343        22     1.280     0.981  86.88   0
       443    108.9899    346.0934 307.8872439  +6.5311293     6433.907     9685.271     10078.32     78.10671     156.2134     312.8632      1.589     3.42     849.1257     55.18565     964.2534        34     1.433     1.069  78.93   0
       444    950.7200    347.2478 307.5375520  +6.5588432     904.2327     1422.469     1134.029     78.48013     156.5873     313.0812      1.684     3.91     842.1963     55.18565     131.7656         9     1.086     0.600  81.14   0
       445    399.0618    346.9400 307.7667249  +6.5405219     510.9364     750.9486     670.7962     78.48013     156.5873     313.1123      1.501     3.70     842.4452     55.18565     115.3052         5     1.212     0.324  63.41   0
       446    555.0083    343.5410 307.7020594  +6.5471506     7334.403      10626.2     11292.17     77.85677     156.4628     312.8009      1.546     3.33      842.149     55.18565     1132.167        34     1.423     1.008  83.89   0
       447    283.9188    340.9684 307.8147550  +6.5391232      2657.46     3918.159     3913.552     78.35586     156.4628     313.0501      1.524     3.40      843.799     55.18565     387.8376        22     1.280     0.974  76.50   0
       448    417.9258    338.7248 307.7591653  +6.5445456     26818.06      39369.6     41651.64      78.7281      156.836     313.1746      1.581     3.40     841.7883     55.18565      3756.52        56     1.495     1.175  79.71   0
       449    525.5596    337.5293 307.7144945  +6.5486460     1450.615     1759.617     1340.879     78.35586     156.5873     313.1434      1.443     3.39     841.8012     55.18565     209.0157        15     1.179     0.788  72.08   0
       450    596.3823    337.3839 307.6850793  +6.5510772     618.6166     750.1314     486.8562     78.23138     156.2758     313.0189      1.134     3.13     841.9427     55.18565     117.8729         5     0.737     0.447  71.03   0
       451    397.7737    336.5009 307.7676111  +6.5447878     1144.495     1719.582      2580.55     78.60421     156.3381     312.9878      1.792     3.84     842.1049     55.18565     179.5879        11     1.067     0.702 -76.94   2
       452    394.8526    331.3143 307.7689991  +6.5468308      897.986     1556.341      2204.76     78.48013      156.525     313.2057      1.855     5.30     841.9495     55.18565     140.4128        11     1.309     0.839  81.23   2
       453    497.2152    334.1445 307.7263826  +6.5490937     1194.928     1501.311      1184.15     77.85677      156.525     312.7698      1.463     4.12     841.6453     55.18565     163.9982        12     1.107     0.817  58.43   0
       454    812.6472    331.2270 307.5954466  +6.5608489     861.2994     1372.079     1020.323     78.10671     156.6495     313.0189      1.552     4.70     842.8373     55.18565     163.1353         9     1.336     0.469  72.86   0
       455    649.0743    331.4850 307.6633887  +6.5552753     615.2452     1203.235     1345.125     78.60421     156.8982     313.1123      1.755     5.15     841.7888     55.18565     100.9649         9     1.550     0.484  55.09   0
       456    506.9786    329.1060 307.7224962  +6.5515006      8940.96     13173.06     13564.88     78.35586     156.4005     312.9255      1.518     3.17     841.2551     55.18565     1374.022        39     1.408     1.102  82.00   0
       457    776.3230    327.9517 307.6106462  +6.5609876     3357.361      4740.08     5328.247     78.35586     156.6495     313.0812      1.537     3.21     842.8016     55.18565     553.3545        20     1.367     0.876  57.94   0
       458    931.8071    327.5172 307.5460691  +6.5663572     980.0588     1287.856     1696.251     78.10671     156.2758     312.9567      1.397     3.98     841.9415     55.18565     139.3768        10     1.080     0.655  80.73   0
       459    723.4279    327.6072 307.6326313  +6.5593623     730.9158     1086.079     1543.093     77.98184     156.4005     312.8944      1.756     5.23      842.557     55.18565     118.2386         9     1.268     0.610 -79.37   0
       460    333.2646    326.1363 307.7947567  +6.5469020     970.1393     1431.935     1510.658     78.48013     156.5873     313.1123      1.562     5.28     842.8282     55.18565     142.3014        11     1.203     0.655  87.94   0
       461     91.9842    322.4646 307.8951050  +6.5403107     528.0896      549.845     1108.305     77.98184     156.4628     312.9567      1.262     4.49     849.0072     55.18565     86.99713         5     1.027     0.558  77.51   0
       462    268.8954    319.8857 307.8217058  +6.5473213     667.6498     1221.729     1160.063     78.48013     156.9603     313.1434      2.074     4.92      843.706     55.18565     105.8765         8     1.302     0.526  74.38   0
       463    169.1463    319.4412 307.8631553  +6.5441534     1275.625     1882.289     1939.001     78.35586     156.6495     313.1434      1.552     4.12     846.8389     55.18565      167.188        12     1.118     0.748  67.01   0
       464    396.9011    313.2831 307.7687549  +6.5543425     7967.633     11641.52     12210.45     78.48013     157.0844     313.1746      1.571     3.34     841.2579     55.18565     1095.215        30     1.370     1.004  82.88   0
       465    252.6337    313.8114 307.8286654  +6.5492825     2184.047     3006.307     2980.312     77.98184     156.4005     312.9255      1.470     3.19     844.0881     55.18565     316.5605        15     1.124     0.796  81.64   0
       466    750.6931    312.7931 307.6218015  +6.5663887     959.2498     1186.582     1251.751     78.10671     156.2758     312.8944      1.364     4.53     842.3877     55.18565     154.5223        10     1.144     0.794 -72.24   0
       467    764.8069    309.2264 307.6160579  +6.5683326     56960.38     81023.97     84673.68     77.98184     156.4628     312.8944      1.520     3.14     842.2775     55.18565     8608.865        70     1.481     1.147  77.35   0
       468    436.2209    308.7655 307.7525732  +6.5575257     2470.599     3681.981     4039.175     77.98184     156.4005     312.8632      1.519     3.71     840.4757     55.18565     343.8671        19     1.298     0.931  89.76   0
       469    999.6733    306.3531 307.5185836  +6.5773565     1756.216      2645.61     2482.719     78.35586     156.6495     313.0812      1.641     3.81     839.5827     55.18565     221.1896        17     1.273     0.818 -88.68   0
       470    940.6886    305.5598 307.5431144  +6.5757173     2454.149     3349.977     3489.444     78.48013      156.525     313.1123      1.479     3.38     840.8927     55.18565     346.0975        18     1.201     0.844  63.90   0
       471    582.3805    306.0237 307.6919490  +6.5635537     1292.901      2110.05     2306.922     78.23138     156.4005     313.0189      1.711     3.93     840.2097     55.18565     193.8036        12     1.161     0.746  67.86   0
       472    473.3818    304.9432 307.7372648  +6.5603490     1065.862      1392.68     2208.057     77.98184      156.525     312.8321      1.748     3.81     839.7337     55.18565     176.9577        12     1.112     0.770 -88.99   2
       473    422.7982    304.0871 307.7583065  +6.5590068     2038.002     3101.628     3003.974      77.7315     156.2134     312.8009      1.627     3.30     840.4464     55.18565     324.4059        18     1.237     0.846  62.35   0
       474    844.2867    298.7269 307.5833917  +6.5753212     1159.368     1942.123      1589.94     78.60421     156.8982     313.0812      1.791     4.05     841.5842     55.18565     202.7902        16     1.221     0.966  78.32   0
       475    975.7070    296.3739 307.5288739  +6.5806769     562.7848     737.5862      529.471     78.60421     156.3381     312.9255      1.547     3.67     839.7616     55.18565     122.0121         5     0.977     0.397 -75.54   0
       476    763.2515    293.8292 307.6172203  +6.5746364     6382.559     9183.213     9765.132     78.23138     156.7117     312.9878      1.531     3.18     841.8638     55.18565     970.3961        29     1.380     0.940  76.47   0
       477    453.6885    295.6012 307.7457598  +6.5635453     1265.038     1910.629     2726.119      77.7315      156.151     312.8321      1.871     4.50     839.5082     55.18565     171.7452        14     1.148     0.912  86.64   0
       478    199.4611    295.5887 307.8513672  +6.5550180     2287.924     3246.911     3439.724     77.85677     156.4005     312.8009      1.531     3.49     845.4142     55.18565      331.853        16     1.191     0.805  73.84   0
       479    234.9632    293.9075 307.8366764  +6.5569049     740.0565     1028.398     799.5903     78.60421     156.4628     313.1434      1.468     4.39     844.4955     55.18565     121.4023         8     1.150     0.684 -79.58   0
       480     95.7889    292.6833 307.8945297  +6.5527315     1176.402     1858.544     2027.117     78.10671     156.3381     312.9255      1.710     4.59     848.5323     55.18565     155.0173        15     1.282     0.855  56.98   0
       481    779.6107    291.7007 307.6104956  +6.5760616     2724.918     3842.263     3594.284     78.23138     156.2134     312.8632      1.488     3.40     841.8087     55.18565     376.7634        18     1.183     0.897  89.00   0
       482    369.2084    286.4140 307.7811628  +6.5645047     1762.919     3814.106     3968.136     78.10671     156.3381     312.9567      2.031     5.70     840.8655     55.18565     205.4657        29     1.703     1.208  -1.15   0
       483     83.0540    286.9493 307.9000132  +6.5546700     1282.789      1857.73     1765.216     78.60421     156.5873     313.1123      1.452     3.49     848.4802     55.18565     182.5913        14     1.164     0.792  84.27   0
       484   1017.8804    282.7393 307.5118094  +6.5877110     6162.555     8690.734     9106.817     78.60421     156.5873     306.4111      1.506     3.27     838.4298     55.18565     884.0424        28     1.335     0.960  81.43  16
       485    495.9675    282.3427 307.7286422  +6.5704350     2023.863     2777.617     2672.765     78.35586     156.6495     313.0501      1.428     3.03     838.2305     55.18565     327.1436        16     1.258     0.712  87.60   0
       486    258.5025    278.1381 307.8274296  +6.5642048      5959.73     8718.079     8900.503     78.23138     156.6495     313.1434      1.553     3.44     843.3759     55.18565     740.7529        27     1.336     0.966  77.01   0
       487    926.4145    276.9939 307.5500005  +6.5870331     578.1909     489.4423     479.2511     78.10671     156.3381     312.9255      1.343     3.95      839.825     55.18565     89.80914         5     0.909     0.490 -86.42   0
       488    822.9775    276.4513 307.5929906  +6.5838049     592.6094     359.2872     596.2416     77.98184     156.5873     312.9567      1.251     4.55     840.8752     55.18565     76.66028         8     0.865     0.679 -86.12   0
       489    949.6316    272.9074 307.5404919  +6.5894943     417.2832     708.2385     509.7827     78.60421     156.4005     313.1123      1.611     4.41     839.2167     55.18565     85.16711         5     1.149     0.481 -87.95   0
       490    778.1074    271.4537 307.6117988  +6.5843692     787.2022     1066.874     1084.865     78.35586      156.525     313.2368      1.487     4.07     840.9504     55.18565     159.9426         8     1.014     0.690  82.16   0
       491    392.7042    268.7747 307.7719960  +6.5725740     1882.027     2716.415     2799.369     78.60421     156.3381     312.9567      1.571     3.72     840.0204     55.18565     255.0947        17     1.211     0.912  63.87   0
       492    979.3813    267.5316 307.5283124  +6.5927054      1127.77     1695.385     2042.543     78.10671     156.4628     313.0189      1.484     3.23     838.5135     55.18565     183.9264         9     0.984     0.585  80.96   0
       493    315.0471    264.8158 307.8043892  +6.5716025     1256.892     1709.021     1475.255     77.98184     156.4628     312.8321      1.482     4.70     841.6454     55.18565     200.5818        14     1.335     0.744 -71.75   0
       494    199.5703    265.9698 307.8523204  +6.5672477     607.5389     1110.588     882.7461     77.98184     156.3381     312.8321      1.805     4.44     844.8367     55.18565     96.53864         6     0.889     0.630  52.03   0
       495    162.4144    264.6655 307.8677991  +6.5665371      1848.64     2675.127     3014.767     77.98184     156.4628     313.0189      1.616     3.51     845.4926     55.18565     253.1333        15     1.135     0.822  77.42   0
       496    571.9674    260.4416 307.6978060  +6.5820208     2358.256      3218.77     3383.659     78.23138     156.5873     312.9567      1.465     3.37     837.9224     55.18565     350.2861        18     1.237     0.847  73.50   0
       497    915.9280    259.5257 307.5549418  +6.5938941     1760.155     2524.394      2985.41      78.7281     156.7117     313.1123      1.517     3.63     838.9453     55.18565     257.3985        14     1.242     0.712  87.77   0
       498    853.6193    259.6727 307.5808229  +6.5917540     577.3388     829.6334     358.2713     78.10671      156.525     313.0189      1.120     4.33     839.6659     55.18565     120.6107         7     1.187     0.627  74.89   0
       499    735.6530    257.9154 307.6298900  +6.5885391     5251.321     7458.768     7603.784     78.48013      156.525     313.2368      1.469     3.19     840.3608     55.18565     697.3834        26     1.325     0.920  78.65   0
       500    973.5437    257.6187 307.5310693  +6.5966028     863.6786     968.3817     911.7416     77.98184      156.525     312.8944      1.411     5.07     838.1292     55.18565     120.3235         9     1.253     0.581  77.69   0
       501    676.3755    257.7936 307.6545202  +6.5866075     2187.463      3198.28     2822.425     77.98184     156.4005     312.8944      1.479     3.20     838.6013     55.18565     321.1965        18     1.209     0.873  70.72   0
       502    391.3438    252.1222 307.7731215  +6.5794022     615.4575     997.6343     986.9355     78.48013     156.5873     313.0812      1.472     3.11     839.6851     55.18565     107.9089         5     0.747     0.436  72.00   0
       503    931.6411    249.9020 307.5487360  +6.5983908     1264.887     1677.606     1477.767     78.48013     156.4628      313.299      1.515     3.78     838.1894     55.18565      158.812        14     1.179     0.795  80.98   0
       504    235.1483    242.9491 307.8383170  +6.5779455     2451.188     3688.668     3894.651     78.60421     156.4628     313.0812      1.582     4.28     843.6607     55.18565     369.8723        21     1.467     0.819  82.38   0
       505    877.8940    242.0306 307.5713289  +6.5998468     1764.007      2640.74     2914.333     78.60421     156.3381     313.0501      1.504     3.47     838.4055     55.18565     259.9728        18     1.207     0.924  80.16   0
       506    768.1612    241.5688 307.6169328  +6.5963731     1673.409     2264.981     1793.948     78.10671     156.3381     312.9255      1.457     3.54     839.7007     55.18565       243.77        14     1.192     0.730  82.31   0
       507    256.8551    236.4944 307.8295172  +6.5813390     678.0982     918.6736     703.3284     78.35586     156.5873      313.299      1.402     2.80     842.9917     55.18565     125.3347         8     0.951     0.710 -66.08   0
       508    469.0779    233.0340 307.7414708  +6.5898877     23762.82     34930.72     36931.49     78.35586     156.5873     313.0501      1.546     3.37     837.0223     55.18565     3397.251        51     1.473     1.110  84.66   0
       509    795.1812    232.2194 307.6060208  +6.6011351     13800.38     20017.52     21769.55     78.23138      156.525     313.0189      1.582     3.17     839.2699     55.18565     2196.738        47     1.405     1.276 -79.54   0
       510    474.7376    227.5795 307.7393030  +6.5923289     1560.851     2443.017     2414.775     78.10671     156.5873     312.9567      1.724     3.75     836.6766     55.18565     214.2953        17     1.250     0.861 -80.10   1
       511    733.7134    227.8246 307.6317050  +6.6008954      684.082     807.6107     465.4447     78.48013     156.4005     312.9255      1.383     5.16     838.9991     55.18565     102.6586         8     0.948     0.794  86.34   0
       512    157.3080    226.3827 307.8712116  +6.5821676     2454.544     3710.099     3832.911     78.23138     156.3381     312.9567      1.608     3.48       844.98     55.18565     334.5537        20     1.329     0.868  76.52   0
       513    132.1649    225.4847 307.8816867  +6.5816928      1206.79     1783.902     1640.601     78.48013      156.525     313.0501      1.644     4.16     845.6124     55.18565      176.627        13     1.040     0.947  69.47   0
       514    330.4388    235.0643 307.7989971  +6.5843999      670.947     893.1202     1093.906     78.48013      156.525     313.1434      1.546     3.78     840.9153     55.18565     104.5598         6     0.833     0.492 -84.62   0
       515    183.5899    224.3953 307.8603607  +6.5838715     664.7903     658.4972     -147.155     77.98184     156.3381     312.9567      1.267     4.78      844.368     55.18565     119.2362         6     0.986     0.657  71.57   0
       516    931.4183    222.4564 307.5497473  +6.6097128     1471.112     2061.532     2220.948     77.98184      156.525     312.8321      1.571     3.76     836.6835     55.18565     202.5979        13     1.186     0.719  77.95   0
       517    593.0985    218.7784 307.6904268  +6.5999262     4668.873     7054.296     7531.738     78.35586     156.3381     312.8632      1.578     3.43     836.4863     55.18565     703.6599        28     1.419     0.931  77.78   0
       518    555.7258    218.8174 307.7059518  +6.5986589     2092.024      3096.47     2998.865     77.98184     156.3381     312.9878      1.587     3.46     836.2715     55.18565     317.3321        18     1.206     0.889  88.50   0
       519    313.7579    219.4781 307.8064517  +6.5902736     1134.383     1627.958     1421.898     78.35586     156.5873     313.1434      1.378     3.19     841.2288     55.18565     174.8215        10     0.954     0.775  83.99   0
       520    397.6323    217.9091 307.7716605  +6.5937356     1633.121     2201.663     1782.293     78.60421     156.4005     313.1123      1.414     3.24     838.7167     55.18565     231.8145        15     1.146     0.768  67.48   0
       521    954.1174    216.0007 307.5405328  +6.6131347     2724.813     3964.546      4032.08      77.7315     156.0886     312.7698      1.462     3.36     836.3712     55.18565     418.0067        17     1.253     0.785  79.94   0
       522    900.1760    215.4317 307.5629625  +6.6115702     11844.61     16774.72     17724.69     77.85677     156.4005     312.8944      1.517     3.32     836.8984     55.18565     1847.017        34     1.360     1.002  77.80   0
       523    327.7325    215.2792 307.8007877  +6.5924759     1052.513     1718.919     1966.555     78.60421     156.7739     313.0812      1.794     5.42     840.6762     55.18565      125.226        15     1.333     0.843  80.67   0
       524    575.1932    215.1910 307.6979860  +6.6008076     925.9365      1386.85     1393.065      77.7315     156.3381     312.8944      1.471     4.52     836.2711     55.18565     142.5427         8     1.116     0.521  47.66   0
       525    219.6065    215.5110 307.8456983  +6.5887491      803.636      1331.36     1526.219     77.98184     156.2758     312.8632      2.026     5.44     843.5316     55.18565     104.7954        10     1.067     0.973 -36.71   0
       526    986.8460    213.2224 307.5270281  +6.6153729     10312.52     14838.05     15377.19     78.10671     156.5873     312.9255      1.510     3.15     835.9711     55.18565     1597.968        36     1.395     1.034  73.39   0
       527    698.2055    213.1881 307.6469478  +6.6057502     2924.852     4291.813     4640.801     78.10671     156.3381     312.9878      1.580     3.65     837.2633     55.18565     413.7684        21     1.306     0.891  84.41   0
       528     26.2765    211.9438 307.9261310  +6.5837190     26303.18     39491.59     41751.23     78.48013      156.525     313.0501      1.587     3.33     848.2457     55.18565     3578.438        57     1.525     1.147  81.17   0
       529    272.5964    213.0366 307.8237683  +6.5915505     1017.952     1575.169     1541.087     77.60602     156.4628     312.8944      1.592     5.38     842.3509     55.18565      145.393        11     1.280     0.637  64.34   0
       530    506.7498    207.9669 307.7266632  +6.6014974      2129.61     3055.168     2815.591     78.35586     156.5873     313.0189      1.514     3.39     835.8772     55.18565     313.3153        18     1.237     0.866  73.21   0
       531    890.9516    203.7881 307.5671848  +6.6160689     2058.965     3044.652     3532.469     77.85677     156.4628     312.7698      1.487     3.18     836.6726     55.18565     333.3075        16     1.318     0.682 -87.93   0
       532    838.5657    204.8328 307.5889142  +6.6138890     2102.849     3003.275     3080.837     78.10671     156.3381     312.8321      1.457     3.20     837.3204     55.18565     310.0703        17     1.225     0.796  69.70   0
       533    518.6295    203.9586 307.7218626  +6.6035499     2769.477     3996.381     3945.383     78.10671     156.4628     312.9567      1.533     3.44      835.757     55.18565      378.593        21     1.303     0.924  82.82   0
       534    750.3823    201.3489 307.6256678  +6.6123814     42207.76     60348.87     63108.82     77.98184     156.6495     312.8321      1.549     3.32     837.5452     55.18565     6126.811        61     1.494     1.100  78.72   0
       535    353.4272    200.6803 307.7906048  +6.5993643      6205.45     12017.69     13417.44     78.35586     156.4005     313.1123      2.104     5.42     839.5315     55.18565     716.9993        47     2.044     1.163 -82.35   0
       536    984.0483    200.0835 307.5286301  +6.6207033     2927.838     4129.256     4400.903     78.48013     156.5873     313.1123      1.443     3.09     835.3707     55.18565     495.4524        19     1.210     0.861  83.06   0
       537    918.3367    198.4691 307.5559853  +6.6191782     8103.191      11396.7     11929.76     78.48013     156.5873     313.1434      1.508     3.26     836.2598     55.18565     1226.721        31     1.328     1.014  76.94   0
       538   1022.3143    198.5392 307.5127833  +6.6226162     1935.261     2703.398     2908.706     78.60421     142.5799     256.6696      1.512     3.55     834.7241     55.18565     263.0966        17     1.231     0.885  71.21  24
       539    461.7642    197.4792 307.7457049  +6.6043190     5148.252     7881.646     8792.157     78.35586     156.6495     313.0812      1.674     3.43      836.142     55.18565     702.7137        32     1.482     1.021  81.01   0
       540    236.3551    194.5516 307.8394470  +6.5979633     811.8096     1128.895     737.0976     78.48013     156.4628     313.0501      1.540     3.87     842.9155     55.18565     166.5621         7     1.045     0.447  79.62   0
       541    119.0687    188.8285 307.8883640  +6.5963829     5070.385     7549.544     7529.386     78.23138     156.5873     313.0189      1.570     3.44     844.9189     55.18565     697.3872        28     1.403     0.963  79.35   0
       542    938.3724    188.1780 307.5480056  +6.6240947     999.1438     1408.139     1721.851     77.98184     156.4005     313.0189      1.383     3.43     835.7579     55.18565     167.5945        11     1.135     0.675 -87.10   0
       543    289.4265    185.4973 307.8177044  +6.6034832     35792.22     52585.02     54717.81     78.60421     156.3381     313.0189      1.623     3.35     841.5871     55.18565     4613.504        62     1.518     1.191  84.02   0
       544    264.7712    186.6208 307.8279093  +6.6021915     6787.917     10274.74     10735.04     77.98184     156.4005     312.9878      1.610     3.38      842.155     55.18565     987.7269        33     1.424     1.048  76.37   0
       545    615.6611    187.5567 307.6821018  +6.6135693     580.5853     1000.451     1071.804     78.48013     156.5873     313.2057      1.758     3.78     835.8447     55.18565      92.3642         5     0.983     0.417  75.44   0
       546    718.5076    184.4901 307.6394760  +6.6182752     954.2236     1197.617     948.3781     78.48013     157.0844     313.1123      1.266     3.29     836.3959     55.18565     149.5703         8     0.996     0.500  88.94   0
       547    413.5277    180.9971 307.7662990  +6.6095053     51610.29     77287.34     80855.64     77.98184      156.151     312.9255      1.592     3.26     837.1329     55.18565     6583.574        72     1.547     1.186  78.94   0
       548    169.5108    182.2191 307.8676320  +6.6008074     4067.826      6373.75     6460.622     78.23138     156.3381     312.9878      1.697     3.39      843.349     55.18565     565.1227        28     1.439     1.059  77.23   0
       549    430.8733    181.4431 307.7590779  +6.6099028     1579.367     2292.814     2185.545     78.35586     156.6495     313.1123      1.477     3.69     836.6039     55.18565     234.5534        14     1.223     0.735  82.61   0
       550    325.2071    178.3260 307.8030813  +6.6076446     2090.024     3778.355     4614.781     78.10671      156.151     312.9567      2.125     4.85     840.1294     55.18565     336.7146        29     2.071     0.950 -82.25   0
       551    317.5322    178.7253 307.8062563  +6.6072222     19116.02     28153.29     29985.23     78.60421     156.7117     313.0812      1.616     3.32     840.4098     55.18565     2422.866        44     1.474     1.078  83.80   0
       552    752.8073    177.2639 307.6254680  +6.6224045     34752.95     49897.81     51623.08     77.98184     156.2758     312.9255      1.525     3.31     836.1302     55.18565      5157.76        59     1.481     1.108  80.31   0
       553    700.5956    179.0900 307.6470990  +6.6199054     998.7938     1326.445     1399.815     77.98184     156.2758     312.8321      1.434     4.53     836.1024     55.18565     149.9614        11     1.240     0.643 -72.96   0
       554    584.4186    179.9426 307.6953374  +6.6156665     512.6969     938.9757     885.5092     78.10671      156.525     312.8632      1.587     3.91     835.3815     55.18565     103.5825         5     0.907     0.484  82.68   0
       555    801.2051    177.7219 307.6053449  +6.6238324     1248.574     1701.577     2079.857     78.10671     156.0886     312.8632      1.561     3.34     836.3146     55.18565     186.8615        11     0.911     0.818  83.99   0
       556     69.5910    174.4376 307.9094040  +6.6006583     9540.978     14086.77     14314.92      77.7315     156.3381     312.8321      1.580     3.38     846.4205     55.18565     1199.748        36     1.450     1.007  83.15   0
       557     40.0345    176.9273 307.9215984  +6.5986358     567.8632     783.1816     1092.394     78.35586      156.525     313.0501      1.680     4.42     847.7849     55.18565     85.92102         6     1.076     0.516  78.77   0
       558    103.3058    172.2907 307.8954705  +6.6026790     1664.662     2386.349     2168.311     78.48013     157.0844     313.0812      1.581     4.47     844.9503     55.18565     217.6824        16     1.227     0.894 -80.46   0
       559   1011.4755    171.6741 307.5181852  +6.6333448     1105.003     1468.098     1554.408      78.7281      156.836     313.1746      1.414     3.84     833.2449     55.18565     179.1532        11     1.196     0.612  72.31   0
       560     22.4447    171.5202 307.9290883  +6.6002755      430.554     771.1525     863.5366     78.48013     156.5873     313.0812      1.728     3.91     848.6085     55.18565     100.9317         5     1.167     0.376  72.90   0
       561    737.4290    165.6656 307.6322463  +6.6266782     582.6127     65.11053    -256.6703     78.23138      156.525     313.0189      1.399     4.65     835.4273     55.18565      124.909         6     1.130     0.543  62.62   0
       562   1012.1736    157.8153 307.5183588  +6.6390889     2281.716     3679.644     4786.002     78.10671     156.4628     313.0189      1.969     3.35     832.3618     55.18565      362.574        25     1.939     0.920  77.74  18
       563    586.5633    161.7228 307.6950584  +6.6232592     952.8466     1157.007     1219.302     78.35586     156.6495     313.0812      1.308     3.14     834.9265     55.18565     145.9587         7     0.918     0.490 -84.21   0
       564      2.7705    159.3405 307.9376729  +6.6046404     1022.923     1689.261      1679.34     78.23138     143.5336     257.7306      1.785     5.12     849.6174     55.18565     152.4176        12     1.318     0.833 -89.52  24
       565    281.1756    155.5208 307.8221422  +6.6155797     767.7535     1303.114     2301.003     78.10671     156.4628     313.0812      2.231     6.25     841.3538     55.18565     102.3641        11     1.412     0.777  61.22   0
       566    595.4457    155.5918 307.6915740  +6.6260873     1127.114     1455.644     1781.441     77.98184     156.4628     312.7386      1.565     3.69     834.8864     55.18565     165.4904        12     1.009     0.857  30.61   0
       567    288.3422    151.7793 307.8192909  +6.6173648     31506.92     47161.48     50228.88     78.10671     156.4628     312.8944      1.607     3.27     841.1404     55.18565     4235.072        58     1.542     1.145  79.85   0
       568    603.5322    153.6741 307.6882788  +6.6271496     2178.622     3362.451     3940.242     78.60421     156.7117     313.0501      1.705     3.82     834.9308     55.18565     292.0492        19     1.266     0.990  75.79   0
       569    347.6615    153.5964 307.7945855  +6.6186061     1066.488     1644.411     1418.141     77.85677     156.3381     312.8009      1.591     4.72     838.9268     55.18565     157.5239        12     1.130     0.806  72.57   0
       570     33.6397    150.2183 307.9251571  +6.6094451       4709.3     6951.717     7536.174     78.10671     156.4005     312.8321      1.603     3.48     847.8246     55.18565      629.188        28     1.373     1.045  79.30   2
       571    720.0309    148.4222 307.6400532  +6.6332145     8484.818     12243.36     13289.07     77.98184     156.4005     312.9255      1.554     3.40     834.7788     55.18565     1301.249        30     1.377     0.948  80.00   0
       572    197.3682    149.2953 307.8571694  +6.6153338     929.5079     1494.501     1513.383     78.60421     156.4005     313.1434      1.740     4.63     842.4749     55.18565     136.7277        12     1.068     1.008  70.25   0
       573    130.6877    145.5441 307.8849978  +6.6146402     5283.456     7779.364     7950.624     78.48013     156.4628     313.2057      1.591     3.51     843.1936     55.18565     711.4393        28     1.416     0.972  86.39   0
       574    274.0618    146.4821 307.8254022  +6.6190718     902.3365     1502.265     1838.676     78.60421     156.5873     313.0501      1.860     5.02     841.3928     55.18565     136.9296         9     1.253     0.569  80.47   0
       575    592.3698    142.6536 307.6932866  +6.6313250     791.8701     1483.209     1389.936     78.35586     156.6495     312.9878      1.819     6.26     834.6142     55.18565     225.8849         9     1.642     0.671  77.01   0
       576    469.7643    142.7424 307.7442222  +6.6271815     1409.947      1715.71      1776.31     78.35586     156.5873     313.1123      1.383     3.82     834.5641     55.18565     206.1646        14     1.175     0.810  78.33   0
       577    401.4662    141.5305 307.7726382  +6.6253917      4056.46     6727.027     6853.218     78.48013     156.6495     313.0812      1.816     3.79     836.5994     55.18565     496.7716        32     1.593     1.075  79.98   0
       578    658.3541    142.4002 307.6658805  +6.6336377      834.116     1213.345     885.8785      77.7315     156.2134     312.6451      1.478     3.50     834.9225     55.18565     135.8073         8     0.929     0.647  88.05   0
       579    365.9132    140.4112 307.7874467  +6.6246611     3260.945     4807.795     4880.615     78.10671     156.3381     312.9255      1.570     3.49     838.1488     55.18565     499.5685        24     1.364     0.928  83.07   0
       580    120.1519    140.3118 307.8895514  +6.6164456     1724.208     2607.136     2554.397     78.48013     156.4628     313.1434      1.592     3.79     843.3199     55.18565     250.5397        16     1.338     0.727  88.72   0
       581    578.1777    140.5783 307.6992527  +6.6317065     769.2649     1089.817     1138.316     78.23138     156.4628     313.0501      1.618     5.38     834.4771     55.18565     111.0037         9     1.149     0.710 -80.94   0
       582    755.8724    138.0838 307.6255086  +6.6386800     601.5219     907.2593     882.1093     78.60421     156.8982     313.1123      1.552     4.41     834.2591     55.18565      97.5835         6     0.819     0.676  87.21   0
       583    681.6634    137.7467 307.6563522  +6.6363383     830.9277     1133.353     883.0493     78.48013      156.525     313.0501      1.343     3.54     834.7505     55.18565     128.9827         9     1.064     0.595  80.06   0
       584   1012.7043    134.7014 307.5189115  +6.6486478     1649.988     2566.919     2899.671     78.48013     157.0844     312.9255      1.664     3.59     830.9789     55.18565     248.7698        16     1.183     0.865  89.62   0
       585    738.3339    134.2473 307.6329242  +6.6396775     673.6425     937.0053     1171.064     78.48013      156.525     313.1123      1.444     4.08     834.0808     55.18565     125.4763         7     1.050     0.488  60.48   0
       586    679.5195    128.1833 307.6575639  +6.6402142     6472.131     9260.233     9942.917     78.10671     156.2758     312.9255      1.501     3.36     834.3931     55.18565      898.061        28     1.419     0.896  77.74   0
       587    217.7932    129.2906 307.8493585  +6.6242777     5710.114     8398.971     9087.253     78.10671     156.2758     312.8632      1.577     3.21     842.3032     55.18565     860.4303        26     1.367     0.966  83.07   0
       588    100.4911    129.1804 307.8980950  +6.6203789     2291.737     3526.986     4352.473     78.35586     156.3381     312.9255      1.675     3.87     843.4914     55.18565      290.897        21     1.415     0.878  74.85   0
       589    827.4888    128.0378 307.5960899  +6.6452194     993.4349     1350.108     1256.217     78.48013      156.525     313.1123      1.472     5.05     833.7817     55.18565     140.9652        10     1.132     0.688  67.93   0
       590    631.7538    125.3956 307.6775032  +6.6397670     9710.932     14341.29     15137.78     77.85677     156.3381     312.7698      1.581     3.42     834.3517     55.18565      1399.03        39     1.482     1.026  79.11   3
       591    635.2881    116.9519 307.6763183  +6.6433707     55790.56     81281.02     85555.19     78.48013     156.4628     313.1434      1.543     3.29     834.1276     55.18565     8080.002        71     1.538     1.143  79.37   2
       592    266.3848    126.0281 307.8292809  +6.6272568     898.9389     1497.879     1675.644     78.10671     156.4005     312.9878      1.879     6.11     841.3417     55.18565     118.9916        12     1.398     0.752 -82.30   0
       593     30.4144    124.4768 307.9273665  +6.6199617     1092.197     1705.163     1461.215     78.10671     156.2758     312.9255      1.753     6.05     847.5017     55.18565     143.2484        14     1.470     0.767 -78.72   0
       594    569.6521    124.5920 307.7033320  +6.6380200     736.9955     995.6896     1280.862     77.98184     156.4628     312.8009      1.438     5.00     834.1774     55.18565     106.2805         8     1.073     0.659  79.59   0
       595    358.8447    121.2612 307.7910281  +6.6323286     3759.586     6185.726     6794.077     78.35586      156.525     313.2057      1.799     3.45     838.4196     55.18565     495.1018        33     1.542     1.180 -78.74   0
       596    540.7118    120.5285 307.7154926  +6.6387281     1792.045     2573.251     2522.223     78.60421      156.836     313.0812      1.533     3.66     834.0224     55.18565     244.1151        14     1.141     0.765  78.02   0
       597   1004.9714    120.0597 307.5226143  +6.6544341     931.6903     1685.379      1930.41     78.10671     156.6495     313.0189      1.952     4.29     830.3795     55.18565     124.0497         9     1.061     0.709  70.76   0
       598    314.3386    110.5350 307.8098801  +6.6352623     3733.349     5827.309     7011.416     78.48013      156.525     313.1123      1.728     3.33     839.8655     55.18565     520.9924        29     1.492     1.033  86.51   0
       599     11.8462     93.7746 307.9361178  +6.6320093     731930.2      1578158      1732088     78.10671     156.6495     312.9567      2.187     5.81     847.9478     55.18565     61793.23       487     2.294     1.916  87.82  28
       600    714.2920    105.0296 307.6438935  +6.6509345     1067.517     1567.056     1558.744     78.60421     156.3381     312.9878      1.776     4.31     833.1862     55.18565     167.5004        10     1.177     0.612  89.79   0
       601    685.8317    104.1467 307.6557481  +6.6503473     1423.888     2165.241     2117.243     78.35586     156.6495     312.9878      1.658     3.51     833.4298     55.18565     233.7321        14     1.182     0.781  78.14   0
       602    699.6586    100.9360 307.6501109  +6.6521350     3351.446     4849.214     4342.482     78.60421      156.525     313.1123      1.534     3.31     833.1747     55.18565     465.6772        23     1.265     0.979  74.11   0
       603     71.5935     99.3619 307.9111071  +6.6317145     568.6223     762.3545     1054.839     77.60603     156.3381     312.8321      1.503     3.44     844.0948     55.18565     74.34839         5     1.060     0.322  68.46   0
       604    441.4203     91.8790 307.7577093  +6.6472267     4378.787     6347.227     6579.614     78.10671     156.2758     313.0812      1.525     3.24     834.3641     55.18565     610.4623        26     1.365     0.945  75.11   0
       605    913.7830     87.4194 307.5615958  +6.6648667     4268.408     6102.733     6383.586     78.23138     156.4005     312.9878      1.554     3.57     831.5086     55.18565     634.0909        24     1.350     0.936  72.41   0
       606    896.0436     88.2151 307.5689399  +6.6639463     2270.534     3392.337     3114.108     77.98184     156.4005     312.8321      1.527     3.63     831.7178     55.18565     381.7927        19     1.360     0.818  87.20   0
       607    593.8547     87.5324 307.6945214  +6.6541278     823.1827     1146.214     1042.151     78.48013      156.525     313.0189      1.457     3.25     833.4952     55.18565     148.3236         7     0.852     0.635 -75.56   0
       608    606.1088     85.7725 307.6894890  +6.6552645     1744.125     2377.491     2107.819     78.60421     156.3381     312.9567      1.428     3.46     833.4629     55.18565     272.5975        15     1.198     0.776  81.80   0
       609    251.9290     85.0971 307.8366664  +6.6436664     892.6251     1427.384     2203.913     78.35586     156.7117     313.1123      1.664     4.73      841.175     55.18565     146.2684         8     1.010     0.629  67.15   0
       610     95.2591     85.6272 307.9017389  +6.6381802     572.2286     811.3799     1209.209     78.10671     156.6495     312.9255      1.579     4.86     842.0412     55.18565     77.44458         6     0.953     0.703  18.83   0
       611    404.8171     83.7495 307.7731908  +6.6493549     2002.761     2914.066     2435.866     77.98184     156.6495     312.8632      1.544     3.44     835.6978     55.18565      291.657        18     1.252     0.879 -89.44   0
       612    152.6472     80.5310 307.8780685  +6.6422141     3294.678     4825.313     5182.543     78.48013      156.525     313.0812      1.622     3.41     840.7583     55.18565     430.2252        22     1.250     0.957  84.35   0
       613     34.5896     78.4708 307.9271860  +6.6390920     12954.34     19404.22     20299.42     77.98184     156.2134     312.9255      1.635     3.39      845.298     55.18565     1718.801        44     1.494     1.128  79.85   0
       614    300.9274     79.1673 307.8165088  +6.6477598     1475.841     2433.088     3435.901     78.35586     156.5873     313.0812      1.982     3.68     840.1125     55.18565     252.6667        15     1.294     0.697  85.93   0
       615    574.0688     78.0618 307.7030605  +6.6573747     710.4355     884.5367     795.9523     78.48013     156.5873     313.1123      1.356     4.77     833.1379     55.18565      116.583         8     1.133     0.577 -70.82   0
       616    992.2808     76.9584 307.5293295  +6.6718029     554.2163     927.8376     1452.405     78.48013     156.5873     313.0189      1.562     4.65     828.4727     55.18565     89.85083         6     1.368     0.449 -89.89   0
       617    955.5452     77.2968 307.5445822  +6.6704383     545.8738     849.9561     478.6985     78.35586     156.5873     313.2679      1.345     3.41     829.8933     55.18565      103.913         5     1.143     0.295  68.70   0
       618    769.2947     77.5533 307.6219618  +6.6641148     791.2054     1149.017     1983.979     78.35586      156.525     313.2057      1.791     3.28     831.9846     55.18565     116.0975         8     0.943     0.572  73.49   0
       619    561.4307     77.7911 307.7083206  +6.6570633     813.5729      1178.83     1417.829     77.98184     156.4005     312.8944      1.386     4.15     833.0914     55.18565     119.2858         7     1.037     0.474  81.10   0
       620    903.4618     74.3211 307.5663230  +6.6699291     728.1536     976.0621     1119.155     78.60421     156.6495     313.0812      1.557     4.72     831.2927     55.18565     102.1079         7     1.318     0.480 -83.64   0
       621    836.3570     73.0701 307.5942474  +6.6682056     6626.931     9515.491     9988.026     78.35586     156.5873     313.1434      1.505     3.24      831.632     55.18565     1025.324        29     1.414     0.918  75.46   0
       622    781.4012     73.4469 307.6170692  +6.6662144     3541.449      4951.39     5432.845     77.85677     156.2758     312.6451      1.503     3.27     831.6155     55.18565      528.588        21     1.301     0.850  88.34   0
       623    426.3140     73.7871 307.7645945  +6.6541881     1086.244     1593.368     1297.099     78.10671     156.4628     312.9567      1.545     3.40     834.8771     55.18565     152.5336        10     1.015     0.685 -87.97   0
       624    927.0278     72.8166 307.5565815  +6.6713365     556.0107     778.6489     892.8346     78.10671     156.3381     312.9878      1.417     3.46     830.8372     55.18565     91.82959         5     0.906     0.630 -29.04   0
       625    543.7222     71.4405 307.7158917  +6.6590916      1148.62     1604.567     1529.523     78.35586     156.5873     313.1123      1.478     3.24     832.7701     55.18565     163.7568        10     0.963     0.656  84.16   0
       626     74.8224     70.3010 307.9107470  +6.6438185     3223.943     4750.831     5162.214     78.35586     156.3381     312.8632      1.625     3.70     842.5638     55.18565     419.7201        22     1.347     0.904  69.55   0
       627    663.4048     70.8800 307.6661830  +6.6633291     577.3729     905.4711     685.7081     78.10671      156.151     312.8321      1.574     4.14     832.8553     55.18565     81.70966         6     0.745     0.656  34.78   0
       628     59.3084     70.9917 307.9171691  +6.6430113      1042.29     1439.625     1294.068     78.10671     156.2758     312.8632      1.432     2.99     843.4943     55.18565     157.1563        10     0.869     0.784 -75.00   0
       629    436.2490     69.5849 307.7606080  +6.6562558     962.1119     1152.985     1304.815     77.85677      156.525     312.8009      1.408     3.45     834.5374     55.18565     170.1323         8     1.077     0.487  67.02   0
       630     17.0945     65.6843 307.9348865  +6.6437807     2728.866     4137.647      4615.48     78.35586     156.9603     313.2057      1.588     3.37     845.4244     55.18565     420.7905        23     1.447     0.947  75.12   0
       631    598.7611     66.8300 307.6931783  +6.6628377     1288.807      1931.16     1599.738     78.10671     156.3381     312.9567      1.534     3.25     832.9233     55.18565     230.9792        12     1.159     0.711  68.27   0
       632    416.4904     61.1097 307.7691027  +6.6590916     1119.875     1766.142     1685.726     78.48013     157.0844     313.1746      1.721     4.94     835.5319     55.18565     151.2453        14     1.380     0.846 -85.35   0
       633     89.5968     61.5685 307.9049037  +6.6479202     736.9662     1118.816     767.4075     77.85677     156.4005     312.8632      1.487     4.77     841.4359     55.18565     116.0716         8     1.409     0.458  82.46   0
       634    775.9948     60.7784 307.6197405  +6.6712631     2019.617     2990.625     3072.129     78.10671     156.3381     312.8944      1.513     3.49     831.2927     55.18565     330.9382        17     1.275     0.819  77.74   0
       635    725.5483     62.8242 307.6406326  +6.6687326     528.1097     552.8705     127.5801     77.98184     156.5873     312.9878      1.129     3.57     832.3829     55.18565     80.23773         5     0.993     0.371  -5.40   0
       636    113.6316     59.4590 307.8949893  +6.6495996     764.3149     981.6318     778.1126     78.23138     156.6495     313.0501      1.184     3.80     840.8179     55.18565     141.0819         6     0.986     0.432  54.14   0
       637    102.5896     54.6158 307.8997403  +6.6512273     9950.713     14987.95     15425.51     78.23138     156.3381     312.9567      1.629     3.44     840.7927     55.18565     1256.562        40     1.462     1.101  81.71   0
       638    431.6773     54.3843 307.7630190  +6.6623770      2699.86     4017.181     4099.294     78.10671     156.2758     312.9567      1.603     4.03     834.8138     55.18565     331.6516        22     1.384     0.964  82.36   0
       639    253.1718     53.7331 307.8372072  +6.6566544     647.5522     1001.681      1733.55     78.23138      156.525     313.0501      1.461     2.46     840.7087     55.18565     134.9967         5     0.860     0.349  47.76   0
       640    645.4318     46.6657 307.6744638  +6.6727231     19465.48     27840.67     29097.51     78.35586     156.6495     313.0189      1.543     3.29     832.4088     55.18565     2687.112        46     1.473     1.035  77.72   0
       641    269.3133     48.7739 307.8306679  +6.6592436     1557.138     2441.627     3648.684     78.60421     156.4005     312.9878      1.710     3.69     840.5346     55.18565     235.3772        16     1.233     0.825  81.82   0
       642    545.2892     42.7972 307.7162034  +6.6709675     5415.587     7984.355     7726.106     77.85677     156.2758     312.8009      1.553     3.40     831.7111     55.18565     827.0123        31     1.382     1.049  78.75   0
       643    263.3776     42.8392 307.8333342  +6.6614939     2084.078     3148.713     4090.903     78.10671     156.3381     312.8944      1.628     3.55     840.5107     55.18565     286.2533        19     1.263     0.919  89.63   0
       644     12.6475     40.7945 307.9375750  +6.6539045     1194.133     1773.091     1833.273     77.85677     156.4005     312.7698      1.583     3.96     843.6295     55.18565      187.733        13     1.278     0.708  79.03   0
       645    631.7485     37.2128 307.6804668  +6.6761672     3118.074     5422.405     6205.764     77.85677      156.525     312.8321      1.975     5.39     832.1969     55.18565     470.8916        29     1.960     0.850  75.82   0
       646    450.7552     38.3529 307.7556317  +6.6696341     23863.79     35000.54     36389.09     78.48013      156.525     313.0501      1.576     3.27     833.6127     55.18565     3346.533        49     1.466     1.118  78.51   0
       647    271.3214     38.6476 307.8301749  +6.6634909     9714.013     14639.08     15782.02     78.48013     156.6495     313.0189      1.635     3.39       840.45     55.18565     1336.222        39     1.444     1.116  88.18   0
       648    928.7603     38.3379 307.5570161  +6.6856267     2081.266     2896.189      2968.23     78.48013     156.5873     313.1434      1.505     3.78     829.4239     55.18565     296.8143        18     1.376     0.781  80.76   0
       649     36.6525     38.3542 307.9276842  +6.6557201     2483.417     3363.625     3207.863     78.48013      156.525     313.1434      1.485     3.42     842.4927     55.18565     311.3447        17     1.166     0.868  74.10   0
       650    331.2693     38.8358 307.8052610  +6.6654262     1083.364     1473.906     2368.761     78.35586     156.6495     313.1746      1.957     5.09     839.5196     55.18565     156.2656        12     0.998     0.937  55.78   0
       651    535.6219     37.7990 307.7203882  +6.6727068     522.9502     732.7621      743.144     78.10671     156.2758     312.8009      1.360     3.40     831.5228     55.18565     83.68884         5     0.748     0.448  71.95   0
       652    259.3391     35.3704 307.8352638  +6.6644411     3080.377     4855.419      5769.05     78.23138     156.5873     313.0501      1.710     3.36     840.4308     55.18565     481.6162        25     1.369     1.019  72.82   0
       653    312.4228     33.3882 307.8132750  +6.6670421     1175.343     1518.012     1556.311     78.10671     156.4005     312.9878      1.461     4.14     839.9327     55.18565     163.1039        12     1.230     0.683  83.25   0
       654    949.3574     28.5257 307.5487861  +6.6903641     1005.952     1253.553     1282.763     78.35586     156.6495     313.1123      1.509     4.01     828.0981     55.18565     160.1415        10     1.234     0.571  80.41   0
       655    700.4990     27.8665 307.6522140  +6.6823250     1829.526     2716.607     2528.069     78.48013     156.7117     313.0812      1.473     4.02     832.0041     55.18565     251.8179        15     1.343     0.711  73.41   0
       656    105.6076     28.0486 307.8993834  +6.6622948     557.3196     686.5294     395.9038     77.98184     156.4005     312.7074      1.383     3.89     839.9225     55.18565     95.04315         5     0.896     0.484  85.08   0
       657    266.2288     23.0927 307.8328151  +6.6697405     916.6566     1497.001     2027.644     78.60421     156.3381     312.9878      2.021     4.97     840.3151     55.18565     115.4974        11     1.218     0.656  82.96   0
       658    211.7162     23.1751 307.8554617  +6.6678747     888.1373     1027.979     498.1395     78.35586     156.3381     313.0189      1.309     3.82     840.1139     55.18565     124.0816         8     0.975     0.625 -78.03   0
       659    966.9069   1017.1556 307.5084268  +6.2828443     6005.621     10917.36     11521.72     78.48013      156.525       311.02      1.952     4.10     858.8353     55.18565     662.0914        45     1.676     1.328  76.53  16
       660      2.0902     20.8744 307.9426344  +6.6617711     1095.062     1267.238     939.3351     76.46748     135.2848     247.6649      1.387     3.81     842.3348     55.18565     160.7748        10     1.091     0.666  85.23  24
       661    251.3342   1017.2437 307.8055154  +6.2588747     1457.424     1990.801     1830.083     78.48013      156.525     310.4241      1.498     4.86     864.4128     55.18565     220.3352        17     1.474     0.830  86.64  16
       662    721.1595   1017.2983 307.6104544  +6.2745850     870.7189     1704.809     2671.911     78.48013     156.4628     310.2985      3.104     6.15     864.6105     55.18565     98.13904        12     1.273     0.836  37.63  19
       663    726.5546   1015.1613 307.6082860  +6.2756474     2762.544     4450.253      5515.88     78.23138     156.5873     312.9878      1.799     3.58     864.4734     55.18565      336.275        21     1.190     1.087 -62.92   2
       664    449.4720   1015.9468 307.7232989  +6.2660538     907.0034     1070.384     869.5555     78.35586      156.525     313.0501      1.464     3.29     865.5435     55.18565     127.8769         8     0.815     0.682  -8.58   0
       665    742.1025   1014.0900 307.6018666  +6.2766089     1087.193     1609.469     1405.612     78.48013     157.0223     313.0812      1.540     3.66     864.0964     55.18565     148.3329        12     1.094     0.725  86.01   0
       666    373.1937   1012.6238 307.7550791  +6.2648693     1961.108     2982.776     3443.906     77.98184     156.4005     312.9567      1.662     3.58     864.9485     55.18565     264.6551        19     1.234     0.954  69.38   0
       667    983.7111   1010.6612 307.5016667  +6.2860852     682.6248     1155.851     1313.241     78.48013     156.7117     313.1434      1.794     5.41     857.7973     55.18565      84.8194         8     1.202     0.688  45.41   0
       668    623.9804   1007.3713 307.6511345  +6.2754345     367.1986     671.3253     618.5741     78.10671     156.4005     313.0189      1.236     3.95     865.6613     55.18565     106.0745         5     1.026     0.436  67.63   0
       669    760.1073   1002.3351 307.5947849  +6.2820627     7988.421     12450.15     13309.25     78.48013     156.7739     313.1123      1.685     3.49     863.0861     55.18565     1059.154        38     1.472     1.165  67.97   0
       670    555.4493   1002.6982 307.6797443  +6.2750709     4314.922     6671.997      7319.12     78.48013      156.525     313.2679      1.720     3.47     865.9896     55.18565     522.8146        32     1.507     1.097  77.01   3
       671    552.7394    995.0392 307.6811264  +6.2781418     8588.401     12630.55     13333.47     78.48013     156.5873     313.1434      1.554     3.23     865.7807     55.18565     1122.785        35     1.380     1.083  82.78   3
       672    525.8336   1004.0229 307.6919958  +6.2735329      1224.98     1872.803     1719.864     77.98184     156.4005     312.8944      1.597     3.83      866.022     55.18565     166.3043        13     1.157     0.777 -80.54   0
       673    430.0547   1002.2532 307.7318205  +6.2710558      1059.78     1595.621     1024.985      78.7281      156.525     313.0501      1.397     4.54     865.0673     55.18565     147.5795        12     1.217     0.684  86.61   0
       674    305.8818   1001.4335 307.7834012  +6.2672312     15117.41     23172.66      25731.1     78.35586      156.525     313.0812      1.724     3.50     864.4559     55.18565     1890.461        64     1.729     1.377 -52.56   0
       675      2.0810   1003.1899 307.9094672  +6.2563000     738.2714     1038.732     1160.336     75.82758     134.9963     247.3105      1.558     5.11     860.3859     55.18565      90.1488         9     1.025     0.720  76.72  24
       676    821.0825   1001.8859 307.5694833  +6.2842840     1095.594     1651.122     1766.273     78.23138     156.7739     313.1746      1.621     4.16     861.4579     55.18565     153.7129        12     1.180     0.800 -66.27   0
       677    276.6509    998.7509 307.7956272  +6.2673578     950.4956     1618.002     1663.088     78.48013     156.4628     313.0189      1.810     5.57     864.2167     55.18565     152.5827        12     1.458     0.822  70.93   0
       678    921.3732    995.7605 307.5280476  +6.2901583     8048.357     13673.14      14970.9     78.10671     156.4005     312.9255      1.863     3.72      860.533     55.18565     962.1854        47     1.618     1.314  74.49   0
