#   1 NUMBER                 Running object number                                     
#   2 X_IMAGE                Object position along x                                    [pixel]
#   3 Y_IMAGE                Object position along y                                    [pixel]
#   4 ALPHA_J2000            Right ascension of barycenter (J2000)                      [deg]
#   5 DELTA_J2000            Declination of barycenter (J2000)                          [deg]
#   6 FLUX_APER              Flux vector within fixed circular aperture(s)              [count]
#   9 FLUXERR_APER           RMS error vector for aperture flux(es)                     [count]
#  12 FLUX_RADIUS            Fraction-of-light radii                                    [pixel]
#  13 FWHM_IMAGE             FWHM assuming a gaussian core                              [pixel]
#  14 BACKGROUND             Background at centroid position                            [count]
#  15 THRESHOLD              Detection threshold above background                       [count]
#  16 FLUX_MAX               Peak flux above background                                 [count]
#  17 ISOAREA_IMAGE          Isophotal area above Analysis threshold                    [pixel**2]
#  18 A_IMAGE                Profile RMS along major axis                               [pixel]
#  19 B_IMAGE                Profile RMS along minor axis                               [pixel]
#  20 THETA_IMAGE            Position angle (CCW/x)                                     [deg]
#  21 FLAGS                  Extraction flags                                          
         1    656.8674     23.0865 307.6690130  +6.6945040     11603.36     16871.83     17947.45     80.15458     159.9294     319.2881      1.553     4.03     866.9604     56.27412     1727.815        33     1.452     0.934  69.18   0
         2    418.3811     18.5473 307.7682809  +6.6883886     8650.026     12478.47     12818.72     79.51994     159.7392     319.0658      1.595     3.88     872.9308     56.27412     1167.995        32     1.507     0.927  74.84   0
         3    257.2709     19.7539 307.8351957  +6.6824821     6462.378     10652.36     12611.99     80.02805     159.6758     319.2563      1.902     4.33     882.9978     56.27412     889.1469        44     1.627     1.491 -30.47   0
         4    648.4758     18.4913 307.6726553  +6.6961203     9823.448     14098.37     15445.16     80.02805     159.9294     319.2563      1.589     3.92     866.8051     56.27412     1363.959        33     1.472     0.924  66.25   0
         5    678.1579     17.6438 307.6603478  +6.6974632     8282.775        12497     13482.49      79.7744     159.6758     319.0976      1.608     4.08     866.6104     56.27412     1186.166        28     1.503     0.918  67.42   3
         6    681.7241     15.1241 307.6589505  +6.6986227     14127.52     20885.79     21964.36     80.28091     159.9294     319.3515      1.573     4.02      866.359     56.27412     2076.414        36     1.504     0.940  68.48   3
         7    733.8631     17.2531 307.6372093  +6.6994874     1963.423     3026.412     3319.062     80.02805     159.6123     319.2246      1.631     3.43     864.5394     56.27412     333.8952        17     1.290     0.787  75.98   0
         8    160.0833     17.2091 307.8756710  +6.6802657     688.2709     1031.983     946.0239     79.64726     159.3581     319.0976      1.655     5.34     882.8398     56.27412     117.2495         9     1.412     0.571  69.24   0
         9    657.9091     14.4346 307.6688714  +6.6981107     3391.305     4987.742     5926.892     80.15458     159.5488     319.2563      1.669     4.05     866.6705     56.27412     484.6287        22     1.373     0.851  71.43   0
        10    197.1380     14.5647 307.8603613  +6.6826034     1048.656     1900.481     2069.949     80.02805     159.6758     319.2246      1.959     5.14     882.7596     56.27412     143.5145        14     1.239     1.113 -31.93   0
        11     64.7195     11.4954 307.9154952  +6.6794156     3569.259     5003.871     4431.915      79.7744     159.9294     319.3515      1.524     3.88     885.5121     56.27412     500.0054        21     1.393     0.817  72.18   0
        12    947.1227     11.2999 307.5487752  +6.7090668     919.3423     1225.398     1092.393      79.7744     159.8026     319.2881      1.485     4.13     860.8018     56.27412     125.7217         9     1.069     0.577  62.95   0
        13    155.4338      8.9654 307.8778822  +6.6835125     5378.231     8152.752     8602.552      79.7744     159.4217     319.0023      1.623     4.33     882.7888     56.27412     739.4976        32     1.532     0.958  74.32  16
        14    782.7184      7.3391 307.6172379  +6.7052132     1306.872     2029.513     1942.213     80.15458     159.6758     314.0076      1.631     4.95     864.1337     56.27412     177.2147        16     1.389     0.851  73.40  16
        15     86.5345      7.7656 307.9065558  +6.6816897     576.6156     885.7324     947.3438     79.90133     159.6758     316.5788      1.522     3.49     884.7979     56.27412      101.627         5     0.760     0.463  71.94   0
        16    889.6451      5.3511 307.5728639  +6.7096049     2009.124     2909.455     2881.872     80.02805     159.5488     296.1366      1.522     3.78     862.6036     56.27412     313.6479        17     1.379     0.707  60.99  16
        17    635.7376      4.6547 307.6784154  +6.7014063     1272.605     1887.048     1629.799     80.15458     159.6123     288.3344      1.533     3.89     866.3932     56.27412     219.6028        11     1.188     0.597  73.35  16
        18    226.6966      4.7773 307.8484082  +6.6876374     1001.276     1551.914     1756.356     80.02805     159.4217     289.4569      1.636     4.43     882.5217     56.27412     167.9633        10     1.238     0.553  78.38  16
        19    974.9709      2.5272 307.5374953  +6.7136173     966.4225     1366.277     1618.523     79.90132     143.4979     259.2032      1.511     4.88     857.7546     56.27412     166.0167         9     1.343     0.503  72.32  24
        20    841.9081      3.0451 307.5927819  +6.7089632      872.198     1327.175     1154.175     80.02805     149.4478     267.0976      1.757     5.04     863.1925     56.27412     143.1028         9     1.242     0.579  63.70  24
        21    741.9303      2.6663 307.6343472  +6.7057791     1580.326     2094.799     2370.352     80.02805     145.2527     261.4222      1.448     3.98     863.6478     56.27412     243.3449        12     1.162     0.665  73.28  24
        22    788.7053    982.2982 307.5819919  +6.3028994     1334.282     2019.451     2730.644     80.02805     160.2459     319.0976      1.798     4.51      896.315     56.27412     169.9381        15     1.327     0.774  74.86   0
        23   1010.9662   1019.3762 307.4884462  +6.2950053     4494.536     7820.874      8421.76     79.51994     159.4853     298.8956      1.880     4.53     890.1511     56.27412     538.2765        37     1.720     1.151  73.95  24
        24    915.4266   1022.7537 307.5280090  +6.2904261     7623.471     9794.346     9869.499     78.75161     140.1395      254.946      1.428     3.50     897.0593     56.27412     930.6708        25     1.246     0.967  33.39  24
        25    889.1590   1019.7551 307.5390180  +6.2907879     11622.62     19458.76      20760.1     79.90133     159.6758     294.9365      1.804     4.28       896.62     56.27412     1375.339        49     1.639     1.232  67.71  24
        26    546.7795   1022.4742 307.6811080  +6.2782246     8634.112     11289.63     11507.94     79.64727     143.2859     259.1642      1.465     4.14     901.8945     56.27412     1158.128        24     1.251     0.942  52.32  24
        27    649.7148    981.7015 307.6397329  +6.2985013     4702.009     7200.499     7176.583     80.02805     160.1194     319.3198      1.648     4.55     900.0962     56.27412     612.1592        28     1.516     0.926  73.34   0
        28    261.9709    981.8518 307.8007480  +6.2854490     4505.405     7061.174      7510.17      79.7744     159.8026     319.1611      1.649     4.42     903.3873     56.27412     615.6839        27     1.477     0.977  74.75   0
        29    998.8674    980.7323 307.4947653  +6.3105566     639.5211     1195.756     1868.384     80.02805     159.7392     319.2881      1.942     3.73     890.9437     56.27412     106.9349         6     0.759     0.625 -79.49   0
        30    471.9496    979.8291 307.7136184  +6.2933249     1246.748     1921.957     1826.365     79.64727     159.8026     319.1611      1.508     4.77     902.5489     56.27412     176.4686        13     1.275     0.701  60.17   0
        31     30.6272    979.0127 307.8969108  +6.2788471     2167.613     3278.207     3487.129     79.64726     159.4853     319.1928      1.572     3.66     903.4346     56.27412     303.0791        17     1.285     0.808  65.41   0
        32    881.2966    977.8202 307.5436897  +6.3078387     844.0847     1473.384     1542.379     79.90133     159.4853     319.0658      1.858     5.46     895.3235     56.27412     125.3777         9     1.052     0.799   0.35   0
        33    297.7782    975.0877 307.7861067  +6.2894432     945.5242     1517.365     1704.297     80.02805     159.4853     319.1293      1.658     5.89     903.4938     56.27412     164.3037        12     1.342     0.728  76.26   0
        34    953.0071    975.2962 307.5139932  +6.3112723     872.9101     1355.427     1329.562      79.7744     159.2945     319.0341      1.517     3.30     893.4178     56.27412     151.3273        11     1.094     0.797  84.87   0
        35    574.2960    973.9603 307.6713135  +6.2991744     1685.411      2601.31      2328.98     80.02805     159.5488     319.3833      1.607     4.64     901.1413     56.27412     232.9078        15     1.397     0.715  80.48   0
        36   1005.7756    972.5806 307.4921694  +6.3141522     766.9247     1448.196     1836.039      79.7744     159.4853     319.1928      2.351     6.43     890.5262     56.27412     109.4987        10     1.359     0.855  87.93   0
        37    613.6586    970.5684 307.6550809  +6.3018917     1352.731     2000.174     1950.013      79.7744     159.6758     319.1928      1.643     4.78     900.2898     56.27412      194.253        14     1.158     0.814  69.65   0
        38     63.6226    970.9360 307.8834826  +6.2832912     807.9648     1172.426     1325.585     79.64726     159.6758     319.1293      1.476     5.05     903.1321     56.27412     144.9355         8     1.141     0.632 -82.32   0
        39    293.4624    968.0030 307.7881379  +6.2922232     1560.241     2314.225     2024.513      79.3924     159.4217     319.0023      1.535     5.46     903.5878     56.27412      234.879        12     1.245     0.674  78.00   0
        40    561.2304    966.3496 307.6769955  +6.3018793     565.9546       1095.3     1161.458     79.64727     159.8026     319.1611      1.791     5.47      901.425     56.27412     107.4394         7     1.408     0.599  71.77   0
        41    760.3581    964.3515 307.5943669  +6.3093621     958.1055     1358.731     1199.879     80.02805     159.6123     319.1928      1.641     4.34     897.1078     56.27412     173.4253        11     1.191     0.686  66.17   0
        42    897.9246    960.8853 307.5373521  +6.3153851     7072.754      10874.2     10581.68     80.15458     159.9928     319.3198      1.629     4.01     894.5375     56.27412     927.4771        29     1.517     0.956  72.47   0
        43    135.8179    961.7274 307.8538142  +6.2895200     603.5972     849.2127     519.4252     79.51994     159.6123     319.1928      1.328     3.70      903.163     56.27412      100.835         5     0.897     0.440  47.32   0
        44    433.8828    958.0663 307.7301598  +6.3010342     2183.914     3391.194     3559.096     80.28091     159.9294     319.3198      1.569     4.45     902.9091     56.27412     276.8079        20     1.535     0.785  64.60   0
        45    335.5612    956.3437 307.7710487  +6.2984491     10037.68     15137.96     15967.27     80.02805     159.7392     319.2246      1.662     4.18     903.4273     56.27412     1355.712        37     1.527     1.011  77.93   0
        46    602.1686    957.6329 307.6602876  +6.3068478     513.9591     799.8443     863.4832     79.51994     159.4217     319.0023      1.310     3.61     900.4894     56.27412     91.01343         5     1.192     0.314  79.79   0
        47    255.5626    955.3845 307.8043024  +6.2961606      7339.95     10977.61     11582.54      79.7744     159.4853     319.0023      1.652     4.21      903.629     56.27412     1002.755        32     1.491     0.985  68.65   0
        48    583.6562    949.9027 307.6682357  +6.3094198     1102.702     1767.874     2019.876     79.90133     159.6758     319.4785      1.716     5.57     900.8842     56.27412     175.1309        13     1.396     0.703  69.17   0
        49    768.0364    949.2032 307.5916868  +6.3158726     771.5224     1236.264     1173.241      79.1367     159.4853     319.0341      1.683     5.07      896.515     56.27412     99.85773        10     0.928     0.785 -88.23   0
        50    913.6664    946.1940 307.5313071  +6.3219756     1020.075     1795.563     1576.935     79.51994     159.4217     319.0658      1.906     5.97     893.5811     56.27412     131.6844        12     1.378     0.729 -88.79   0
        51    870.0454    945.1744 307.5494574  +6.3209413     942.8647     1709.587     1808.728     79.51994     159.7392     319.1293      2.091     5.94     894.6586     56.27412     139.8495        15     1.342     0.954  76.00   0
        52    217.9837    945.7717 307.8202324  +6.2988675     585.9094     1037.518     893.9871     79.64727     159.4217     319.1611      1.521     3.89     903.5329     56.27412     101.0389         5     1.273     0.340  65.44   0
        53    412.0298    944.4852 307.7396926  +6.3059088     687.3613     1224.605     934.1439     80.02805     159.4853     319.1293      1.500     3.58     903.0513     56.27412      136.993         6     1.122     0.330  51.64   0
        54    981.4365    941.9578 307.5033036  +6.3259840     724.6978     1303.694     1280.259      79.7744     159.6758     319.1293      1.718     4.49     891.3079     56.27412     132.7551         8     1.167     0.492  86.52   1
        55    573.7448    939.3528 307.6727068  +6.3134437     783.7665     1037.261     933.3475     80.02805     159.6758     319.3198      1.556     5.30     901.0881     56.27412     150.7244         8     1.338     0.594 -82.62   0
        56    750.0748    938.9778 307.5994897  +6.3194942     1770.803      2446.93     3033.701     79.64727     159.5488     319.1928      1.504     4.07     896.5714     56.27412     247.4006        15     1.281     0.738  64.84   0
        57    981.5114    934.8428 307.5035109  +6.3289240     1263.466     2155.634     2599.882     80.02805     159.5488     319.2881      1.948     6.27     891.1564     56.27412     154.7649        19     1.614     0.823  65.39   0
        58    625.8415    936.4257 307.6511697  +6.3163951     607.2984      1009.88     946.4554     79.64727     159.6123     319.0341      1.560     3.47     900.0364     56.27412     114.9139         5     0.975     0.357  85.28   0
        59      1.4463    936.1461 307.9104786  +6.2955620     730.7771      880.779     957.4329     71.18176      128.837     242.2691      1.270     3.67     901.4608     56.27412     141.8282         9     1.087     0.620  83.52  24
        60    614.2353    935.4268 307.6560233  +6.3164193     882.4944     1384.516     1226.833     79.51994     159.3581     319.0341      1.885     5.11     900.2442     56.27412     170.8886         9     1.259     0.587  71.39   0
        61    535.0995    934.9427 307.6889044  +6.3139709     1338.967      1886.84     2189.638      79.7744     159.6758     319.4785      1.453     4.28     901.8106     56.27412     204.2413        12     1.268     0.621  72.62   0
        62    668.6362    932.3574 307.6335338  +6.3195058     2658.568     3915.069      4164.19      79.7744     159.6758     319.1293      1.607     3.90     899.2267     56.27412     374.1963        21     1.376     0.911  78.89   0
        63    959.0231    930.1224 307.5130088  +6.3301232     698.8966     1308.661      1827.43     79.64727     159.4853     319.1928      2.269     5.83     891.6336     56.27412      90.7663         9     1.403     0.682  67.79   0
        64    566.2544    929.1032 307.6761624  +6.3174245     544.9774      944.486     722.6587     79.90133     159.6758     319.4785      1.593     4.32     901.2421     56.27412     82.79443         7     1.245     0.428  85.94   0
        65    208.7864    927.4415 307.8246708  +6.3061260      2297.59     3492.356     3549.162      79.3924     159.4853     319.0023      1.607     4.63     903.5817     56.27412     311.3782        18     1.493     0.749  77.33   0
        66     65.1893    928.4229 307.8842696  +6.3008948     2965.723     4561.764     4913.438     79.64727     159.4853     319.1293      1.679     4.21     902.2914     56.27412      400.894        24     1.467     0.919  81.57   0
        67    946.9136    927.9694 307.5181102  +6.3306084     835.5541     1315.791     819.4273     80.15458     159.4217     319.1611      1.646     4.98     891.8553     56.27412     109.2603         9     1.169     0.601  76.52   0
        68    829.5792    928.4467 307.5668246  +6.3264970     752.4787     1213.081      1669.32     79.64727     159.6758     319.0976      2.053     5.32     895.1509     56.27412     97.32678         9     1.268     0.630  75.18   0
        69     82.5966    927.7069 307.8770651  +6.3017758     2200.528     3295.306     3683.642     79.64727     159.3581     318.9705      1.703     4.74     902.6215     56.27412     299.1388        20     1.442     0.923  66.19   0
        70    965.7521    925.5254 307.5103682  +6.3322455     577.2402     817.9634     1488.114     79.90133     159.7392     319.2563      1.557     4.42     891.3171     56.27412      92.2218         5     1.160     0.480 -58.78   0
        71    242.5597    923.7324 307.8107706  +6.3087914     928.1218     1473.301     1218.308     79.90133     159.6123     319.3198      1.896     4.77     903.8214     56.27412     153.8729         9     1.346     0.479  63.99   0
        72    801.0297    922.7252 307.5788736  +6.3279060     761.7952      1272.71     925.5928     79.90133     159.6758     319.2563      1.662     5.35     895.6271     56.27412     104.1686         9     1.328     0.608  79.05   0
        73    663.2500    921.5295 307.6361347  +6.3237960     7419.208     10916.24      11286.1     80.02805     159.6123     319.2881      1.617     4.14     899.0086     56.27412      1011.54        28     1.473     0.888  73.29   0
        74    347.6370    923.3074 307.7671480  +6.3124929     1018.158     1536.459     2072.876     80.15458     159.5488     319.3198      1.836     4.74     903.3417     56.27412     169.8812        11     1.223     0.625  75.45   0
        75    900.9990    917.6824 307.5375242  +6.3333243     2874.434     4511.756      4405.22     79.26465     159.2309     318.9705      1.635     4.19     892.9439     56.27412     375.1121        24     1.506     0.938  67.42   0
        76     36.3013    918.4404 307.8966035  +6.3040443     1201.399     1996.849     1831.372     80.02805     159.5488     319.4785      1.616     4.85     901.7026     56.27412     176.8466        13     1.438     0.611  80.34   0
        77     23.2474    919.4452 307.9019904  +6.3031902     1279.789     1889.504     1783.843     80.02805     159.5488     319.2881      1.460     3.90     901.4866     56.27412     201.3798        11     1.160     0.655  63.91   0
        78    775.6318    917.8064 307.5895867  +6.3290886     519.1913      565.191     345.1418      79.3924     159.4853     319.0341      1.181     4.68     895.7906     56.27412     88.78534         6     0.942     0.659 -66.88   0
        79     80.6324    915.8530 307.8782816  +6.3066034     1390.844     2253.482     2531.269     79.90133     159.6758     319.1611      1.774     5.51      902.439     56.27412     189.0807        18     1.413     0.935  79.17   0
        80    346.2613    914.6371 307.7680117  +6.3160262     17242.13     25488.34     26573.53     80.02805     159.7392     319.2563      1.613     4.44     903.3305     56.27412     2332.738        43     1.527     1.011  72.24   0
        81    216.9431    914.0515 307.8217356  +6.3119279     1334.973       1770.5     1386.094     80.02805     159.6758     319.2563      1.469     4.16     903.7007     56.27412     209.6855        14     1.301     0.771  72.04   0
        82    109.5319    905.1848 307.8666410  +6.3119794      1768.38     2953.848     3350.102     79.51994     159.5488     319.1611      1.749     4.41     902.6588     56.27412     268.4664        17     1.413     0.790  75.12   0
        83    423.8988    905.1705 307.7360884  +6.3225375     1019.549     1468.836     732.1887     80.02805     159.4217     319.2881      1.467     4.56     902.7523     56.27412     165.8419         9     1.163     0.540  64.35   0
        84    677.6956    901.2086 307.6308184  +6.3326685     862.2443     1168.911     2175.999      79.7744     159.2945     319.0658      1.405     5.01     897.7549     56.27412     129.9244         9     1.143     0.620  66.28   0
        85    891.2928    899.5089 307.5421649  +6.3405035     1925.184     2925.302     3040.251     80.02805     160.1827     319.2563      1.684     4.53     892.7333     56.27412     231.6691        17     1.443     0.746  70.68   0
        86    825.4387    898.4758 307.5695501  +6.3387324     3240.147      4570.63     4817.599     79.90133     159.7392     319.2881      1.607     3.97     894.4009     56.27412     448.8165        21     1.455     0.847  73.52   0
        87    504.3473    901.1661 307.7028129  +6.3268858     472.5354     609.6893     306.7187     79.90133     159.6758     319.1928      1.084     2.14     901.8051     56.27412     119.8407         5     0.708     0.440  70.81   0
        88    862.0501    898.9862 307.5543275  +6.3397436     1992.765     3090.008     2782.545      79.3924     159.6123     318.9705      1.578     5.09     893.5313     56.27412     267.1553        17     1.385     0.787  68.36   0
        89     92.9245    898.6388 307.8737590  +6.3141234     2646.194     3856.426     4061.276     79.90133     159.6758     319.3198      1.556     4.40     902.4028     56.27412     343.6354        17     1.346     0.773  71.97   0
        90    561.3198    889.8682 307.6795321  +6.3334576     348721.9     519726.5     540468.9     80.15458     159.9294     319.2246      1.597     4.96     900.3187     56.27412     49846.18       153     1.684     1.147  72.90   4
        91    341.0797    896.3096 307.7707817  +6.3234188     710.2513     956.8412     1127.923      79.7744      159.866     319.3198      1.603     4.44     903.3229     56.27412     130.3997         5     1.130     0.497  55.74   0
        92    456.1097    895.9344 307.7230223  +6.3274300     586.6318     784.3936     773.0217     79.90133      159.866     319.2563      1.293     3.88     902.4439     56.27412     92.87659         6     0.935     0.462  52.97   0
        93    649.0071    892.7803 307.6430165  +6.3351889     1273.906     1901.388     2097.542     79.64727     159.4217     319.0658      1.613     6.41     898.1912     56.27412     154.8693        14     1.491     0.775  71.66   0
        94    405.5472    892.4612 307.7441381  +6.3271693     8275.339     11962.08     11933.89     80.02805     159.6123     319.2246      1.607     4.27     902.7905     56.27412     1136.669        29     1.488     0.917  73.79   0
        95    348.7723    890.7874 307.7677732  +6.3259567     12922.12     19514.03     19948.72     79.51994     159.4853     319.1611      1.613     4.25      903.173     56.27412     1796.382        36     1.526     0.947  73.66   0
        96    304.6535    891.2432 307.7860802  +6.3242884     2469.397     2557.909     2447.274     80.02805     159.6758     319.2563      0.938     3.48     903.8893     56.27412     1274.915         8     1.138     0.307  15.86   0
        97    667.1860    887.0823 307.6356581  +6.3381492     3746.569     5715.295      6170.84     79.64726     159.4217     319.0658      1.603     4.68     897.4588     56.27412     543.5454        22     1.417     0.816  72.05   0
        98    899.7013    886.0995 307.5391224  +6.3463201     5255.098     8051.579      9249.15     80.02805     160.0561     319.0976      1.656     4.05     892.0782     56.27412     689.8484        25     1.460     0.910  67.59   0
        99    738.9905    883.7010 307.6059500  +6.3419451      838.816     1100.698     1269.063      79.7744     159.2945     319.0658      1.493     4.24     895.9083     56.27412     166.6713        10     1.304     0.563  67.94   0
       100    641.9373    881.1833 307.6463427  +6.3397403     3497.252     5357.059      6059.62     79.51994     159.6123     319.0976      1.621     4.21     897.9378     56.27412     485.9374        23     1.349     0.970  68.76   0
       101    830.4298    880.3167 307.5680867  +6.3463961     1713.117     2644.425     2911.259     80.02805     159.4853     319.1611      1.765     4.49     893.7559     56.27412      243.765        13     1.307     0.679  72.53   0
       102    632.4582    879.6536 307.6503310  +6.3400548     967.9775     1430.962      1713.21     80.15458     159.6758     319.2563      1.647     4.66     898.1954     56.27412     164.0734        13     1.318     0.751  80.04   3
       103    634.9570    875.6487 307.6494278  +6.3417919     2308.161     3678.268     4142.588     80.02805     159.6123     319.1928      1.700     4.46     897.9662     56.27412     316.0912        24     1.562     0.912  69.92   3
       104    184.8571    880.6321 307.8361892  +6.3246470      576.954      948.938     822.6957     79.90133     159.6758     319.1928      1.582     4.06     903.3497     56.27412     106.3745         6     1.036     0.454  65.03   0
       105    957.3710    879.2592 307.5153999  +6.3510675      779.329     1236.064     1158.355     79.64727     159.7392     319.1928      1.617     5.70     889.8761     56.27412     87.61218        12     1.244     0.736  68.85   0
       106    918.4240    873.9684 307.5317532  +6.3519531     3313.269     5351.298     5573.128      79.3924     159.5488     319.0658      1.674     4.67     891.2855     56.27412     449.3022        23     1.512     0.857  76.26   0
       107    328.8230    874.5686 307.7766052  +6.3319833     1179.741     1855.409     1744.361     79.51994     159.4853     319.0341      1.640     4.19     903.4583     56.27412     185.3945        11     1.190     0.731  67.56   0
       108    376.6998    869.7322 307.7568848  +6.3355857     2713.174     3897.891     4073.265     80.02805     159.8026     319.2246      1.503     4.21     902.8387     56.27412     396.5494        17     1.366     0.722  71.89   0
       109    798.7762    864.0458 307.5817795  +6.3520568     473.6499     733.7664     609.0685     79.64726     159.6758     319.1293      1.949     4.78     894.1632     56.27412     74.52771         5     0.935     0.692  63.56   0
       110    512.9388    859.5662 307.7006455  +6.3443480     3223.068     4718.884     4585.715      79.7744     159.7392     319.1928      1.537     4.22     900.8297     56.27412     453.5257        23     1.499     0.824  70.54   0
       111    857.5675    858.6198 307.5575438  +6.3562596     1095.645      1492.23     1795.205     79.51994     159.4853     319.0658      1.550     5.12     892.3959     56.27412     135.2886        14     1.223     0.851  70.33   0
       112    578.2797    857.1669 307.6735888  +6.3475259     853.8717     1191.648      1136.48     79.90133     159.6758     319.2563      1.480     5.02     898.8685     56.27412     138.9645         9     1.166     0.612  73.55   0
       113    559.7836    855.7004 307.6813200  +6.3475123     6519.351     9307.027     9578.175     80.02805     159.4217     319.0658      1.567     4.52     899.2762     56.27412     903.3861        28     1.458     0.883  73.20   0
       114    477.4524    854.7555 307.7155456  +6.3451456     1585.297     2227.597      2637.73     80.02805     159.6758     319.2563      1.561     5.79     901.5724     56.27412     255.2242        16     1.402     0.752  74.90   0
       115    566.5934    854.8948 307.6785188  +6.3480728     1496.545     2205.691     2463.537      79.7744     159.3581     319.0658      1.528     3.87     899.0555     56.27412     246.1387        16     1.282     0.812  65.57   0
       116    271.6280    855.8553 307.8009900  +6.3377897     813.2169     1195.967     856.5647     79.64727     159.7392     319.0976      1.525     4.56     903.9978     56.27412     109.6878         8     1.097     0.539  66.75   0
       117    895.5314    853.9048 307.5419342  +6.3594729     1347.597     1871.797      1860.19     79.90132     159.8026     319.2881      1.481     4.00     891.3178     56.27412     186.6526        16     1.270     0.837  75.09   0
       118    119.0973    853.7377 307.8644077  +6.3335401     1328.542     1925.609     2273.789      79.7744     159.8026     319.3198      1.574     5.71     902.1725     56.27412     164.8693        14     1.299     0.804  78.83   0
       119    695.2766    852.4560 307.6251554  +6.3533839     675.7933     875.7648     816.0731     80.02805     159.6758     319.2246      1.457     4.70      895.816     56.27412     103.1522         8     1.212     0.518  68.71   0
       120    530.4396    849.5751 307.6937134  +6.3490588     20856.26     30415.86     31142.44     79.64727     159.4853     319.0341      1.599     4.27     899.8085     56.27412     2717.776        42     1.531     0.967  71.91   0
       121    371.6122    851.2378 307.7596213  +6.3430505     831.0275      1416.23      1301.72     79.51994     159.4853     318.9705      1.672     5.07     902.6537     56.27412     136.3001        10     1.276     0.569  77.14   0
       122    177.2026    849.4303 307.8404221  +6.3372712     674.8799     1015.896      759.232     79.51994     159.4853     319.0658      1.708     5.27     902.9392     56.27412     93.39105         9     1.519     0.516  75.09   0
       123    944.0570    847.7711 307.5219853  +6.3636236      3783.85     5925.001     5819.808     79.64726     159.7392     319.1611      1.625     4.43     889.6191     56.27412     497.3591        25     1.508     0.869  68.32   0
       124     63.9641    845.6334 307.8875783  +6.3350320     687.7543     903.4603     977.0608     79.64726     159.4217     319.0023      1.571     4.30     901.5854     56.27412     111.5373         6     1.118     0.471  69.95   0
       125    169.9893    840.2036 307.8437296  +6.3408380     527.0686     698.7986     435.6984     79.64727     159.3581     319.1611      1.455     4.95     902.6828     56.27412     66.61108         5     1.184     0.587  78.91   0
       126     40.8300    840.0452 307.8973748  +6.3365608     1526.019     2567.797     2782.685     79.64727     159.7392     319.1293      1.740     4.81     901.4208     56.27412     213.5957        16     1.448     0.793  65.92   0
       127    323.0896    838.1649 307.7802144  +6.3468200     3548.781     5159.353     5110.798     80.15458     159.6123     319.2563      1.536     4.23     903.1734     56.27412      484.309        21     1.399     0.802  66.62   0
       128    788.6175    834.1487 307.5870027  +6.3640607        56954     84758.48     87918.51     79.51994     159.7392     319.0023      1.599     4.16     893.5559     56.27412     8378.796        66     1.582     1.040  71.67   0
       129     22.8977    836.3095 307.9049484  +6.3374997     2242.953      3411.79     3076.883     80.02805     160.1194     319.2563      1.597     4.50     901.3156     56.27412     306.0823        16     1.368     0.730  74.49   0
       130    245.8053    831.9761 307.8125204  +6.3467811     5414.824     8683.194     10522.92     79.51994     159.4217     319.0976      1.764     4.45     903.4952     56.27412     709.4325        31     1.622     0.909  71.76   0
       131    913.7897    829.3735 307.5351736  +6.3702098     8920.732     13600.72     14688.92     79.64727     159.4853     319.1293      1.655     4.13     890.2121     56.27412     1153.944        32     1.512     0.957  71.43   0
       132    716.8724    828.7213 307.6169836  +6.3639046     22405.79     33473.95     36089.65     80.28091     159.9294     319.2246      1.638     4.42     894.9532     56.27412     2884.874        45     1.620     0.986  68.91   3
       133    710.5438    825.2394 307.6197291  +6.3651306      93613.3     136544.8       142108     80.02805     159.7392     319.2246      1.608     4.22     894.9182     56.27412     13781.37        72     1.592     1.034  73.53   3
       134    431.7750    832.0878 307.7352802  +6.3529733     855.8351     1096.409     567.5208     80.15458     159.4853     319.1293      1.425     4.19     901.3813     56.27412     146.4456         7     0.954     0.524  52.06   0
       135    355.4082    826.1218 307.7671981  +6.3528760     21356.34     31809.64     33249.65     79.64727     159.1673     319.0658      1.598     4.22     902.5816     56.27412     3242.636        44     1.544     0.990  77.59   0
       136    404.6948    826.1701 307.7467266  +6.3545088     1446.972     2134.258     2225.276     80.15458     159.4217     319.1611      1.576     4.49     901.8011     56.27412     193.4205        14     1.259     0.782  72.41   0
       137    417.3358    823.9675 307.7415508  +6.3558419     23214.46     34651.23     35255.21     79.90132     159.7392     319.2246      1.601     4.52     901.5661     56.27412     3323.696        43     1.516     0.995  72.92   0
       138    644.2680    825.5740 307.6472447  +6.3627767     898.5272     1149.441     1805.391     79.64727     159.5488     319.1611      1.546     5.67     896.0408     56.27412     133.6527        11     1.147     0.790  79.67   0
       139    245.3804    810.4167 307.8134248  +6.3556674     765436.3      1635917      1799380      79.7744     159.4853     319.1611      2.205     5.49     903.0823     56.27412     63969.04       599     2.655     1.905  81.16   4
       140    954.3560    822.8999 307.5185415  +6.3742353     2185.217     2999.291     3032.841     80.02805     159.5488     319.4785      1.522     3.98     888.5901     56.27412     277.2234        17     1.234     0.831  77.41   0
       141    910.8157    820.8322 307.5366953  +6.3736370     6798.288     10381.47     10906.33     79.64726     159.4217     319.1611      1.625     4.21     890.0884     56.27412     887.0402        29     1.527     0.903  69.04   0
       142    883.9297    821.7370 307.5478320  +6.3723665     617.2424     941.9854     830.5176     80.02805     159.6758     319.2881      1.469     4.59     890.8806     56.27412     108.3015         7     1.299     0.461  60.83   0
       143    651.3689    819.8424 307.6444882  +6.3653805     6767.884     9880.387     10130.52     79.51994     159.6123     319.0976      1.565     4.25     895.7136     56.27412     1007.788        27     1.481     0.855  75.49   0
       144    440.0981    817.7958 307.7323050  +6.3591527     1794.927     2381.168     2469.058      79.7744     159.3581     318.9388      1.467     4.61     900.6674     56.27412     243.8466        12     1.201     0.720  72.68   0
       145    165.2364    817.3371 307.8464761  +6.3501184     814.1514     1018.365     699.6561     80.02805     159.7392     319.2563      1.546     4.62     902.2612     56.27412     123.7751         8     1.168     0.519  68.72   0
       146    879.6104    812.3486 307.5499410  +6.3760985     693.4173     1068.169     922.9286      79.3924     159.5488     319.0023      1.329     4.39     890.7672     56.27412     133.2544         6     1.245     0.596  72.91   0
       147    604.2114    812.0383 307.6643370  +6.3670250     960.1425     1442.316     1909.208     79.51994     159.4853     318.9705      1.732     5.46     896.3018     56.27412     165.2333        10     1.210     0.695  69.50   0
       148    155.8077    810.7709 307.8506138  +6.3525124     1090.967     1599.699      1672.23     79.64726     159.4853     319.0341      1.570     5.89     902.0672     56.27412     149.4999        13     1.227     0.797  59.78   0
       149    686.4304    810.0732 307.6302542  +6.3705860     2519.263     3606.405     3650.943     79.90132     159.6758     319.2563      1.567     4.25     894.8666     56.27412     379.2904        16     1.310     0.803  68.05   0
       150    420.2320    806.5949 307.7409334  +6.3631111     56425.35     83698.73     87053.38      79.3924     159.5488     319.0341      1.602     4.25     901.0434     56.27412     7901.364        68     1.578     1.068  73.67   0
       151    130.7362    810.2917 307.8610425  +6.3518675     981.0351     1304.615     1063.411     80.02805      159.866     319.3198      1.472     3.47     901.8264     56.27412      211.626        11     1.271     0.539  60.46   0
       152    962.9158    807.7179 307.5154952  +6.3807887     637.2926     907.0153     942.7084      79.7744     159.9294     319.3198      1.300     4.83     887.9077     56.27412      98.1485         8     1.026     0.643   6.26   0
       153    538.0230    805.5737 307.6920452  +6.3674787     7507.113     10850.44     11328.98     79.51994     159.5488     319.1928      1.548     4.56     897.4738     56.27412     1022.897        27     1.448     0.879  68.75   0
       154     72.4194    806.7617 307.8853815  +6.3513640     626.7825     676.7148     865.7752     79.64727     159.4853     318.9705      1.453     3.73     901.4458     56.27412     108.4952         6     1.051     0.473 -81.37   0
       155    454.7283    804.3574 307.7266814  +6.3651910     4744.116      7175.31     7420.879     79.90133     159.6758     319.2881      1.637     4.40     899.5439     56.27412        612.3        25     1.434     0.952  73.57   0
       156    783.2356    802.2812 307.5903083  +6.3770376     12098.36     17652.22     18208.85     79.90133     159.7392     319.2563      1.577     4.26       892.78     56.27412     1643.961        34     1.501     0.934  69.08   0
       157    451.3791    797.7415 307.7282954  +6.3678101     2391.956      3589.62     3408.942     79.64727     159.5488     319.0658      1.623     5.16     899.4721     56.27412     374.3793        19     1.382     0.849  79.05   0
       158     12.5188    798.3611 307.9105429  +6.3528168     1169.274     1650.943     2005.947     80.02805     159.7392     319.1928      1.488     4.51     901.3526     56.27412     178.8002        11     1.216     0.718  79.33   0
       159    804.8301    796.4257 307.5815356  +6.3801763      1314.63       1984.3     2314.265     79.51994     159.4853     319.0976      1.679     5.22     892.1038     56.27412     186.5982        15     1.339     0.763  78.77   0
       160    140.9580    794.2083 307.8573409  +6.3588509     12055.04     18384.33     19956.97      79.3924     159.4853     319.0023      1.615     4.27     901.6714     56.27412     1670.818        39     1.517     0.998  73.78   0
       161    973.2510    795.2653 307.5116198  +6.3862744     693.2359     1092.959     772.3221     79.90133     159.6123     319.2881      1.648     5.97     887.2362     56.27412     104.8592         8     1.077     0.931 -63.97   0
       162    149.1575    794.5112 307.8539253  +6.3590015     3175.601     4709.089     5332.648     80.02805     159.6123     319.2881      1.611     4.24     901.7393     56.27412     446.4458        21     1.417     0.806  74.10   0
       163    928.7104    790.8541 307.5302681  +6.3866105     6864.312      10497.7     10924.18     80.02805     159.4853     319.3833      1.652     4.27     888.7617     56.27412     885.5336        32     1.484     0.990  71.49   0
       164    133.0410    791.5438 307.8607190  +6.3596848     3068.599     4541.168     5488.781     79.90132     159.7392     319.2881      1.784     4.57      901.593     56.27412     409.9799        20     1.394     0.841  73.16   0
       165    977.9835    790.7135 307.5098067  +6.3883114     1616.699      2387.03     2549.535     79.64726     159.4217     319.1611      1.558     4.58     886.9457     56.27412     223.0092        15     1.228     0.850  69.59   0
       166    684.2177    788.3931 307.6319020  +6.3794627     1752.621     2450.231     3020.846     79.64727     159.4217     319.0976      1.455     4.13     894.3683     56.27412     323.1221        14     1.432     0.584  77.09   0
       167    571.0993    787.6665 307.6789100  +6.3759789     2487.703     3523.736      3810.97     80.02805     159.8026     319.2246      1.551     4.41     896.1797     56.27412      350.615        20     1.441     0.784  79.05   0
       168    418.9815    787.1173 307.7421093  +6.3711105      1253.96     1830.794     1926.628     79.64727     159.3581     319.2246      1.637     4.77     900.3416     56.27412     215.3476        13     1.396     0.623  75.31   0
       169    702.5802    785.8436 307.6243608  +6.3811291     594.7031     909.4817     916.3303     79.51994     159.5488     319.0976      1.394     3.42     893.9823     56.27412      99.8562         5     0.830     0.408  67.35   0
       170    133.2189    785.0125 307.8608659  +6.3623872     2036.191     3197.783     3332.608      79.7744     159.4217     319.1611      1.579     5.10     901.4792     56.27412     331.2604        15     1.283     0.725  68.87   0
       171    922.9218    782.9240 307.5329384  +6.3896915     3214.146     4620.219     4477.432     80.28091     159.9294     319.3515      1.543     4.19     888.7379     56.27412     419.9796        20     1.292     0.891  74.02   0
       172     75.5352    784.8470 307.8848286  +6.3605160     10091.19     10058.86     10090.05     79.90133     159.6123     319.3198      0.692     1.03     901.3812     56.27412     5451.323         9     0.612     0.365  23.36   0
       173    983.2684    781.9435 307.5079055  +6.3921083     1899.422     3117.743     3768.002     80.15458     159.6123     319.1928      1.846     4.25     886.5233     56.27412     266.2308        20     1.547     0.819  71.83   0
       174    952.4014    782.3734 307.5207121  +6.3909018     3220.823     5004.958     5231.877     79.64727     159.3581     319.0341      1.669     4.01     887.6734     56.27412     440.8358        23     1.392     0.970  56.19   0
       175    675.2404    781.8954 307.6358492  +6.3818452     1448.976     2083.882      2123.03     80.02805     159.6123      319.415      1.580     4.20     894.3939     56.27412     219.8611        15     1.232     0.799  74.29   0
       176    822.4049    780.0747 307.5747847  +6.3875137     977.3584     1487.558     1968.399     79.64726     159.1673     319.1928      1.547     4.61     891.3441     56.27412       156.95        12     1.392     0.590  66.49   0
       177    897.8144    777.5424 307.5435476  +6.3910758     786.1114     1016.919     1281.374      79.3924     159.5488      318.907      1.566     5.52     889.3807     56.27412     109.6451         9     1.296     0.697  58.29   0
       178    247.6397    777.1318 307.8136103  +6.3694847     1949.814     3368.309     5358.228     79.90133     159.6758     319.3515      3.103     4.75     901.5651     56.27412     250.7336        21     1.523     1.018  88.08   0
       179    684.9951    773.6268 307.6320756  +6.3855850     694.8152      1016.57     1522.491     79.51994     159.4853     319.0976      1.325     3.57     894.0189     56.27412     128.8579         5     1.176     0.341  45.50   0
       180    268.0957    772.3597 307.8052753  +6.3721416     843.3974     1327.868     1992.714     80.02805     159.5488      319.415      1.825     6.20     901.3108     56.27412     103.2379        12     1.365     0.793  69.02   0
       181    940.8915    772.5073 307.5258237  +6.3945914     1028.551     1348.857     1201.378     80.02805     160.1827     319.2563      1.492     4.51     887.8462     56.27412     170.8358         9     1.109     0.570  70.01   0
       182    914.4044    771.4893 307.5368597  +6.3941283     1188.182     1878.949     2212.202     79.51994     159.3581     318.9705      1.714     5.49     888.7052     56.27412     157.8559        12     1.474     0.616  77.62   0
       183    163.3561    772.1024 307.8487856  +6.3687298      786.153     1200.667     1173.724     80.02805     159.6123     319.4785      1.584     4.51     901.2146     56.27412     129.0361         8     1.165     0.595  72.47   0
       184    967.3448    770.2383 307.5149120  +6.3964101     2639.445     3889.499     4303.308     80.02805     159.7392     319.2563      1.584     4.14     886.8016     56.27412     389.6387        20     1.407     0.813  71.95   0
       185    686.5770    768.9627 307.6315753  +6.3875635     1097.439      1550.41     1879.442     79.64726     159.4217     319.0341      1.504     4.68     893.8588     56.27412     167.6764         9     1.241     0.500  73.46   0
       186   1009.1554    763.7407 307.4977629  +6.4004863     1690.775     2910.084     3291.499     79.90133     159.6123     319.3515      1.874     4.75     885.0822     56.27412     246.2374        19     1.454     0.982  79.37   0
       187    477.8272    764.6445 307.7184255  +6.3823602     624.9091     997.3535     955.8121     79.64727     159.7392     319.1611      1.672     3.85     897.3721     56.27412     90.66089         6     1.194     0.356  60.76   0
       188    635.5651    763.1956 307.6529574  +6.3882386     520.6332     898.5235     729.5205     79.26466     159.5488     319.0341      1.586     4.45     894.6086     56.27412     96.18677         5     1.174     0.480 -83.39   0
       189    810.2984    761.9498 307.5804219  +6.3945925     1386.961     2132.764      2160.29     80.02805     159.6758     319.4467      1.581     5.09     891.1366     56.27412     226.4261        13     1.311     0.694  71.75   0
       190    896.7596    759.4672 307.5445921  +6.3985031     1663.778     2549.907     2929.371     79.90133     159.6123     319.3198      1.706     4.65     888.9263     56.27412     213.3845        20     1.482     0.854  66.56   0
       191    870.9467    754.8745 307.5554680  +6.3995380     878.7295     1534.445     1734.483     79.90133     159.6758     319.2246      2.060     6.53     889.6384     56.27412     135.8037        10     1.476     0.811  84.67   0
       192     52.7189    749.5825 307.8954975  +6.3743069     2485.438     3646.054     3898.743     79.64727     159.3581     319.1611      1.643     4.43     901.3362     56.27412     373.0146        21     1.619     0.788  67.39   0
       193    853.6584    750.9872 307.5627795  +6.4005659      1636.04     2599.646     2582.038      79.3924     159.6123     318.9705      1.652     4.44     889.9526     56.27412      236.886        15     1.377     0.728  69.07   0
       194    116.4967    748.0314 307.8690612  +6.3770922      1155.83     1878.289     2034.156     80.15458     159.4853     319.3515      1.967     6.50     901.0542     56.27412     176.0356        16     1.771     0.709  68.06   0
       195    665.3523    738.1678 307.6414266  +6.3995676      6592.19     9765.834     10196.76      79.7744     159.6758     319.1928      1.573     4.43     893.6176     56.27412     974.1189        28     1.435     0.889  73.27   0
       196    612.0450    737.4612 307.6635924  +6.3980763     1564.379     2068.222       2689.9     79.90132     159.6123     319.3515      1.365     3.98     894.5146     56.27412     253.7234        12     1.251     0.604  71.48   0
       197    533.3561    737.0413 307.6962910  +6.3956160     660.4667     1082.386      680.129      79.7744     159.6758     319.1611      1.739     5.76     895.1734     56.27412      108.609        10     1.127     0.866  73.66   0
       198    522.8786    737.6852 307.7006212  +6.3949993     822.1526      1126.13     422.7874     80.02805     159.9928     319.3515      1.447     4.56     895.4535     56.27412     130.6038         8     1.142     0.518  54.96   0
       199    128.3215    733.8429 307.8646297  +6.3833473     3927.331     5881.675     6048.799     79.90133     159.6758     319.2881      1.605     4.58     900.6698     56.27412     519.8376        23     1.450     0.847  68.59   0
       200   1002.3534    733.4301 307.5016041  +6.4127737     2851.083     4325.128     4782.607     79.51994     159.7392     319.1611      1.677     3.85     884.5164     56.27412     364.4307        24     1.444     0.975  70.64   0
       201    639.2308    733.7406 307.6524255  +6.4005218     2212.638     2926.327     2783.417      79.7744     159.6758     319.2246      1.481     4.34     893.9542     56.27412     304.5007        17     1.306     0.777  73.78   0
       202    314.8143    733.5958 307.7871795  +6.3897130     849.4587     1172.281     1469.442     79.64727     159.3581     319.1293      1.530     4.10     899.0925     56.27412     158.6475         7     1.147     0.418  58.41   0
       203    250.5010    733.4111 307.8138981  +6.3876305     641.5491     1196.439     1314.432      79.7744     159.2945     319.0341      2.024     4.61     899.1987     56.27412     124.5579         7     1.083     0.558  67.01   0
       204    782.1923    730.2796 307.5931598  +6.4067291     21346.34     31136.23     31909.34     79.64727     159.2309     319.0976      1.585     4.26     890.8813     56.27412     2937.515        41     1.533     0.953  70.18   0
       205    912.2723    730.0323 307.5391360  +6.4111730     3780.339     5922.938     6024.238     79.90133     159.6758     319.2881      1.650     4.71     887.7222     56.27412     534.3437        25     1.444     0.942  66.49   0
       206    481.3859    730.6218 307.7180935  +6.3965257     1427.911     2103.135     2094.323      79.7744     159.4853     319.1928      1.560     4.29      896.311     56.27412      207.153        14     1.308     0.768  70.87   0
       207    509.6766    730.0380 307.7063623  +6.3977143      993.226     1473.527     1597.738     79.90132     159.7392     319.2563      1.861     6.00     895.5967     56.27412     174.3273        11     1.259     0.804 -88.76   0
       208    327.2339    729.9007 307.7821457  +6.3916552     744.3251     1091.534     1233.564     80.02805     159.5488      319.415      1.560     4.97     898.8613     56.27412     115.3548         7     1.316     0.531  66.11   0
       209    283.7655    730.3716 307.8001844  +6.3900020     675.0444     1046.633     1071.031     79.51994     159.4217     319.0341      1.681     4.89     899.1174     56.27412     126.2302         9     1.255     0.540  49.23   0
       210    255.6735    723.8122 307.8120738  +6.3917670     6483.016     9688.259     10131.48     79.51994     159.3581     319.0658      1.561     4.38     898.9316     56.27412     877.9779        27     1.465     0.913  75.64   0
       211    662.7439    723.0648 307.6430180  +6.4057157     7323.449     10608.45     10863.88     80.15458     159.6123     319.2563      1.548     4.15     893.1933     56.27412     1087.334        27     1.430     0.886  70.86   0
       212    645.3792    723.9840 307.6501999  +6.4047555     829.7576     1059.342     526.3002      79.7744     159.4217     319.1611      1.617     5.62     893.5403     56.27412     99.86096        10     1.247     0.713  68.73   0
       213    357.9669    723.2261 307.7696058  +6.3954418     868.5024      1300.06     1319.416     79.51994     159.4217     319.0341      1.720     5.92     898.3561     56.27412     110.4376        12     1.401     0.704  75.75   0
       214    922.5309    715.9106 307.5353484  +6.4173454     1228.622     1699.269     2013.302     80.15458     159.9294     319.2563      1.478     4.84     887.0311     56.27412     209.7724        11     1.319     0.596  74.52   0
       215     22.1650    714.5536 307.9093728  +6.3877399     318.8123      353.419     17.22102     79.64727     159.6123     319.1293      1.755     3.47     901.4489     56.27412     72.76038         5     1.280     0.271  54.79   0
       216    734.4787    711.5092 307.6136096  +6.4128845      4056.34     5969.751     6166.788      79.7744     159.9294     319.3198      1.626     3.99     891.5096     56.27412     546.9952        24     1.494     0.873  66.43   0
       217    689.8320    712.1217 307.6321343  +6.4111393     1177.067     1895.557     1528.599     79.90132     159.6758     319.2246      1.739     5.07      892.348     56.27412     177.1437        14     1.246     0.811  79.51   0
       218   1000.8386    708.1572 307.5030804  +6.4231573      9127.79     13669.79     14291.03      79.7744     159.6758     319.1293      1.588     4.31     883.8527     56.27412     1270.573        32     1.485     0.946  68.09   0
       219    939.2958    708.5356 307.5286319  +6.4209494     2700.178     4001.385     3712.638     79.90133     159.8026     319.2881      1.566     4.28     886.2787     56.27412     383.1294        20     1.424     0.841  64.75   0
       220     20.0576    707.8411 307.9104753  +6.3904401     1774.065     2860.624     2788.652     80.02805     159.6758     319.2881      1.645     4.24     901.4948     56.27412     243.5609        18     1.431     0.863  61.81   0
       221    989.0272    707.4668 307.5080099  +6.4230487     593.0014     1023.376     1166.229     79.64726     159.5488     319.1611      1.557     3.62     884.2899     56.27412     116.3123         6     1.123     0.336  50.36   0
       222    436.5518    705.9012 307.7375489  +6.4052292     644.7878     1020.564      1538.77     80.02805     159.6123     319.4467      2.052     5.70     896.5771     56.27412     96.96838         9     1.403     0.651  68.88   0
       223    553.3091    705.9927 307.6890485  +6.4091024     607.2906     765.5941     1293.235     79.64726     159.3581     319.0658      1.555     4.36     894.2854     56.27412     109.5156         7     1.117     0.485  44.52   0
       224     78.1447    702.8123 307.8865194  +6.3944706      25982.5     39580.98     40842.09      79.3924     159.6123     318.9388      1.622     4.30     900.5102     56.27412     3576.811        47     1.541     1.027  74.79   0
       225    539.3033    703.8470 307.6949383  +6.4095193     2226.799     3315.468     3342.021     80.02805     159.5488      319.415      1.577     5.30     894.4691     56.27412     323.2628        17     1.332     0.779  73.76   0
       226    508.1814    700.9959 307.7079615  +6.4096542     1501.488     2272.424     2432.656     79.64727     159.2309     319.0658      1.586     4.22     895.0335     56.27412     203.1413        14     1.272     0.741  65.64   0
       227    929.0865    699.9913 307.5331592  +6.4241365     1062.526      1768.01     2291.547     79.64727     159.3581     319.0976      1.707     4.47     886.4448     56.27412     179.9285        12     1.283     0.599  73.80   0
       228    548.4610    697.5410 307.6913468  +6.4124294     1146.244     1546.039      1711.95     80.02805     159.6123     319.2881      1.430     4.30     894.2108     56.27412     160.7373        11     1.137     0.648  73.21   0
       229    724.0123    695.1489 307.6185070  +6.4192891     3603.874     5176.702     5254.686      79.3924     159.5488     318.9705      1.544     4.35     891.4185     56.27412     498.9486        23     1.446     0.828  69.92   0
       230    746.1257    693.4882 307.6093772  +6.4207137     4430.679     6300.062     6114.416     80.02805     159.9928     319.3198      1.569     4.27     891.0094     56.27412     595.0287        23     1.429     0.857  69.14   0
       231    577.5789    691.3972 307.6794588  +6.4159406     3543.583     5045.019     5048.572     79.64727     159.3581     319.0023      1.586     4.49     893.6393     56.27412     538.3141        20     1.416     0.795  78.54   0
       232    413.7311    691.6696 307.7475076  +6.4103397     1508.444     2233.535     2423.967     80.02805     159.8026     319.2246      1.581     4.73     896.4258     56.27412     199.3032        13     1.228     0.740  71.70   0
       233   1018.9941    689.5220 307.4961632  +6.4314560     5151.591     7657.173      7931.93     79.64726     159.1673     302.9033      1.588     4.02     882.6349     56.27412     774.9434        27     1.493     0.892  69.26  16
       234    321.9265    690.2087 307.7856895  +6.4078637     1444.429      2300.71     2123.023     79.64726     159.2309     319.0976      1.518     4.73     897.3829     56.27412     206.8279        14     1.314     0.728  82.31   0
       235    238.3190    690.6742 307.8204011  +6.4048650     1754.106     2526.433     2174.947     80.28091     159.9294     319.3198      1.509     4.38     898.0706     56.27412     280.8833        16     1.355     0.848  67.56   0
       236    984.4518    688.5096 307.5105459  +6.4307228     8677.265     12800.46     12704.56     80.02805     159.4853     319.3833      1.633     4.09     883.9939     56.27412     1149.624        32     1.506     0.927  71.87   0
       237    538.3071    688.9322 307.6958544  +6.4156436     609.8849     905.6625     1289.747     79.90133     159.8026     319.2881      1.549     4.11     894.2347     56.27412     85.36188         6     1.450     0.333  61.83   0
       238    704.3441    686.7645 307.6269587  +6.4220933     1007.479     1329.967     937.8416     79.90133     159.6758     319.2881      1.538     4.40     891.5213     56.27412      199.504         9     1.185     0.493  70.74   0
       239    142.8839    681.7454 307.8603424  +6.4053446     25016.83     37454.75     38891.32     80.02805     159.6758      319.415      1.606     4.17     898.6227     56.27412      3350.98        49     1.569     1.024  74.59   0
       240     95.9613    684.6939 307.8797322  +6.4025497     888.6113     1276.259     1317.311     80.15458     159.6123     319.3515      1.693     4.70     899.6632     56.27412     139.7086         8     1.127     0.555  68.52   0
       241    811.0180    682.1423 307.5828028  +6.4275655     1151.309      1952.83     2227.745     79.51994     159.6123     319.0023      1.750     6.01     889.3392     56.27412     172.5622        14     1.519     0.670  69.46   0
       242    429.6781    682.7272 307.7411852  +6.4145661     3102.875     4477.732     5130.212     80.28091     159.9294     319.2563      1.598     4.08     895.8281     56.27412     437.1097        19     1.351     0.785  71.82   0
       243    647.2107    682.6956 307.6508278  +6.4218628     605.3105     983.3634     1350.513      79.7744     159.2945     319.0341      2.043     4.43     892.2342     56.27412     101.9634         7     1.265     0.441  67.41   0
       244    362.1855    676.1472 307.7694416  +6.4150196     837.7476     1294.356     1640.574      79.3924     159.6123     319.0023      2.190     4.90     896.4549     56.27412     119.3457         9     1.013     0.670  14.84   0
       245    979.2672    671.4028 307.5132731  +6.4376127      7284.98     11629.68     12220.73      79.3924     159.3581     319.0658      1.704     4.17     883.7258     56.27412      966.454        33     1.646     0.949  64.10   0
       246     23.9536    670.5445 307.9101193  +6.4059685     1258.086     1906.094     1888.297     80.02805     159.6758     319.3198      1.763     5.56     901.4648     56.27412      169.249        13     1.343     0.650  70.43   0
       247    572.8757    666.6348 307.6822459  +6.4260063     51316.62     74228.12     76847.87     79.90133     159.7392     319.2246      1.572     4.33     893.1187     56.27412     6910.894        61     1.540     1.029  72.57   0
       248    937.3932    667.9725 307.5307826  +6.4376327     563.8076     902.1008     1091.051     79.51994     159.5488     319.0658      1.610     5.10     885.3066     56.27412     94.35022         8     1.398     0.527  58.57   0
       249    215.9871    667.6962 307.8304531  +6.4136012     676.1481     1109.817     953.3197      79.7744     159.4217     319.0658      1.533     5.00     897.6622     56.27412     98.87213         8     1.282     0.552  69.96   0
       250    797.8194    666.6686 307.5888051  +6.4335131     683.7502     923.3282     756.4813     79.64727     159.5488     319.1928      1.588     4.23     889.2627     56.27412     135.5967         6     1.116     0.458  64.35   0
       251    532.2678    666.3796 307.6991224  +6.4247522     720.9462     1094.912     978.5765     79.64727     159.6123     319.1928      1.535     4.44     893.8723     56.27412     122.2289         6     1.065     0.527  53.82   0
       252    180.4079    663.3221 307.8453791  +6.4142116     2817.859     4355.151     4574.922     79.64727     159.1673     319.0658      1.679     4.58     897.7424     56.27412     403.9607        22     1.395     0.938  68.14   0
       253    502.8551    663.0695 307.7114514  +6.4251337     510.0013     705.5929     489.3835     80.02805     159.5488     319.1928      1.451     4.28     894.3105     56.27412     108.9011         6     1.187     0.441  64.08   0
       254     72.9467    657.5906 307.8902081  +6.4129648     1373.881     2014.513     2320.222      79.3924     159.6123     318.9705      1.619     4.35     899.7239     56.27412     213.4913        15     1.446     0.750  80.71   0
       255    470.1494    650.4178 307.7254631  +6.4292612     65553.77     96121.91     99831.55     79.51994     159.7392     319.0023      1.602     4.16      894.562     56.27412     8808.449        71     1.566     1.086  71.68   0
       256     13.8903    651.8902 307.9149305  +6.4133309     1768.102     2597.048      3183.41     80.02805     160.1827     319.3515      1.466     3.72     901.6348     56.27412     295.0499        13     1.211     0.637  71.84   0
       257    656.1302    647.5297 307.6483056  +6.4366794     847.3331     1341.909     533.4272     80.02805     159.8026     319.2246      1.671     6.10     891.1339     56.27412     127.3737        13     1.645     0.635  86.38   0
       258    144.5932    645.4877 307.8608581  +6.4203706     1720.043     2581.961     2132.447     79.51994     159.3581     319.0023      1.572     4.51     897.9117     56.27412     235.5145        16     1.411     0.727  72.78   0
       259    939.7517    643.6815 307.5306176  +6.4477401     707.3763      941.062     288.9505     80.02805     159.6758     319.2881      1.646     6.38     884.4813     56.27412      122.618         9     1.352     0.845 -81.40   0
       260    423.8917    643.0018 307.7449279  +6.4307727     962.1579     1456.571     1416.931      79.3924     159.3581     319.0023      1.600     4.25     894.7269     56.27412     165.5813        11     1.349     0.661  86.65   0
       261     16.4150    640.8945 307.9142541  +6.4179553     772.0325     1012.133     1223.839      79.7744     159.4217     319.0658      1.516     5.30     901.4832     56.27412     111.9496         9     1.480     0.536  72.80   0
       262    615.9882    641.8210 307.6651725  +6.4376934     910.0865     1185.102      1567.34     79.64727     159.3581     319.1293      1.424     4.21     891.4062     56.27412     137.9601         9     1.125     0.623  68.97   0
       263    315.5439    639.5658 307.7900497  +6.4285571      2252.23      3373.76     3621.621     79.90133     159.6758     319.2563      1.625     4.37     895.9382     56.27412      302.269        17     1.403     0.750  73.12   0
       264    467.6919    637.8873 307.7269062  +6.4343521     813.1609      1363.19     2157.331     80.02805     160.1194     319.3515      2.631     5.35     894.3456     56.27412     131.1694        10     1.292     0.625  60.89   0
       265    742.1602    633.9277 307.6130260  +6.4451710     5398.116     7764.116     7467.287     79.90133     159.6758     319.3198      1.503     4.62     889.8483     56.27412     818.8277        25     1.442     0.810  70.86   0
       266    795.7436    629.2495 307.5909243  +6.4488924     14535.58     21027.64     21887.73     80.02805     159.6758     319.3198      1.579     4.30     888.1321     56.27412     2196.818        37     1.497     0.930  72.30   0
       267   1013.1597    629.8505 307.5005867  +6.4558975      829.519     1078.299      1136.47     80.02805     159.6758     319.2246      1.357     5.50     882.0909     56.27412     116.7264        12     1.254     0.702  67.18   0
       268    538.3152    629.0151 307.6978686  +6.4403806      1304.47     2150.204     2398.898     79.64726     159.4217     319.1611      1.800     4.72       892.74     56.27412       177.18        13     1.205     0.745  74.36   0
       269    619.6521    627.2005 307.6641424  +6.4438521     3006.171     4381.421     4373.462     79.26465     159.2309     318.8116      1.582     4.27     890.8528     56.27412     410.4933        20     1.337     0.842  68.73   0
       270     41.0638    628.3855 307.9044392  +6.4239490      666.699     1041.354     1004.431     79.51994     159.5488     319.1293      1.675     5.08     900.4133     56.27412     114.8917         8     1.143     0.663  50.35   0
       271    630.8149    626.8218 307.6595182  +6.4443819      500.607     367.2429    -65.02665      79.7744     159.4853     319.1928      1.395     6.14     890.7783     56.27412      95.8363         7     1.606     0.660  45.57   0
       272    936.7368    623.4558 307.5325484  +6.4559899     1426.874     2154.863     2942.896     80.15458     159.6758     319.2563      1.878     5.04     883.9359     56.27412     199.6038        15     1.226     0.944  40.07   0
       273    232.1753    620.9059 307.8253094  +6.4334618     1162.723     1941.761     2394.554     80.15458     159.4217     319.0976      2.094     5.28     896.5479     56.27412     154.2776        16     1.485     0.832  89.18   0
       274    196.2987    621.7557 307.8401832  +6.4319057      618.511     1173.578     1168.601     80.02805     159.6123     319.4785      2.035     5.00     897.0209     56.27412     87.32263         6     1.373     0.515  50.01   0
       275    378.1607    620.3052 307.7646894  +6.4386094     944.4809     1150.117     1132.828     80.15458     159.5488     319.3833      1.297     4.34     894.5754     56.27412     143.3578         8     1.096     0.490  57.49   0
       276    362.5863    620.7915 307.7711424  +6.4378863     508.5994     744.3266     656.5164     79.64727     159.4217     319.1611      1.214     3.40     894.7694     56.27412     93.59961         5     0.810     0.414  67.47   0
       277    871.7887    612.4609 307.5598979  +6.4583625     2966.628     4109.185     4548.372      79.3924     159.5488     318.9705      1.541     4.33     885.7339     56.27412      407.256        21     1.419     0.808  70.16   0
       278    830.5573    609.9188 307.5771114  +6.4580357     2602.684     3821.106     4240.357     80.02805     159.6758     319.2246      1.597     4.32     886.6932     56.27412     400.5722        18     1.342     0.786  64.86   0
       279    811.1384    601.1348 307.5854734  +6.4610139     165164.5     241900.4     252010.5     80.02805     159.6758     319.2881      1.572     4.61     886.9323     56.27412     23139.06       117     1.659     1.112  72.55   0
       280    801.4111    605.8497 307.5893559  +6.4587425     2752.297      4220.66     5350.371      79.3924     159.5488     318.9388      1.626     3.85     887.2833     56.27412     412.2743        18     1.355     0.746  70.08   0
       281    742.5320    604.0862 307.6138744  +6.4575036     595.6968     1317.585     1170.863     80.15458     159.9294     319.2881      2.918     7.74     889.0089     56.27412     116.0694        14     2.862     0.586  58.23   0
       282    258.5565    604.8583 307.8148931  +6.4409729     8207.684     11881.52     11681.52     79.90133     159.6123     319.3198      1.562     4.10     895.8234     56.27412     1089.006        28     1.414     0.943  73.79   0
       283    166.8851    612.0007 307.8527306  +6.4349446     739.4564     1040.823     1337.797     79.26465     159.1673     318.9388      1.904     5.58     897.2859     56.27412     121.8619        10     1.214     0.723  61.12   0
       284    192.7727    599.3369 307.8424054  +6.4410427     61558.26     91341.92     95573.36     79.64727     159.6123     319.1928      1.626     3.95     896.6472     56.27412     8215.103        67     1.570     1.107  72.97   0
       285    116.7475    595.5336 307.8741136  +6.4400573     6475.551     9801.072     10359.16     80.02805     159.6123     319.1928      1.663     4.27     897.5352     56.27412     844.1403        30     1.495     0.961  66.70   0
       286    981.9370    592.8951 307.5147962  +6.4701142     1496.757     2224.089     2278.105     79.90133     159.8026     319.2881      1.524     4.82     882.0609     56.27412     219.6495        12     1.287     0.615  68.05   0
       287   1002.7300    591.9026 307.5061914  +6.4712170     791.6354      1117.24     670.8239     79.90133      159.866     319.2563      1.391     5.06     881.5145     56.27412     143.1141         8     1.279     0.567  74.35   0
       288    231.3319    590.8098 307.8266764  +6.4458584     869.3532     1302.359     1595.218     79.51994     159.4853     319.1293      1.877     4.03      895.845     56.27412     165.9994        10     1.306     0.636  60.86   0
       289    847.7274    588.4135 307.5707007  +6.4674875     4720.278     6570.026     6501.312     79.51994     159.4217     319.0341      1.526     3.92     885.7191     56.27412     689.0492        22     1.387     0.820  68.49   0
       290    366.1302    586.5401 307.7708258  +6.4521457     18179.68     26328.75     27121.75     80.15458     159.6758     319.2563      1.572     3.97     893.5984     56.27412      2435.33        41     1.520     0.987  71.33   0
       291    456.3174    586.2339 307.7333720  +6.4552959     867.4141     1018.479     730.0607     80.02805     159.6758     319.1928      1.327     4.59     892.6841     56.27412     115.7893        10     1.006     0.770  54.22   0
       292    168.0471    585.5411 307.8531423  +6.4459071     1932.053     2919.432      3358.78     80.02805     159.6758     319.3833      1.707     4.08     896.7864     56.27412     270.3633        19     1.386     0.878  78.36   0
       293    801.5703    581.7609 307.5900989  +6.4686929      6067.24     9127.345     10262.67     79.51994     159.4217     319.1293      1.648     4.25     886.7055     56.27412     864.9387        26     1.427     0.889  70.78   0
       294    532.4932    581.4311 307.7018897  +6.4598306     6841.133     9826.848       9807.1     80.15458     159.4853     319.2563      1.617     4.20     891.2487     56.27412     921.2308        29     1.451     0.927  73.22   0
       295    243.1736    583.1754 307.8220153  +6.4494079     924.3359     1497.163       2089.5     79.51994     159.4853     319.1611      1.902     4.62     895.4036     56.27412     171.4377        10     1.100     0.646  70.26   0
       296    105.5684    582.6785 307.8791920  +6.4449884     884.4582     1267.587     957.1671     79.90133     159.6758     319.2246      1.418     4.81     897.5557     56.27412     160.2308        11     1.369     0.607  83.52   0
       297    173.4450    582.3749 307.8510071  +6.4473957     796.6674     1293.438     2345.768     79.51994     159.7392     319.1293      1.782     4.27     896.6222     56.27412     137.2496         7     1.053     0.494 -86.62   0
       298    390.6743    578.2650 307.7609092  +6.4563852     1354.077     1901.026     1994.144     80.15458     159.6758     319.2563      1.558     3.76     892.9695     56.27412     227.6346        14     1.303     0.733  65.02   0
       299    577.1827    574.6745 307.6835525  +6.4641163     2405.761     4349.008     3904.281     79.51994     159.4217     319.1611      1.906     4.57     890.2392     56.27412     337.7407        28     1.438     1.222 -89.34   0
       300    179.4898    574.3868 307.8487661  +6.4508967     6989.973     10493.64     11778.78      79.7744     159.4217     319.1293      1.673     3.84     896.3557     56.27412     911.5711        31     1.523     0.966  75.11   0
       301    274.7462    570.9987 307.8093113  +6.4554951     88123.01     133926.9     139895.6      79.3924     159.4217     318.8752      1.600     4.04     894.3151     56.27412     11713.33        86     1.618     1.127  72.61   0
       302     51.1518    573.2639 307.9021143  +6.4470445     5276.556     8054.477     8332.229     79.90133     159.5488     319.2881      1.617     4.38       899.27     56.27412     712.5027        27     1.525     0.890  70.52   0
       303    860.5265    574.5132 307.5658503  +6.4736536     636.6152     1008.069     654.6444     80.15458     159.9928     319.2563      1.407     3.68      885.049     56.27412     116.6949         6     0.990     0.392  70.15   0
       304    818.0654    574.0124 307.5835066  +6.4724428     1588.326     2510.062     2796.349     79.51994     159.4853     319.1611      1.760     4.05     886.1142     56.27412     240.2539        15     1.271     0.813  70.64   0
       305    564.2988    568.6315 307.6891082  +6.4661798     903.3437     1311.337     1799.731     80.02805     159.5488     319.3833      1.615     5.20     890.2816     56.27412     162.1747        10     1.402     0.544  80.52   0
       306    258.7757    566.0699 307.8161119  +6.4569936     1499.303     2191.588     2289.526     79.64726     159.5488     319.1928      1.627     4.53     894.5184     56.27412     219.0098        15     1.284     0.825  68.29   0
       307    797.8884    563.4833 307.5922424  +6.4761160      17240.5     24460.88      25572.6      79.7744      159.866     319.2881      1.558     4.49     886.3577     56.27412      2491.55        37     1.475     0.923  71.33   0
       308    501.5188    561.8540 307.7154164  +6.4668756     41524.96     67014.34     71151.01     80.02805     159.6758     319.3198      1.765     4.07      890.907     56.27412     5195.515        69     1.645     1.286  63.74   0
       309    651.9672    560.3534 307.6529674  +6.4725311     1046.577     1522.554     2022.211      79.7744     159.6758     319.1928      1.612     4.68     889.2526     56.27412     158.2761        10     1.224     0.596  58.20   0
       310    214.0226    558.1121 307.8349713  +6.4587758     1859.176     2990.725     4189.052     80.02805     159.4853     319.1611      1.744     4.19     895.3702     56.27412     265.2542        16     1.393     0.710  75.53   0
       311    661.4918    556.8154 307.6491297  +6.4743103     3059.928     4550.086     4916.166      79.7744     159.4853     319.1293      1.569     3.77     889.1558     56.27412     498.6697        20     1.402     0.813  68.63   0
       312    974.3074    564.7927 307.5189080  +6.4814622     1644.344     2287.677     2017.102     79.64727     159.3581     319.0658      1.517     4.34     881.3901     56.27412     288.4259        13     1.305     0.678  71.74   0
       313     49.3949    558.2733 307.9033514  +6.4531740     1320.413       1960.1     2061.635     79.64727     159.2309     319.1611      1.679     4.16     899.1345     56.27412     178.1713        14     1.166     0.843  74.78   0
       314    723.5711    555.9779 307.6233683  +6.4767316     1471.777     2294.308     2360.504     79.51994     159.4853     319.1293      1.804     5.96     887.7587     56.27412     224.9442        18     1.529     0.841  64.33   0
       315    671.5095    556.6628 307.6449732  +6.4747083     1428.923     2013.317     1975.588     80.02805     159.8026     319.3198      1.539     5.18     889.1059     56.27412      212.224        14     1.482     0.738  61.62   0
       316    399.2377    552.5198 307.7582202  +6.4673011     1732.776     2517.781     2656.219     79.90133     159.7392     319.2246      1.547     4.35     891.9296     56.27412     220.4655        17     1.279     0.946  59.87   0
       317    510.6870    550.3165 307.7119964  +6.4719459     2060.279     3169.059     3076.958      79.7744     159.8661     319.2881      1.639     4.38     890.2361     56.27412     274.6989        18     1.444     0.762  70.45   0
       318    330.6881    550.6384 307.7867600  +6.4657784      3844.25     5919.865     6015.932     80.02805     159.6123     319.2881      1.651     4.04     892.7259     56.27412     566.0237        24     1.517     0.839  68.86   0
       319    145.8737    549.3543 307.8635763  +6.4601011     26747.26     39954.66     40604.18     79.90133     159.7392     319.2563      1.599     4.06     896.5004     56.27412     3672.208        49     1.555     1.036  72.53   0
       320     76.3614    552.2058 307.8923551  +6.4565862     599.0093     980.3867     1308.703      79.1367     159.4217     319.0023      2.033     5.27     898.1907     56.27412     85.37292         7     1.144     0.686  55.70   0
       321    873.8660    549.5558 307.5611463  +6.4844026     1817.464     2441.083     2500.084     80.02805     159.6123     319.2881      1.521     5.13     884.0101     56.27412     235.7708        11     1.117     0.665  73.60   0
       322    111.0912    547.5963 307.8780844  +6.4596573     2723.369     3850.332     3764.889     79.64726     159.3581     319.0341      1.513     4.37     897.2111     56.27412     394.7505        21     1.385     0.842  73.86   0
       323    347.9037    546.1323 307.7797606  +6.4682164     942.4119     1317.552     1919.261     80.02805     159.8026     319.2563      1.548     4.44     892.3774     56.27412     154.1718        12     1.354     0.674  80.48   0
       324    971.4384    544.0823 307.5207944  +6.4899170     5396.724     7562.408     7761.247     80.02805     159.7392     319.2246      1.500     4.06     880.8402     56.27412     859.0137        24     1.380     0.868  70.98   0
       325    135.6532    539.2410 307.8681639  +6.4639326     580.8007     969.7894     821.9935     79.90133     159.7392     319.2881      1.611     4.06     896.5225     56.27412     108.1808         5     1.157     0.407  76.80   0
       326    544.5773    536.4642 307.6983841  +6.4787998      1614.51      2573.19     2682.299     79.64727     159.6758     319.1293      1.667     4.86     889.4625     56.27412     220.1419        20     1.440     0.988  74.28   0
       327     10.1410    533.6344 307.9204912  +6.4620246     25892.54     38793.82     40338.18     79.90133     159.6758     319.2246      1.617     4.05     899.7905     56.27412     3668.648        49     1.571     1.020  70.59  16
       328    442.8753    530.4977 307.7408348  +6.4778558     44311.64     65255.57     67863.84     79.64726      159.866     319.2563      1.597     4.14     890.3284     56.27412     6016.737        61     1.570     1.074  71.67   0
       329    650.9195    530.2540 307.6544153  +6.4849226     12835.45     18488.42     19518.11     80.02805     159.6758     319.3198      1.556     4.08     888.3448     56.27412     1822.232        34     1.458     0.946  70.55   0
       330    290.7188    530.4218 307.8040463  +6.4727832     1053.709     1364.723     1370.671      79.7744     159.3581     319.1928      1.493     5.54     892.3083     56.27412     161.1653        11     1.197     0.723  69.78   0
       331    208.0160    528.0424 307.8384824  +6.4709880     19306.31     30561.78     31521.17     79.51994     159.4853     319.0341      1.652     3.90      894.794     56.27412     2698.454        47     1.627     1.063  64.94   0
       332    984.8326    528.7138 307.5157452  +6.4967085     1315.867     2143.294     2261.207     80.02805     159.4853     319.2563      1.788     5.54     879.7626     56.27412     187.0047        15     1.290     0.829  66.12   0
       333    913.2422    527.9404 307.5455132  +6.4946405     753.5849     1074.665     906.8717     80.02805     159.6758     319.3515      1.621     5.78     882.2031     56.27412     106.7303        10     1.568     0.599  74.26   0
       334    173.7125    528.8085 307.8527066  +6.4695189     1647.585     2435.171     2204.018     79.64727     159.3581     319.0341      1.524     4.28     895.5366     56.27412     234.3686        17     1.404     0.741  70.23   0
       335    824.9608    528.4454 307.5821724  +6.4914856     1043.226     1635.945     1714.143      79.7744     159.6758     319.1611      1.521     4.44     884.7087     56.27412     171.4794        11     1.239     0.658  71.45   0
       336    572.5681    526.9008 307.6870780  +6.4836852     3014.898     4230.064     3854.226     80.02805     159.5488     319.3833      1.497     3.74      888.907     56.27412      437.036        20     1.349     0.810  71.74   0
       337    946.5687    524.2307 307.5317923  +6.4972836     4959.526     7157.367     7641.992     79.51994     159.4217     319.0023      1.580     3.98     880.9592     56.27412     774.5452        23     1.401     0.862  74.67   0
       338    619.6588    522.5942 307.6676598  +6.4870392     6781.604     9917.202      10218.1     79.51994     159.5488     319.0023      1.580     4.03      888.293     56.27412     908.5595        29     1.458     0.931  71.38   0
       339    107.4272    523.0109 307.8804380  +6.4696838     1224.311     1819.844     2089.379     79.64726     159.4853     319.1293      1.565     4.82      896.738     56.27412     174.3989        13     1.172     0.878  64.21   0
       340    218.9835    522.3537 307.8341186  +6.4737049     469.7069     594.8514     465.8216     79.51994     159.5488     319.0341      1.481     4.10     894.4149     56.27412     90.94116         5     1.013     0.556  75.41   0
       341    969.1907    516.3698 307.5226576  +6.5012834     3572.322     5213.782     5312.542     79.51994     159.4853     319.0658      1.557     4.14     879.8511     56.27412     508.6287        22     1.350     0.866  73.27   0
       342    531.8702    513.8000 307.7044264  +6.4877312     7533.106     11358.32     11601.17     79.51994     159.1673     319.0341      1.568     4.25     888.8835     56.27412     1017.407        29     1.463     0.937  74.53   0
       343    747.9035    514.2501 307.6146624  +6.4947722     551.3309     776.0056     1136.087     79.90133     159.6123      319.415      1.758     5.08     886.0349     56.27412     103.4247         6     1.078     0.676 -87.63   0
       344    408.0616    515.1837 307.7558137  +6.4830111     649.6172     717.8193     917.9477     79.51994     159.6123     319.0658      1.352     3.82     890.2869     56.27412     118.1402         5     0.936     0.446  48.91   0
       345    377.7518    513.8965 307.7684486  +6.4825260     2617.565      3966.26     4408.851     79.90133     159.5488      319.415      1.637     4.37     890.7075     56.27412     351.9637        19     1.360     0.837  74.98   0
       346    100.8956    512.5356 307.8835056  +6.4737887     572.0011     764.3445     344.1221     79.90132     159.8026     319.2881      1.673     4.49     896.6046     56.27412     87.86743         7     1.277     0.448  68.88   0
       347    888.5042    509.7545 307.5564010  +6.5013233     3259.387     4581.899     5044.728     80.02805     159.6123      319.415      1.513     4.38     882.2399     56.27412     494.8314        20     1.326     0.833  65.29   0
       348    541.2548    510.4477 307.7006406  +6.4894294     756.5934      943.862     1273.707     80.02805     159.6758     319.3198      1.466     4.75     888.7271     56.27412      96.6969         8     1.198     0.534  67.83   0
       349    895.8267    504.1882 307.5535456  +6.5038657     2350.356     3631.789     4008.196     79.64726     159.4853     319.1928      1.667     3.84     881.8347     56.27412     390.6851        22     1.499     0.874  71.65   0
       350    935.3378    503.4544 307.5371552  +6.5054867     1359.372     1931.401     1681.274     80.15458     159.6123     319.2246      1.522     4.86     880.6503     56.27412     184.6507        12     1.234     0.663  68.43   0
       351    114.3865    502.9213 307.8782266  +6.4782116      665.838      951.404     974.3643     79.64726     159.4217     319.0658      1.397     5.30     896.1307     56.27412     124.7098         9     1.512     0.524  76.28   0
       352    719.7341    500.0938 307.6268411  +6.4996753     2999.793     4441.887     4608.199     80.02805      159.866     319.2563      1.552     4.11     886.1465     56.27412     431.3107        22     1.385     0.898  73.55   0
       353    273.2154    502.1558 307.8122720  +6.4838649     639.5552      915.558     814.5918     79.51994     159.4853     319.0341      1.635     3.94     891.8918     56.27412     82.68024         6     0.780     0.571  40.97   0
       354     81.5789    498.8998 307.8919913  +6.4787683     1830.007     2648.689     3101.592     80.02805     159.4217     319.0341      1.551     4.08     896.7253     56.27412     273.4966        16     1.355     0.748  68.98   0
       355    390.6722    498.2699 307.7636083  +6.4894106     3701.143     5509.018      5764.87     80.15458     159.8026     319.2246      1.630     4.42     889.8695     56.27412     535.9633        25     1.465     0.901  65.93   0
       356    431.0230    498.3203 307.7468435  +6.4907428     1060.233     1442.155     1782.596     79.64726     159.3581     319.2246      1.599     5.68     889.2504     56.27412     136.8549        12     1.233     0.736  61.86   0
       357    781.0295    491.3822 307.6016687  +6.5053201     17293.65      24591.1     25728.85     79.64726     159.4853     319.1928      1.561     4.19     884.7973     56.27412     2492.707        38     1.501     0.923  71.47   2
       358    784.9711    486.6804 307.6001891  +6.5073929     1372.871     2077.542     2468.847     79.90132     159.5488     319.1928      1.708     4.20      884.611     56.27412     219.9993        12     1.165     0.686  76.60   2
       359    300.6975    491.6749 307.8012091  +6.4891144     2614.914     3881.402      3826.61     79.64727     159.8026     319.2881      1.598     4.02     890.7579     56.27412     360.8965        17     1.378     0.771  69.55   0
       360    618.3809    494.7755 307.6691270  +6.4984813      10282.1     15259.76     16478.71      79.7744     159.4853     319.1928      1.573     4.20     887.2448     56.27412     1496.839        30     1.466     0.902  71.07   0
       361    384.0023    488.2710 307.7667165  +6.4933149     1572.544     2374.027     2835.059     79.51994     159.2945     319.0976      1.529     4.48     889.5833     56.27412     241.8374        15     1.371     0.716  70.95   0
       362    809.9852    488.3211 307.5897417  +6.5075510     1373.854     1861.598     1921.801     79.64726     159.4217     319.0976      1.452     5.23     884.0125     56.27412     164.5514        11     1.133     0.682  70.98   0
       363    966.3945    486.3929 307.5248247  +6.5135663     2147.592     3169.689     3215.533      79.3924     159.4853     319.0976      1.639     4.26     878.8328     56.27412     297.2814        19     1.394     0.787  69.05   0
       364    714.6776    485.4533 307.6294341  +6.5055506     740.1858     1243.729     1709.071     80.15458     159.6758     319.2563      1.926     4.92     885.7435     56.27412     94.05701         9     1.079     0.634  80.63   0
       365    372.3076    484.5051 307.7717019  +6.4944774     833.5591     1292.723     1602.646     80.02805     160.1827     319.2563      1.679     5.42     889.6584     56.27412     121.1384         9     1.244     0.666  53.20   0
       366    118.4393    483.1974 307.8772101  +6.4864906     4533.792     6820.688     6734.391      79.1367     159.4217     318.9705      1.597     4.16      895.597     56.27412     655.8064        23     1.386     0.900  71.80   0
       367    756.6208    482.2161 307.6121175  +6.5082889     2351.936     3321.417     3094.286      79.7744     159.4217     319.1611      1.499     3.89     885.0425     56.27412     352.8582        16     1.335     0.744  69.87   0
       368   1020.2952    481.0810 307.5026090  +6.5175560     3992.438     6721.657     6661.936      79.7744     159.9294     288.8962      1.762     4.75     876.5161     56.27412     507.9188        30     1.665     0.979  48.57  24
       369    276.5118    480.3232 307.8116398  +6.4929889      1670.13     2228.198     2380.387     80.02805     159.9928     319.3198      1.538     3.82      890.953     56.27412     216.6165        15     1.218     0.831  66.19   0
       370    354.4455    477.8255 307.7793479  +6.4966358     3171.404     4719.173     4739.063     79.51994     159.7392     319.1293      1.615     4.21     889.6485     56.27412     449.8108        21     1.382     0.901  60.29   0
       371    710.4559    475.9304 307.6315082  +6.5093410     1652.793     2354.525     2876.908     80.15458     159.5488     319.2246      1.629     4.08     885.3831     56.27412     249.6528        16     1.309     0.797  66.61   0
       372    984.1826    474.6202 307.5178292  +6.5190198     765.4243     1246.519       2053.4      79.7744     159.4853     319.1611      1.977     4.72     877.6068     56.27412     109.1735         8     1.072     0.589  57.42   0
       373    413.7428    473.9596 307.7548439  +6.5002207     548.5922     831.0346     1145.476     80.02805     159.7392     319.2881      1.810     4.66     888.4871     56.27412     82.16968         7     1.432     0.429  86.58   0
       374    242.3088    473.3268 307.8260852  +6.4947287     885.3795     1326.073     940.5452     80.02805     159.8661     319.2881      1.544     5.79     892.2013     56.27412     134.7539        11     1.204     0.783 -89.23   0
       375    452.8637    469.0763 307.7387560  +6.5035482     613.9319     811.2634     663.9841     80.28091     159.6758     319.2246      1.321     3.82     887.7057     56.27412      105.619         7     0.949     0.571  76.51   0
       376    551.5916    468.4833 307.6977596  +6.5071005     952.8024     1246.563     1029.774     79.64727     159.3581     319.0976      1.480     5.07     886.8502     56.27412     122.2844         9     1.190     0.611  61.84   0
       377    474.0385    466.7253 307.7300382  +6.5052284     1354.576     1912.096     2264.093     79.90133     159.6758     319.3198      1.492     4.72     887.3223     56.27412     202.5949        14     1.339     0.759  80.26   0
       378    836.7297    465.8744 307.5793844  +6.5177113     1570.661     2096.112      2466.79     80.28091     159.8026     319.2563      1.463     4.96     882.3028     56.27412     222.0128        13     1.284     0.651  68.05   0
       379    822.2390    464.9607 307.5854355  +6.5176047     2181.245     2896.744     2815.651      79.7744     159.6758     319.1293      1.417     4.15     882.8086     56.27412     380.3972        15     1.268     0.718  66.79   0
       380    621.8054    464.9918 307.6687066  +6.5108921      723.111     1107.782     1310.244      79.3924     159.4217     319.0976      1.471     4.46     885.7359     56.27412     120.3318         7     1.339     0.422  69.48   0
       381    719.6035    463.0243 307.6281418  +6.5149751     15415.21     22429.52     23065.64     79.64726     159.3581     319.0976      1.552     3.97      884.589     56.27412     2319.158        37     1.452     1.017  73.17   0
       382    640.8160    458.9788 307.6610109  +6.5140106     2620.125     3868.407     4466.045     79.64727     159.3581     319.1611      1.467     3.98     885.1307     56.27412     390.6857        18     1.408     0.735  78.14   0
       383    713.4696    457.4352 307.6308781  +6.5170776     718.4193     1126.302      1679.86     79.90133     159.6123     319.3515      2.030     5.76     884.3084     56.27412      105.593         8     1.444     0.647  84.84   0
       384    615.6965    455.7064 307.6715572  +6.5145212     5673.862     9463.348     10063.89     80.02805     160.2459     319.1611      1.744     4.70     885.2981     56.27412     836.1102        22     1.543     0.813  74.01   3
       385    612.0228    453.5543 307.6731559  +6.5152867     15186.79     22429.08     24076.67     79.64726     159.6758     319.0976      1.621     4.07     885.2377     56.27412     2121.914        42     1.644     0.962  71.04   3
       386    944.8065    453.0280 307.5349131  +6.5266213     3900.395     5696.296     5499.811     79.51994     159.4853     319.0658      1.519     4.25     878.4702     56.27412     577.2344        23     1.392     0.843  71.39   0
       387    383.9597    448.9235 307.7680616  +6.5095579     29284.47     44243.73     45816.49     79.90133     159.6758     319.3198      1.590     4.09     887.7748     56.27412     4000.387        49     1.549     1.049  71.31   0
       388    900.3683    448.3868 307.5535316  +6.5270551     1546.199     2289.444     3524.163     79.51994     159.4217     319.1928      2.043     4.42     879.8036     56.27412     251.7274        16     1.461     0.689  59.94   2
       389    130.0096    448.4031 307.8735803  +6.5012440     2456.182     3839.558     3742.884      79.3924     159.3581     319.0976      1.658     4.19     894.4465     56.27412     330.4915        20     1.422     0.904  70.86   0
       390    913.6398    443.4022 307.5481850  +6.5295558     5332.208     7535.643     7390.249      79.1367     159.4217     318.9705      1.550     4.11     879.3467     56.27412     774.2499        24     1.418     0.834  64.75   0
       391     63.4066    443.8707 307.9014025  +6.5008747     1543.401     2429.226     3194.322     79.51994     159.2945     319.1293      1.707     5.55     896.1586     56.27412     231.0702        16     1.486     0.774  67.47   0
       392    969.3823    441.5903 307.5250860  +6.5321630     627.0197     956.1201     910.5632      79.7744     159.4217     319.1293      1.716     4.14     876.6763     56.27412     90.97394         7     1.044     0.468  81.85   0
       393    241.4970    439.4285 307.8275676  +6.5086960     14450.17     21708.92      22004.4     80.15458     159.4217     319.2563      1.662     4.08     890.8721     56.27412     1872.126        42     1.545     1.058  71.50   0
       394    803.5886    440.7823 307.5939964  +6.5269640      450.257     511.6516     114.7323     79.64727     159.3581     319.1611      1.458     4.54     882.6196     56.27412     65.63879         5     1.340     0.438  58.32   0
       395   1014.0049    433.0948 307.5068312  +6.5371579     565.4612     830.5673     1216.741      79.7744     159.3581     319.0023      1.918     4.98     873.4274     56.27412     114.1179         6     1.258     0.558 -60.69   0
       396     76.9694    433.4989 307.8961191  +6.5056129     724.5535     1104.747     1385.957     80.02805     159.4217     319.3515      1.446     4.16      895.335     56.27412     118.4207         6     1.297     0.381  69.12   0
       397    964.7473    431.4549 307.5273518  +6.5361929     1130.621     1682.451     2079.362     80.28091     159.6123     319.2246      1.715     4.93     876.4091     56.27412     169.4833        12     1.316     0.673  57.09   0
       398    704.5811    432.4134 307.6354124  +6.5271107     876.3945     1312.591     1263.476      79.7744     159.4217     319.1611      1.612     4.86     882.9637     56.27412     139.0872         8     1.054     0.634 -87.09   0
       399    736.1843    432.6281 307.6222750  +6.5280784     745.2069     1147.638     1198.688     79.64727     159.4217     319.1611      1.454     3.42      882.877     56.27412     128.6235         6     0.975     0.415  16.35   0
       400    354.2494    429.1694 307.7810713  +6.5167165     1394.392     2271.627     2058.475     79.64727     159.7392     319.1611      1.671     5.27     887.2673     56.27412     213.2997        16     1.478     0.750  81.16   0
       401    187.0509    428.9564 307.8505407  +6.5111899     840.0983     1308.223     1335.329     80.15458     159.6123     319.2881      1.495     5.14     892.5226     56.27412     121.5797         9     1.200     0.692  62.30   0
       402    141.7569    428.1438 307.8693852  +6.5100028     5192.368     7891.146     8261.786     79.90133     159.6758     319.2881      1.627     4.07     893.7564     56.27412     679.5083        27     1.487     0.921  72.77   0
       403    634.7540    426.8897 307.6646093  +6.5270558     634.6779     766.5363     950.3669     80.02805     159.5488     319.3833      1.414     4.69     883.3558     56.27412     117.2878         8     1.179     0.530  71.82   0
       404    246.7793    426.7185 307.8258025  +6.5141205     1394.651     2062.876     1852.453      79.7744     159.3581     319.1928      1.545     4.36      890.197     56.27412     191.2424        16     1.367     0.769  69.13   0
       405    438.7586    426.6640 307.7460460  +6.5205851     728.0976     1040.065     478.0305     80.02805     159.6123     319.3515      1.520     4.03     885.9349     56.27412     140.8499         7     1.094     0.464  63.53   0
       406    163.8844    423.7029 307.8603427  +6.5125800     2403.499     4047.525     3700.219     80.02805     160.0561     319.3198      1.736     4.92     893.3214     56.27412     308.6171        23     1.583     0.878  83.99   0
       407    828.0398    424.6133 307.5843806  +6.5344559     858.3909     786.1837     398.8626     79.51994     159.4853     319.0023      1.309     4.65     881.1005     56.27412     112.7687         8     1.134     0.542  58.08   0
       408    559.1804    422.8865 307.6961425  +6.5261791     1084.424      1603.33     1761.592      79.7744     159.4217     319.1928      1.671     4.24      883.674     56.27412     169.8567        11     1.297     0.695  68.93   0
       409    975.8535    418.1127 307.5231849  +6.5420716     890.1819     1502.118     1165.448     80.02805     159.5488      319.415      1.710     4.81     875.0479     56.27412     174.4991         9     1.359     0.506  70.37   0
       410    387.2439    418.7170 307.7677162  +6.5221386     2137.479     3313.857       3285.3     80.02805     159.6758     319.2246      1.621     4.21     886.2958     56.27412     285.9122        21     1.399     0.950  79.08   0
       411    275.5949    419.2596 307.8140831  +6.5181676     726.0861     1022.112     448.2984     79.51994     159.5488     319.0341      1.288     4.13     889.0135     56.27412     108.0675         7     1.049     0.464  80.16   0
       412      6.4929    419.0934 307.9258850  +6.5091878     609.6476     1053.065     916.4506     80.02805     160.1827     307.4525      1.768     4.53     898.7934     56.27412     112.2357         7     1.212     0.564  67.24  16
       413     37.5386    413.0699 307.9131915  +6.5127196     3131.204     5182.597     5506.702     80.15458     159.6758     319.3198      1.797     4.22     896.8904     56.27412     452.6075        25     1.533     1.039  89.68   0
       414    321.2576    415.6565 307.7952340  +6.5211881     584.6481     766.8883      850.198     80.15458     159.7392     319.2881      1.432     3.97     887.5895     56.27412     86.36499         6     1.108     0.406  13.78   0
       415    441.1403    412.2168 307.7455436  +6.5266294     7450.118     11379.88     12086.76     79.51994     159.6123     319.0023      1.629     4.22       885.16     56.27412     1024.811        32     1.512     0.954  69.00   0
       416    781.7801    409.6633 307.6041029  +6.5390831     13533.19     19317.48     19878.45     79.64727     159.6758     319.0976      1.552     4.22     881.6551     56.27412      1832.21        34     1.480     0.898  69.45   0
       417    773.8196    411.1931 307.6073589  +6.5381855     2216.024     3081.992     3198.172     79.64726     159.4217     319.0658      1.468     4.39     881.7218     56.27412     348.1376        17     1.273     0.776  64.58   0
       418    345.2212    408.1528 307.7855314  +6.5250901     1067.164     1644.542     1656.804     79.64726     159.6758     319.0976      1.623     4.57     886.5798     56.27412     163.4153        13     1.192     0.775  70.55   0
       419    956.6816    401.4983 307.5317079  +6.5482917     585.1237     909.7281     1010.427     79.90133     160.0561     319.3515      1.531     3.36     875.8624     56.27412     110.4589         5     1.060     0.309  69.88   0
       420    906.6721    399.7987 307.5525434  +6.5473253     449.9188     714.0649    -478.3261     79.51994     159.2309     319.0976      1.388     3.46      878.011     56.27412     107.3217         5     1.559     0.222  62.69   0
       421    190.0789    400.2111 307.8502545  +6.5231588     837.8027     1316.002     1286.916     79.64726     159.3581     319.0976      1.504     5.05     891.5302     56.27412     128.7065        11     1.240     0.641  69.82   0
       422    395.8256    399.1656 307.7648105  +6.5304980     563.6333     558.6401     742.2656      79.3924     159.4217     319.0341      1.402     4.44     885.2465     56.27412     83.62067         5     0.775     0.723  68.27   0
       423    489.3174    395.9360 307.7260765  +6.5349655     3174.998     4868.945     5279.437     80.15458     159.8026     319.2881      1.697     4.06     883.3502     56.27412     421.9028        23     1.473     0.879  76.03   0
       424    461.5040    396.4481 307.7376149  +6.5338220     2371.968     3497.056     3925.832     79.90133     159.5488      319.415      1.587     4.25     883.8566     56.27412     321.8472        17     1.425     0.748  68.18   0
       425    917.9106    395.4013 307.5480215  +6.5495157     877.4083     607.5856    -137.7519     79.26465     159.2309     319.0341      1.327     4.81     877.5259     56.27412     109.6409         9     0.939     0.698  65.51   0
       426    847.1035    392.6045 307.5775351  +6.5483074     33866.04     51256.44     53355.65      79.7744     159.3581     318.9705      1.590     4.17     879.4626     56.27412     4708.488        53     1.597     1.011  77.05   0
       427    339.1556    388.1931 307.7887252  +6.5331268     992.4236     1608.194     1202.615     79.51994     159.4853     318.9388      1.752     5.80     885.9536     56.27412     165.0271        12     1.470     0.785  71.29   0
       428     64.3844    387.8313 307.9028930  +6.5240424     529.1282     750.0595     468.5833     79.64727     159.4217     319.1928      1.450     3.48     894.8596     56.27412     74.38678         5     0.772     0.454 -73.76   0
       429    618.9658    384.9441 307.6725808  +6.5438447     2761.047     4131.606     4269.258     79.90133     159.6758     319.2563      1.573     3.97     881.5933     56.27412     369.4886        21     1.417     0.864  58.35   0
       430     27.1561    385.1125 307.9184514  +6.5239118     1064.581     1482.006     1564.074     80.02805     159.5488     319.2881      1.515     5.34     895.8017     56.27412     161.7809        11     1.274     0.631  74.38   0
       431    703.5378    378.5700 307.6376568  +6.5493051     83306.43     120415.9     124479.3      79.7744     159.6758     319.2246      1.602     4.04     881.0507     56.27412     11156.79        69     1.563     1.039  70.15   0
       432    150.3897    382.6561 307.8673370  +6.5290719     620.0805     936.0871     850.5107      79.3924     159.6123     318.9388      1.385     4.03     892.6513     56.27412     105.0873         6     1.056     0.440  34.04   0
       433    861.7977    380.1630 307.5718476  +6.5539344     1294.124     1942.458     2241.233      79.1367     159.4853     319.0658      1.599     4.70      878.798     56.27412      228.009        11     1.231     0.559  65.34   0
       434     82.6344    377.9887 307.8956441  +6.5287199     1391.547     2224.123     1843.644     79.51994     159.4853     319.0658      1.601     4.55     894.1544     56.27412     206.1507        16     1.366     0.749  65.92   0
       435    566.0808    375.2664 307.6948794  +6.5460700     2658.555     4011.002      4488.32     80.15458      159.866     319.2881      1.615     4.30     881.3605     56.27412      343.491        22     1.442     0.887  69.21   0
       436    945.0891    375.3281 307.5374026  +6.5587096     920.4629     1281.189     965.0215     80.02805     159.9294     319.2563      1.419     5.08     875.5871     56.27412     151.4009         9     1.076     0.677  58.28   0
       437    103.2406    374.0603 307.8872161  +6.5310349     6218.284     9709.281     10371.79     80.02805     159.6758     319.3198      1.664     4.16     893.6824     56.27412     912.3798        32     1.538     1.004  75.59   0
       438    549.2606    371.4721 307.7019957  +6.5470732     7655.358     11024.65        11392     80.15458     159.6758     319.3198      1.579     3.82     881.2626     56.27412     1076.255        27     1.418     0.919  73.09   0
       439    278.2081    368.9849 307.8146954  +6.5390107     2576.972     4085.122     3819.002     79.64727     159.4217     319.0976      1.716     4.26     886.8546     56.27412     380.8168        22     1.460     0.884  65.84   0
       440    412.2255    366.6391 307.7590940  +6.5444764     26120.28     39517.53     40720.84     79.64727     159.4853     319.0658      1.638     4.07     883.4138     56.27412      3554.98        47     1.548     1.037  70.90   0
       441    520.0189    365.3027 307.7143530  +6.5486409     1424.302      1871.76     1777.858     79.90132     159.5488     319.0023      1.452     4.80     881.1667     56.27412     185.8509        14     1.348     0.681  76.73   0
       442    591.0020    365.5714 307.6848515  +6.5509068     672.1525     1158.267     1123.582     79.51994     159.4217     319.0658      1.503     4.19     880.8286     56.27412     102.6312         6     1.115     0.450 -73.02   0
       443    391.9949    364.5482 307.7675699  +6.5446611     1176.505     1908.105     1980.326      79.3924     159.4217      318.907      1.790     5.28     883.7885     56.27412     156.3641        14     1.414     0.716  70.16   0
       444    491.3458    361.5277 307.7263934  +6.5492387     1352.049     1955.672     2139.421     79.90133     159.5488     319.1928      1.641     4.59     881.1461     56.27412     205.1978        12     1.294     0.694  65.32   0
       445    806.9033    359.5848 307.5953473  +6.5605973      793.386     1266.131     1178.246      79.7744     159.4217     319.0341      1.542     5.13     879.2703     56.27412      127.936        10     1.259     0.590  72.17   0
       446    388.9569    359.0089 307.7690190  +6.5468460     759.1276     1148.565     1188.152     79.51994     159.4853     319.0023      1.601     5.69     883.5925     56.27412     94.84845         9     1.259     0.726  87.18   0
       447    642.8370    358.6871 307.6635463  +6.5554836     566.9807     1060.695     858.4078     80.02805     159.6123     319.2563      1.630     4.46      880.539     56.27412     96.29376         8     1.092     0.519  52.84   0
       448    501.2917    356.9988 307.7224137  +6.5514417     8564.634     13153.83     13656.22     79.26465     159.2945     319.0341      1.603     4.06     880.7979     56.27412     1229.253        33     1.479     0.989  70.18   0
       449    770.5289    355.8650 307.6105858  +6.5609179     3138.241     4608.592     4845.899     80.02805     159.7392     319.2881      1.593     4.97     879.6631     56.27412     449.8173        17     1.360     0.782  68.62   0
       450    925.9475    355.3999 307.5460246  +6.5662986     874.2307     1091.721     534.2029     79.26465     159.1673     318.7798      1.500     4.54      875.408     56.27412     158.9029         8     1.201     0.488  63.96   0
       451    717.9199    355.1333 307.6324694  +6.5594617     696.1182     1089.364     1251.387     80.15458      159.866     319.2563      1.857     4.52       880.29     56.27412     115.5232         5     1.204     0.481  70.04   0
       452    327.9351    353.6025 307.7945547  +6.5470306     1135.511     1509.374     1265.172      79.3924     159.4853     319.0341      1.438     4.02     884.8489     56.27412      163.088        11     1.070     0.676  72.15   0
       453    263.5695    347.5401 307.8215017  +6.5473724     648.3941     841.1226     864.3441      79.7744     159.6758     319.2246      1.650     4.03     886.7053     56.27412     105.8562         5     1.226     0.379  52.99   0
       454    163.6153    347.3966 307.8630347  +6.5440729     1068.592     1536.939     1003.674     79.64727     159.2945     319.0976      1.503     3.99     891.3785     56.27412     154.1758        11     1.136     0.717  67.15   0
       455    610.6031    346.5480 307.6773479  +6.5594166     439.8295     611.5529     615.1442      79.3924     159.4853     318.8116      1.128     3.49     879.6873     56.27412     80.38727         5     1.131     0.312 -69.71   0
       456    391.1949    341.2581 307.7686881  +6.5542494     7416.484     11181.46     11279.84     79.51994     159.5488     318.9705      1.618     4.22      882.908     56.27412     1018.311        28     1.510     0.924  68.43   0
       457    246.8896    341.6890 307.8286295  +6.5492277     2153.831     3173.584     3661.714      79.7744     160.1827     319.3515      1.684     4.61     887.3643     56.27412     280.8268        18     1.380     0.811  71.21   0
       458    744.8730    341.1162 307.6217417  +6.5661496     857.0631     1304.028     1464.209     80.15458     159.9928     319.2881      1.761     5.63       879.28     56.27412     120.6475        12     1.383     0.647  73.35   0
       459    680.0336    342.0523 307.6486510  +6.5635954     500.2054     690.5083      366.804     79.90133     159.6123     319.1611      1.498     3.80     879.5972     56.27412     76.10016         5     1.040     0.398  58.27   0
       460    759.0369    337.1398 307.6159902  +6.5682646     56140.36     81641.87     84915.78     80.02805     159.7392     319.2246      1.551     4.31     878.8679     56.27412     7623.708        63     1.555     1.031  70.55   0
       461    430.7425    336.6014 307.7524137  +6.5574981     2341.924     3715.452     3377.867      79.3924     159.3581     318.9705      1.701     4.30     881.5798     56.27412      337.622        23     1.449     1.046  77.32   0
       462    576.8056    334.0128 307.6918127  +6.5634604     1353.699     1796.641     1562.741     79.64727     159.4217     319.1293      1.479     5.03     879.0731     56.27412     185.0941        13     1.341     0.664  79.08   0
       463    993.9273    334.2056 307.5184894  +6.5773157     1803.183     2459.317     2287.282     79.64726     159.2309     319.1611      1.441     4.17     872.4576     56.27412     285.9794        14     1.201     0.719  69.32   0
       464    934.8473    333.2599 307.5430697  +6.5757361     2533.122     3631.056     3900.334     80.02805     159.6758     319.3198      1.547     4.25     874.2188     56.27412     372.8565        16     1.327     0.722  70.10   0
       465    467.7836    332.8787 307.7371490  +6.5602767     1008.218     1702.759     2451.084     79.64726     159.4217     319.1293      2.720     4.81     879.9988     56.27412     155.3478        13     1.365     0.759  71.25   0
       466    296.9807    331.5189 307.8081613  +6.5551085     729.7815     836.3396     894.0002     79.64726     159.3581     319.1928      1.406     4.63     885.0144     56.27412     87.05457         8     0.871     0.698  83.39   0
       467    838.4244    326.7694 307.5833525  +6.5751978     1220.004     1766.453     1315.787     79.51994     159.5488     319.0658      1.544     5.24     877.3969     56.27412     182.7338        13     1.336     0.659  63.71   0
       468    417.1725    332.1909 307.7582006  +6.5588640     1948.445      2830.48     2628.721     79.64726     159.4853     319.1293      1.608     4.40     881.9446     56.27412      281.903        19     1.470     0.817  84.57   0
       469    193.6626    323.4494 307.8513606  +6.5549692     2483.614     3602.835     4079.922     80.02805     159.6123     319.3198      1.699     4.21     889.5092     56.27412     351.1686        18     1.454     0.767  73.01   0
       470    757.5891    321.6821 307.6171115  +6.5745980     6310.907     9433.285     10265.08     79.64727     159.3581     319.0976      1.638     4.15     878.0479     56.27412     935.0829        27     1.474     0.871  73.38   0
       471    447.7067    323.4122 307.7458100  +6.5635119     1114.954     1799.308     2297.654      79.7744     159.4217     319.0658      1.822     5.51      880.347     56.27412     181.6423        12     1.363     0.627  65.48   0
       472    228.8081    320.9028 307.8368444  +6.5572015     687.0227     1157.503     657.3719      79.7744     159.2945     319.0341      1.648     3.48     887.8246     56.27412     120.5775         6     0.788     0.558 -55.37   2
       473    773.8086    319.6514 307.6104403  +6.5759783     2771.757      3864.66     3470.499     79.51994     159.5488     318.9388      1.502     4.44     877.8068     56.27412     408.3707        18     1.354     0.801  75.99   0
       474    348.5952    321.7313 307.7870467  +6.5608817     632.8993     1089.438     1127.408     79.51994     159.2945     319.0658      1.499     5.18     883.4518     56.27412     96.42786         8     1.099     0.691 -56.57   0
       475     90.0545    320.3762 307.8945110  +6.5527538     972.7279     1291.513     786.9106     79.64726     159.6758     319.0658      1.370     4.72     893.4643     56.27412     151.1776         9     1.113     0.567  62.74   0
       476    363.4223    314.3205 307.7811363  +6.5644386     1621.797     3475.081     3389.782     79.64727     159.3581     319.2246      2.191     6.67     882.8453     56.27412     206.1481        25     1.557     1.193  15.26   0
       477     77.2037    314.5085 307.9000488  +6.5547438     1289.178     1992.564      1944.46     79.64727     159.3581     319.0341      1.753     4.22     893.5252     56.27412     217.7915        12     1.191     0.700  67.34   0
       478   1012.1147    310.6084 307.5117236  +6.5876641     6216.531     8749.989     8972.749     79.64727     159.3581     319.0976      1.535     4.35     870.5634     56.27412     868.5437        23     1.390     0.837  70.10   0
       479    490.0985    310.2379 307.7286405  +6.5703716     2115.616     3097.397     3062.489     80.02805     159.5488     319.4785      1.571     4.20     878.2188     56.27412     270.6124        18     1.420     0.795  62.32   0
       480    252.7545    305.9552 307.8274001  +6.5641769      5821.13     9103.587     9552.314     80.02805     159.6758     319.2246      1.645     4.19     886.3891     56.27412     752.6123        29     1.602     0.896  70.07   0
       481    920.6689    305.2948 307.5498996  +6.5868086      624.693     843.3593     821.9663     79.90133     159.7392     319.2881      1.483     3.34     873.6631     56.27412     146.9481         5     1.001     0.323  68.82   0
       482    817.5593    304.4279 307.5927729  +6.5837248     597.7574     783.2007     1114.709     79.64727     159.4853     319.0976      1.436     3.78       876.62     56.27412     116.2496         6     0.964     0.425  72.71   0
       483    944.3349    301.8054 307.5401830  +6.5890386     423.1986     877.3976     733.4408     79.51994     159.4217     319.0341      1.780     4.24     872.6462     56.27412     90.23596         5     1.220     0.421  79.25   0
       484    771.9943    299.2267 307.6118808  +6.5843500     768.3411     1074.974     1161.286     79.51994     159.4853     319.0658      1.380     3.18     876.7345     56.27412     150.1337         8     0.956     0.590  66.24   0
       485    386.9435    296.8911 307.7719516  +6.5724233      1638.15      2615.39     2723.491     79.90133     159.5488     319.3515      1.693     6.54     881.6758     56.27412     222.8555        16     1.528     0.786  70.47   0
       486    229.3447    298.1334 307.8373909  +6.5666196     557.9237     674.7812     426.0197     80.15458     159.5488     319.2246      1.230     3.67     887.4229     56.27412     94.30109         5     1.454     0.267  49.39   0
       487    973.9799    295.6740 307.5280705  +6.5925586     1009.145     1353.091     977.6218     79.64726     159.6123     319.1928      1.485     4.98     871.2003     56.27412      132.387        10     1.317     0.533  63.04   0
       488    193.2759    294.3223 307.8525059  +6.5669809     612.7628     690.9358     1216.169     80.28091     159.9294     319.3198      1.529     4.92     889.0305     56.27412     95.76263         6     1.102     0.622  72.73   0
       489    309.2158    292.6744 307.8043896  +6.5715557     1133.321     1628.131     1491.569     79.51994     159.4217     319.1293      1.526     4.83     883.7662     56.27412     156.2761        10     1.202     0.584  74.71   0
       490    156.7273    292.6140 307.8677492  +6.5664574     1982.384     2887.994      2838.98     79.51994     159.4217     319.1293      1.596     4.39     890.6517     56.27412     274.4373        15     1.177     0.809  76.19   0
       491    566.3704    288.1737 307.6976926  +6.5820356     2253.784     3217.376     3252.846     79.51994     159.4853     319.0976      1.548     4.15     876.3668     56.27412     317.4195        18     1.324     0.804  65.45   0
       492    909.5504    287.2887 307.5551241  +6.5938715     1786.737     2763.417     3231.241     80.02805     159.4853     319.3833      1.709     4.79     873.3617     56.27412       312.45        16     1.489     0.893  43.40   0
       493    729.9101    285.9391 307.6298143  +6.5884294     5321.344     7600.543     7460.847     79.90133     159.8026     319.3198      1.532     4.46     876.0475     56.27412     721.9642        25     1.441     0.830  71.02   0
       494    670.7816    285.7518 307.6543897  +6.5865296     2247.325     3356.519     3721.607     79.51994     159.7392     319.0658      1.548     4.15      875.308     56.27412     348.7941        16     1.342     0.699  74.09   0
       495    967.8500    285.7310 307.5309512  +6.5964592     838.0566     892.3181     706.2952     79.90133     159.6123     319.2563      1.427     5.12     870.9728     56.27412     125.0361        10     1.157     0.640  69.34   0
       496    385.4380    280.0822 307.7731443  +6.5793122     633.9879     1138.632      680.992     80.02805     159.7392     319.2246      1.781     5.49     881.1171     56.27412     100.9659         7     1.347     0.631  58.98   0
       497    925.9631    278.0247 307.5486151  +6.5982437      1145.75     1741.045     1365.522     79.64727     159.4853     319.0023      1.441     5.23     872.3786     56.27412     175.0052        11     1.422     0.543  70.97   0
       498    229.4698    271.0316 307.8382549  +6.5778124     2338.362     3554.913     3569.327     79.90132     159.6758     319.2563      1.673     4.03     886.9299     56.27412     332.0312        19     1.328     0.874  73.92   0
       499    872.3472    270.1078 307.5711600  +6.5997231     1767.222     2474.216     2488.941     79.90133     159.5488     319.4785      1.445     3.89     873.9472     56.27412     273.7747        13     1.302     0.641  68.62   0
       500    762.5432    269.4511 307.6168089  +6.5963271     1881.991     2768.521      2905.72     80.02805     159.6758     319.2563      1.621     4.78     875.6973     56.27412     275.6516        17     1.464     0.739  72.45   0
       501    583.3745    265.5254 307.6913899  +6.5919551     529.0116     832.0315     890.6915     79.64727     159.4853     319.2246      1.664     4.13     875.1398     56.27412     96.19757         6     1.080     0.450  54.18   0
       502    463.3643    260.9820 307.7414094  +6.5898106     22987.12     35400.59      37194.9     79.51994     159.4853     319.0341      1.647     4.22      876.438     56.27412     3161.558        52     1.620     1.060  72.50   0
       503    250.8772    264.6111 307.8295771  +6.5811822     612.3923     1010.813     684.7983     79.64727     159.2945     319.0976      1.673     4.78     885.8051     56.27412     84.70868         6     0.953     0.681  77.50   0
       504    789.3740    260.1497 307.6059726  +6.6010636     13692.85     20431.31     21869.83     79.64727     159.7392     319.1611      1.610     4.33     875.4638     56.27412     1979.543        47     1.521     1.222  61.72   0
       505    324.0725    262.5447 307.7992340  +6.5844932     574.9365     978.6995     643.0809     79.90132     159.5488     319.2246      1.918     4.27     882.7385     56.27412     97.15271         5     1.181     0.439  61.61   0
       506    727.9307    255.5165 307.6316600  +6.6009231     581.5384     812.5471     339.5331     80.28091     159.9294     319.2881      1.318     4.51     875.2534     56.27412     147.8649         8     1.514     0.382  60.96   0
       507    469.0180    255.4207 307.7392478  +6.5922961      1399.61     2066.837     2163.246      79.7744     159.5488     319.1611      1.549     4.12     875.7423     56.27412     171.5037        15     1.264     0.813  77.29   0
       508    151.5992    254.2334 307.8711780  +6.5821298     2372.867     3620.522     3297.127      79.1367     159.4853     319.0023      1.654     4.45     889.2024     56.27412     310.7383        18     1.488     0.783  71.48   0
       509    126.3328    253.0330 307.8817167  +6.5817756     1251.557     1789.881     1892.468     79.90132     159.7392     319.2246      1.598     3.79     890.3171     56.27412     187.8192        13     1.233     0.726  74.12   0
       510    781.7620    253.3843 307.6093630  +6.6036024     561.8126     847.6483     1189.548      79.7744     159.4853     319.0023      1.641     3.39     875.2822     56.27412     87.38379         5     0.741     0.449 -18.54   0
       511    178.4893    252.4059 307.8600670  +6.5837884     556.5162     751.7308     746.3989     79.51994     159.3581     319.0023      1.642     3.79     888.1893     56.27412     98.83978         6     0.958     0.429  72.63   0
       512    925.7620    250.5690 307.5496202  +6.6095722     1537.966      2232.07     2362.077     79.64727     159.4217     319.0976      1.592     3.92     871.2444     56.27412     236.3103        16     1.373     0.679  64.15   0
       513    587.3709    246.7996 307.6903600  +6.5998197     4892.957     7318.297     6996.617      79.3924     159.4853     319.0658      1.569     4.40     874.4166     56.27412     702.4949        27     1.469     0.926  73.32   0
       514    307.7068    247.4000 307.8065455  +6.5901961     1044.474      1462.45     1147.048     79.51994     159.2945      318.907      1.531     6.10      883.109     56.27412     138.4545        12     1.178     0.888  62.48   0
       515    550.0193    246.6351 307.7058861  +6.5986370      2087.63      3302.35     3102.082     79.51994     159.4853     319.0341      1.647     3.80     874.5009     56.27412     346.5808        19     1.397     0.827  71.41   0
       516    392.0639    245.8296 307.7715470  +6.5936753      1500.47     2084.187     2046.683      79.7744     159.6758     319.1928      1.448     4.05      879.389     56.27412     212.7509        14     1.340     0.686  61.94   0
       517    894.4506    243.3996 307.5628721  +6.6114873     11949.58     16880.31     17515.53     79.26466     159.2309     318.8116      1.523     3.99     871.9078     56.27412     1816.818        32     1.440     0.902  68.81   0
       518    948.2882    243.9464 307.5404819  +6.6130577     2867.567     4089.688     4367.748     80.02805     159.5488     319.3833      1.505     3.79     870.0077     56.27412     444.7692        17     1.277     0.759  72.94   0
       519    569.4922    243.1289 307.6979127  +6.6007366     814.6374     932.2661     955.4852     79.90132     159.8026     319.2881      1.454     4.33     874.2782     56.27412     109.9788         8     1.187     0.450  78.58   0
       520    322.0954    243.5111 307.8006982  +6.5922846     998.6345     1597.951     1366.666     80.02805     160.0561     319.3198      1.704     5.75      882.463     56.27412     137.4418        12     1.095     0.851  69.02   0
       521    213.6180    243.3345 307.8457776  +6.5887141     741.9639     1236.887     1571.014     79.64727     159.6758     319.1611      1.779     4.52     886.8716     56.27412     103.6465         7     1.199     0.485  88.29   0
       522    981.1088    241.1956 307.5269358  +6.6152879     10431.28     14837.12     14722.06     79.64726     159.3581     318.9705      1.519     4.26     868.3984     56.27412     1519.302        33     1.435     0.895  68.65   0
       523    692.4752    241.1414 307.6468764  +6.6056724     2959.138     4505.867     4558.073     80.15458     159.6758     319.2246      1.644     4.06     874.4626     56.27412      435.061        21     1.484     0.827  70.06   0
       524    267.0294    240.8935 307.8236672  +6.5915162     1083.475     1699.305     1694.739     80.15458     159.4217     319.1611      1.670     5.42      884.782     56.27412     147.3022        14     1.503     0.736  70.77   0
       525     20.6141    239.8313 307.9260892  +6.5836679     25994.76     39986.38     41454.79     79.64727     159.4217     319.1928      1.634     4.04     894.3411     56.27412     3401.417        46     1.561     1.036  69.33   0
       526    501.0680    235.8572 307.7265898  +6.6014468     2010.911      3079.75     3782.198     80.15458     159.6123     319.2246      1.748     4.28     873.9027     56.27412     305.5482        15     1.312     0.722  70.93   0
       527    833.0839    232.7137 307.5887314  +6.6138505     2157.896     2793.459     2865.298      79.7744      159.866     319.2881      1.439     4.55     873.5328     56.27412     313.9219        15     1.244     0.708  72.06   0
       528    513.0944    231.9464 307.7217244  +6.6034643     2599.247     3913.832     4100.573     79.90133     159.6123     319.5102      1.571     4.05     873.6624     56.27412     365.0117        20     1.372     0.885  85.31   0
       529    885.4764    231.7748 307.5669916  +6.6159871     2259.995     3361.242      3182.33     79.64727     159.6123     319.2246      1.555     3.88     871.6594     56.27412     363.8436        18     1.342     0.842  74.70   0
       530    744.6483    229.2744 307.6255957  +6.6123159     42293.87     60759.18     63088.79     79.90133     159.7392     319.2881      1.560     4.03     874.6595     56.27412     6232.354        58     1.527     1.027  70.65   0
       531    347.6552    228.6014 307.7905811  +6.5992978     5958.507     12091.54     13332.12      79.3924     159.4217     318.9388      2.158     6.51     880.9427     56.27412     678.9105        46     2.149     1.102 -89.78   0
       532    978.5013    228.1647 307.5284565  +6.6205808     2995.669     4132.804     4051.297     80.02805     159.5488     319.4467      1.482     4.02     867.9031     56.27412     457.7279        17     1.357     0.739  64.43   0
       533   1016.8710    226.9037 307.5125542  +6.6223805     1817.855      2413.24     2294.153     79.90133     159.8026     318.3345      1.421     4.88     866.1164     56.27412     248.3369        14     1.255     0.722  76.39  16
       534    912.5696    226.3933 307.5559138  +6.6191130     8056.755     11530.58     12150.19      79.3924     159.4853     319.0341      1.565     4.03     870.5673     56.27412     1223.985        28     1.432     0.876  67.18   0
       535    456.0316    225.5061 307.7456527  +6.6042107     5260.569     7914.556      8484.33     80.15458     159.4853     319.3198      1.658     4.13     874.8104     56.27412     665.7947        28     1.503     0.955  72.27   0
       536    230.7109    222.0231 307.8393957  +6.5980865     697.9701     1088.214     1439.743     80.02805     159.4853     319.1293      1.810     3.84     885.9938     56.27412     138.0847         5     1.171     0.361  75.78   0
       537    113.4119    216.6300 307.8883171  +6.5963693     4851.633     7309.432      7226.77     79.51994     159.4217     319.1293      1.588     4.11     889.6171     56.27412      688.978        26     1.466     0.899  72.00   0
       538    933.0773    216.0053 307.5477405  +6.6240859     793.7369     1104.434     1548.914     79.64727     159.1673     319.0976      1.426     4.92     869.4811     56.27412     135.4269         6     0.969     0.707  78.50   0
       539    258.9716    214.4636 307.8279084  +6.6021568     6649.252     10123.01     10802.56     79.64726     159.6758     319.1928      1.638     4.21     884.9028     56.27412     930.8786        28     1.537     0.929  68.91   0
       540    283.7393    213.4031 307.8176528  +6.6034264     34741.02     53190.61     55783.08      79.3924     159.4217     318.9705      1.666     4.05     883.9287     56.27412     4530.082        57     1.605     1.098  68.39   0
       541    899.3909    214.9300 307.5617751  +6.6234059      512.931     675.3664     600.7487     79.51994     159.4217     319.1293      1.495     5.89     870.4484     56.27412       75.125         7     1.164     0.838 -64.28   0
       542    610.1902    214.4710 307.6819666  +6.6139303     694.7574      1173.19     1334.551     79.51994     159.2945     319.0976      1.747     4.66     873.5862     56.27412     95.19489         6     1.170     0.528  47.26   0
       543    712.9268    213.1341 307.6393202  +6.6179190     1089.692      1575.79     1799.241     80.15458     159.7392     319.2563      1.570     5.12     873.6619     56.27412     160.2662        11     1.241     0.597  64.52   0
       544     75.2149    213.1868 307.9043048  +6.5965055     397.3024     546.9905     1199.055     79.90132     159.3581     319.1928      1.144     4.59      891.437     56.27412     69.83752         5     1.304     0.459 -60.77   0
       545    407.8168    208.8787 307.7662482  +6.6094585     51038.27     78229.36     81268.31     79.64726     159.4217     319.1611      1.636     4.07     876.6434     56.27412     6681.466        66     1.633     1.096  72.99   0
       546    163.7473    210.1276 307.8676222  +6.6007466     4016.312     6352.306     6398.852     79.90133     159.6758     319.2881      1.648     4.04     887.1574     56.27412     509.2852        27     1.540     0.929  73.06   0
       547    425.1962    209.1838 307.7590162  +6.6099154     1542.374     2331.881     2414.744     79.64726     159.2945     319.0976      1.647     4.47     875.6627     56.27412     191.0204        17     1.350     0.805  62.73   0
       548    311.8175    206.5590 307.8062168  +6.6071947     18532.69     28408.35     29587.91     79.51994     159.4853     319.0658      1.661     4.04     882.5045     56.27412     2456.765        47     1.588     1.055  69.37   0
       549    747.0882    205.1878 307.6253918  +6.6223416     34267.83     50146.04     52125.79     79.64726     159.4217     319.1293      1.562     4.25     873.1234     56.27412     4788.432        52     1.528     0.992  71.09   0
       550    695.2407    206.7120 307.6468856  +6.6199790     1096.223     1556.154     1269.183     80.02805     159.6123     319.2881      1.495     4.15      873.392     56.27412     179.7135        13     1.187     0.875  52.71   0
       551    319.2613    206.2260 307.8031350  +6.6075821     2308.592     3784.294     4167.609     79.64727     159.6758     319.1611      1.808     4.68      882.123     56.27412     302.3314        23     1.609     0.971  82.89   0
       552    795.4120    205.5614 307.6052984  +6.6238021     1177.598     1580.178     1716.659     79.51994     159.4853     318.9705      1.602     4.81     873.1362     56.27412     177.1097        13     1.419     0.624  58.99   0
       553     34.5272    205.4866 307.9214714  +6.5983147      605.214     945.6603     876.4392     80.15458     159.9294     319.2563      1.749     5.37     893.3091     56.27412       97.117         8     1.394     0.585  74.99   0
       554    571.3782    203.9610 307.6984485  +6.6169700     445.3365     963.8624      1423.02     79.64726     159.4853     319.0341      1.618     3.48     872.8181     56.27412     80.85529         5     1.776     0.197  54.38   0
       555     63.9503    202.2130 307.9093568  +6.6006567      9352.39     14135.24     15187.38      79.3924     159.6123     318.9705      1.601     3.87      891.804     56.27412     1289.665        36     1.553     1.001  68.53   0
       556     97.8276    200.3761 307.8953426  +6.6025550     1592.197     2382.432     2436.062     79.51994     159.5488     319.0976      1.642     4.99     890.0798     56.27412     212.9855        15     1.445     0.789  80.35   0
       557   1005.6847    199.7704 307.5181128  +6.6332097     1112.562     1538.082     2099.686     80.02805     159.4853     319.1293      1.493     5.74     866.0236     56.27412     183.2246        13     1.389     0.669  61.01   0
       558    973.1526    198.9758 307.5316585  +6.6324531     545.1997     1070.669     1101.308     79.64727     159.6758     319.1293      1.909     4.00     867.2326     56.27412     90.81177         6     1.274     0.360  89.86   0
       559    731.5922    192.8515 307.6322461  +6.6269166     626.4153     954.6558     958.9467     79.51994     159.4853      318.907      1.529     4.14     872.3503     56.27412     112.9347         7     1.096     0.446  42.56   0
       560   1008.3415    191.4394 307.5172882  +6.6367377     601.3216     958.7265     1427.316     80.02805     159.7392     319.3515      1.603     3.44     865.7733     56.27412     94.24146         5     1.115     0.307  70.32   1
       561    581.1486    189.3348 307.6948812  +6.6233354     848.4522     1369.914      1025.42     80.02805     159.6123     319.2563      1.517     5.08     872.5172     56.27412     157.2958        10     1.277     0.571  67.47   0
       562   1006.5929    185.7996 307.5182040  +6.6390078     2234.908     3469.657     3842.981      79.3924     159.3581     319.0658      1.745     4.35     865.7089     56.27412     338.1687        19     1.449     0.816  59.51   0
       563    589.4977    183.3665 307.6916127  +6.6260789     1149.576      1716.75     1827.111     80.02805     159.5488     319.3833      1.662     4.42     872.4942     56.27412     168.5726        12     1.309     0.682  87.87   0
       564    282.6645    179.6864 307.8192384  +6.6173098     31355.58     47774.88     50577.68     80.02805     159.8661     319.2563      1.665     4.03     883.9677     56.27412     3983.046        55     1.596     1.083  72.50   0
       565     27.8146    178.4027 307.9251779  +6.6092697     4450.021     7040.871     8272.451     79.64727     159.3581     319.0976      1.829     4.67      893.118     56.27412     602.4702        33     1.915     1.117 -89.74   0
       566    597.9035    181.4641 307.6881838  +6.6271457     2076.616     2976.951     3414.939     79.90132     159.8026     319.2881      1.566     3.90      872.617     56.27412     303.9913        16     1.349     0.700  69.06   0
       567    342.0648    181.8011 307.7944842  +6.6184311     1134.351     1661.117     1619.891      79.3924     159.3581     319.0023      1.504     4.25     880.5812     56.27412     182.2846        11     1.191     0.674  77.56   0
       568    191.7411    177.2239 307.8571030  +6.6152714      918.204     1447.843     590.4664     79.64727     159.6758     319.1293      1.642     5.86     886.4315     56.27412      130.274        12     1.634     0.591  71.96   0
       569   1007.3673    177.4261 307.5181631  +6.6424906     430.0676      488.257     259.9609     79.51994     159.4217     319.0658      1.182     4.15     865.5308     56.27412     86.10089         5     1.021     0.481  88.18   0
       570    714.2954    176.3712 307.6399882  +6.6331422     8551.844     12207.56     13038.87     80.15458     159.4217     319.2246      1.564     3.91     871.6713     56.27412     1172.999        27     1.421     0.873  71.90   0
       571    125.0771    173.3716 307.8849339  +6.6146201     5017.465     7710.501      8076.73     79.90132     159.6758     319.2563      1.624     4.13     888.3383     56.27412     665.7596        27     1.505     0.915  76.32   0
       572    268.4800    174.5244 307.8253070  +6.6189644     826.8555     1105.462     1151.018     80.28091     159.9294     319.3833      1.678     3.66     884.5521     56.27412     158.4858         6     1.026     0.376  69.82   0
       573    587.0359    171.2629 307.6930434  +6.6309934     855.0739     1307.299     1360.507     79.90133     159.6758     319.2563      1.616     4.60     872.1186     56.27412     163.5651         8     1.137     0.656  54.61   0
       574    395.7485    169.5206 307.7725912  +6.6253022     4051.887      6503.45     6558.691     80.02805     159.7392     319.2563      1.716     4.36     875.5241     56.27412     536.4147        29     1.591     0.970  69.70   0
       575    652.8046    170.4083 307.6657418  +6.6335473     816.5806     1111.966     999.6926      79.3924     159.4217     319.0976      1.349     5.09     872.5874     56.27412     123.1951         9     1.356     0.541  63.90   0
       576    464.0963    170.2040 307.7441666  +6.6273120      1407.77     2204.555     2025.088      79.7744     159.3581     318.9388      1.612     4.76     872.7661     56.27412     205.2466        14     1.341     0.675  63.63   0
       577    360.2743    168.2884 307.7873737  +6.6246207      3348.85     5043.543     5266.711     80.02805     159.9928     319.3198      1.611     4.23     879.0131     56.27412     479.7132        20     1.384     0.822  72.68   0
       578    114.5149    167.8724 307.8895088  +6.6165350     1825.041     2597.864     2344.257     80.15458     159.9928     319.2881      1.506     4.37     888.7562     56.27412     268.9466        17     1.427     0.768  73.46   0
       579    942.9093    167.3308 307.5452885  +6.6445092     521.3138     399.6084     279.8399     80.02805     159.8026     319.2563      1.316     3.75     867.0292     56.27412      117.117         6     1.241     0.326  51.02   0
       580    676.1083    166.1491 307.6562011  +6.6360853      685.431     970.8067     817.2612     79.90132     159.5488     319.4467      1.686     5.16      872.396     56.27412     114.0889        10     1.444     0.520  71.31   0
       581   1007.0649    162.5022 307.5187893  +6.6486419     1709.423     2425.479     2065.989     80.02805     159.7392     319.2881      1.487     4.92     865.2537     56.27412     275.9893        15     1.523     0.649  69.59   0
       582    732.6553    162.3090 307.6328316  +6.6395615     568.8361     863.0372     567.4742     79.90133     159.5488     319.3833      1.838     4.28     870.2293     56.27412     103.4966         6     1.655     0.316  59.34   0
       583     94.8310    157.1220 307.8980518  +6.6203108     2153.262     3308.918     3478.143     79.90132     159.6758     319.2246      1.578     4.13     889.4436     56.27412     324.3325        18     1.400     0.857  82.01   0
       584    212.0142    157.1710 307.8493570  +6.6242313      5702.78     8613.006     8465.027     79.64727     159.4853     319.1611      1.574     4.13     886.1622     56.27412     846.4739        27     1.460     0.930  70.23   0
       585    850.9685    157.1940 307.5838367  +6.6456259     629.1894      913.798     1695.459      79.3924     159.4853     319.0341      1.578     3.93     868.7449     56.27412     123.6263         5     1.165     0.468  71.94   0
       586    673.8524    156.0856 307.6574773  +6.6401645     6610.557     9696.005     10259.31     80.02805     159.6123     319.3833      1.548     4.03     872.1063     56.27412     920.7866        26     1.445     0.873  73.67   0
       587    821.9077    155.4274 307.5959728  +6.6453848     1134.201     1563.751     1626.512     80.15458     159.4217     319.1293      1.440     3.99     869.1216     56.27412      178.637        10     1.129     0.686  78.42   0
       588    626.0375    153.3522 307.6774393  +6.6396932     9988.869     14776.58     16007.29     79.90132     159.6758     319.1611      1.616     4.24     872.0026     56.27412     1360.309        33     1.500     0.948  71.82   3
       589    629.5700    144.8624 307.6762572  +6.6433164     55862.25     82598.48     86482.86      79.7744     159.6758     319.1928      1.593     3.91     871.6252     56.27412     8382.086        69     1.578     1.082  72.59   2
       590    260.8085    153.3735 307.8292095  +6.6274385     815.2058     1126.613     1494.517     79.64727     159.4853     319.0976      1.561     4.32     884.7487     56.27412     121.2343         7     1.117     0.476  70.68   0
       591    563.7056    152.5387 307.7033692  +6.6379424     628.5805      1059.34     1690.805     79.90133     159.7392     319.2881      1.923     4.37     871.0769     56.27412       103.35         7     1.101     0.656  36.18   0
       592     24.7020    152.1631 307.9273600  +6.6199973     1117.703     1763.432     1937.393     80.02805     159.5488      319.415      1.620     5.25     892.5966     56.27412     145.8481        13     1.241     0.757  59.62   0
       593    353.1617    149.0260 307.7909796  +6.6323342     3774.797     6474.874     6856.256     79.64727     159.4853     319.0976      1.832     4.22     879.5724     56.27412     509.0304        33     1.556     1.172 -86.39   0
       594    534.9502    148.2073 307.7154647  +6.6387675      1844.32     2973.719     3480.629     79.51994     159.4217      318.907      1.650     4.23     870.8317     56.27412     242.7531        14     1.297     0.695  68.68   0
       595    999.4611    147.8475 307.5224409  +6.6544386     926.0808      1362.21     1941.988     79.90133     159.6123     319.3198      1.606     4.53     864.7603     56.27412     136.4148        10     1.120     0.660  61.27   0
       596    308.7309    138.5401 307.8097968  +6.6351717     3718.588         5507      5906.31     80.15458     159.6758     319.2563      1.662     4.24     882.4255     56.27412     466.3614        24     1.480     0.854  68.96   0
       597    708.6776    132.9777 307.6437827  +6.6508692     995.3918     1580.982     1761.074     79.64726     159.4853     319.1928      1.774     5.38      870.248     56.27412      167.903        11     1.348     0.698  58.08   0
       598    679.9525    132.0825 307.6557501  +6.6502781     1358.647     1919.322     1745.927     80.02805     159.6758     319.2881      1.510     4.34     870.8445     56.27412     202.7646        14     1.298     0.710  79.62   0
       599      6.2117    121.5748 307.9360794  +6.6320021     717591.4      1525188      1647932     79.64727     159.4853      304.904      2.160     5.80      892.566     56.27412     62255.84       373     2.315     1.645  80.33  28
       600    693.9003    128.7632 307.6500655  +6.6521150     3367.446      4684.67     4038.033     80.02805     159.5488     319.4785      1.471     4.40     870.4331     56.27412     461.3455        19     1.355     0.775  69.19   0
       601    435.8206    119.9050 307.7576133  +6.6471294     4250.045     6541.517     6893.218     79.90132     159.4853     319.0658      1.639     4.05     872.1887     56.27412     563.0718        24     1.441     0.900  67.49   0
       602    890.4996    116.0878 307.5687893  +6.6639161     2305.236     3696.376     4091.691     80.02805     160.1194     319.2563      1.690     4.24     865.4844     56.27412     379.5707        20     1.462     0.917  69.18   0
       603    908.2193    115.2013 307.5614550  +6.6648734     4097.717     5852.662     6216.563     79.64726     159.2309     318.9705      1.538     4.14      864.977     56.27412     608.6936        20     1.341     0.794  68.12   0
       604    588.1964    115.4872 307.6944400  +6.6540588     849.7854     1259.671     1569.886     79.51994     159.3581     318.9705      1.803     5.22     870.1909     56.27412     114.7642         9     1.202     0.640  71.08   0
       605    600.3945    113.9074 307.6894241  +6.6551194     1741.276     2611.427     2461.828     79.64726     159.3581     319.0658      1.563     4.09      870.168     56.27412     279.4606        16     1.248     0.878  67.33   0
       606    399.1768    111.6627 307.7731192  +6.6493031     2043.739     2974.618     2379.124     79.64727     159.6758     319.1611      1.577     4.53     874.4925     56.27412     286.9048        19     1.429     0.878  75.52   0
       607    246.3463    112.9020 307.8365870  +6.6436607     1091.476     1839.145     2022.928     79.90133     159.6758     319.4785      1.787     4.93     884.7069     56.27412     142.2479        15     1.453     0.683  49.19   0
       608    147.0183    108.4175 307.8780143  +6.6421730     3305.619     4992.614      5171.08      79.7744     159.4217     319.1928      1.613     3.86     885.4866     56.27412     443.4272        23     1.454     0.870  71.75   0
       609     28.8734    106.2660 307.9271813  +6.6390852     12889.73     19474.04     20565.22     80.15458     159.7392     319.2563      1.613     4.01     890.7266     56.27412     1725.301        40     1.575     0.999  68.38   0
       610    295.3589    106.9173 307.8164219  +6.6477777     1349.431     2146.627     2710.938     80.02805     159.6758     319.1928      1.915     5.72     883.3339     56.27412       172.32        17     1.444     0.919  80.88   0
       611    556.0438    105.8992 307.7081248  +6.6569405      877.764     1531.831     2533.014     80.02805     159.5488     319.4785      2.467     5.09     869.9561     56.27412     117.2103        10     1.395     0.526  70.24   0
       612    410.2476    106.5436 307.7686913  +6.6517878     528.5135     756.1707     337.2468     80.02805     159.6758     319.3515      1.276     3.80     873.2687     56.27412     86.32428         5     1.002     0.413  82.13   0
       613    763.8043    105.4328 307.6217998  +6.6640838       784.15      1397.74     2010.516     79.26466     159.5488     319.0658      2.931     5.45     868.3796     56.27412     120.7808        10     1.378     0.608  71.67   0
       614    158.2169    103.9664 307.8735114  +6.6443871     530.3601     760.7068     656.4026     79.64726     159.4853     319.1293      1.709     4.03      885.078     56.27412     77.29529         5     1.014     0.521  55.27   0
       615    897.5274    102.0927 307.5663386  +6.6699285     699.0848     945.0068     1264.829     79.90132     159.8026     319.2881      1.314     4.04     864.4676     56.27412     137.1658         7     1.007     0.465  78.18   0
       616    830.5770    101.0022 307.5941991  +6.6681436     6659.655     9680.906     10078.49     79.64726     159.3581     319.0658      1.558     3.96     866.1747     56.27412     1094.016        27     1.413     0.886  66.48   0
       617    775.6652    101.3385 307.6170083  +6.6661704     3587.017     5114.315     4929.905     80.02805     159.6758     319.2881      1.564     4.04      867.862     56.27412     569.2565        22     1.356     0.848  69.75   0
       618    420.7886    101.8350 307.7644697  +6.6540853     1187.539     1929.857     1722.979     79.51994     159.4853     319.0658      1.662     4.71      872.364     56.27412     165.3845        13     1.260     0.777  76.89   0
       619    921.6215    101.0570 307.5563602  +6.6711601     496.8385     438.8252     734.3907     79.64726     159.6123     319.0658      1.137     3.37     863.8138     56.27412     99.56885         5     1.410     0.233  72.18   0
       620    100.3966    101.2817 307.8976293  +6.6435504     563.2159     686.4962     305.3456      79.3924     159.2945     318.9705      1.223     3.83     886.4665     56.27412      99.0235         5     0.996     0.422  74.06   0
       621    538.1113     99.4794 307.7157934  +6.6589902     1167.382     1898.665     2121.785      79.7744     159.9294     319.3833      1.734     5.11     869.9653     56.27412     161.1601        17     1.392     0.895  71.49   0
       622    568.8042    105.4646 307.7028365  +6.6575473     639.9392     1046.729      1132.76     79.26466     159.3581     319.0341      1.361     3.54     869.8917     56.27412     103.0318         5     0.946     0.382  82.96   0
       623    430.3075     97.6011 307.7606569  +6.6561524     961.9647     1554.007     1716.333     79.51994     159.2945     319.0023      1.674     6.09      872.072     56.27412     137.6472        12     1.534     0.738  76.93   0
       624     69.1711     98.1332 307.9107114  +6.6437993     3404.973     5065.598     5031.092      79.7744     159.6758     319.2246      1.597     4.24     888.0568     56.27412     487.3479        25     1.465     0.931  66.46   0
       625     53.9144     99.2235 307.9170143  +6.6428356     1073.959     1531.492     1730.071     80.02805     159.4217     319.1293      1.410     4.02     888.9902     56.27412     160.4949        11     1.167     0.619  66.20   0
       626    658.0106     98.4584 307.6660004  +6.6634256     557.4864     1005.305     1263.616      79.3924     159.5488     318.9705      1.593     3.63     869.3861     56.27412     124.5085         6     1.132     0.334  50.81   0
       627    592.9819     95.1436 307.6931366  +6.6626177     1245.029     1541.659     952.9826     79.51994     159.6123     319.0023      1.409     4.62     869.4384     56.27412     195.6943        13     1.206     0.722  79.70   0
       628     11.5457     93.6238 307.9348100  +6.6437206      2905.08     5109.212     7403.704     79.51994     159.6758     319.0658      2.442     4.40     891.2612     56.27412     367.2837        27     1.632     1.012  78.79   0
       629    719.7939     91.3173 307.6405647  +6.6684401     517.3992     689.5312     181.9432     79.64727     159.2945     319.0341      1.410     4.49      868.876     56.27412     83.55029         5     1.159     0.495  58.46   0
       630    872.9900     90.7578 307.5769169  +6.6737891      418.549     474.5938     659.4943      79.3924     159.4853     319.0023      1.354     4.88     864.6569     56.27412     72.66711         5     0.901     0.750   5.12   0
       631     83.9637     89.6613 307.9048513  +6.6477946     815.2035     981.2842     791.5511     80.02805     159.6758     319.2246      1.547     5.30     886.9415     56.27412     119.5875        10     1.312     0.605  72.06   0
       632    770.3925     88.8699 307.6196188  +6.6711418     2175.942     2934.601     2474.949     79.51994     159.2945     319.1611      1.464     4.45     867.5995     56.27412     378.0935        14     1.305     0.708  67.63   0
       633    411.1598     88.9682 307.7689053  +6.6590742     1088.328     1520.235      1351.73     79.64727     159.4853     319.1293      1.572     5.07     873.1481     56.27412     140.4526        13     1.300     0.779  70.16   0
       634    172.8266     89.4025 307.8679329  +6.6508908     504.0507     756.4366     425.9934     79.51994     159.4217     319.0658      1.279     3.67     884.6313     56.27412     81.43768         5     1.043     0.372  85.78   0
       635    107.9814     87.5168 307.8949434  +6.6494882     1002.457     1422.891     1435.059     79.64726     159.3581     319.2246      1.499     5.06     885.8906     56.27412      150.132        12     1.309     0.647  71.74   0
       636     96.9557     82.4481 307.8996966  +6.6512097     9793.224     14691.09     15156.47     80.02805     159.6123     319.2246      1.631     4.37     886.0341     56.27412     1279.833        38     1.626     0.952  72.70   0
       637    426.2154     82.2873 307.7628741  +6.6623373     2694.955      3991.34      4056.36     79.64727     159.4217     319.1293      1.647     3.99     872.2264     56.27412      371.402        21     1.336     0.932  72.33   0
       638    246.7619     81.1177 307.8374887  +6.6567962     640.1532     909.6443     1171.573     80.02805     159.7392     319.2246      1.602     4.32     884.1454     56.27412     94.70813         7     0.894     0.594  63.71   0
       639    669.5012     76.0828 307.6619783  +6.6730476     514.4373      420.022     107.6214     80.02805     160.1194     319.3515      1.413     4.95     868.6539     56.27412     103.5278         6     1.312     0.530  65.72   0
       640    639.7680     74.5865 307.6743854  +6.6726705     19348.64     28630.65     29908.34     79.51994     159.4217     319.1928      1.603     4.02     868.6459     56.27412     2583.951        46     1.546     1.009  69.87   0
       641    263.4572     76.2717 307.8307145  +6.6593577     1599.542     2384.888     3478.035     80.15458     159.6758     319.2246      1.690     4.45     883.8638     56.27412     207.1412        14     1.127     0.818  63.18   0
       642    948.6755     74.2659 307.5460161  +6.6831233     513.7614     853.8768     1106.868     80.15458     159.6758     319.1928      1.667     4.10     862.4102     56.27412     103.3796         5     1.173     0.410  78.10   0
       643    695.4012     75.2080 307.6512440  +6.6742751     458.0785     835.6693     816.1335      79.3924     159.3581     319.0658      1.870     3.48     868.3521     56.27412     70.02643         5     0.763     0.459  73.58   0
       644    539.4872     70.5032 307.7161982  +6.6709988     5265.666     7643.429     7781.185     80.02805     160.0561     319.2881      1.550     3.80     869.2541     56.27412       753.96        23     1.482     0.803  64.74   0
       645    257.7171     70.7693 307.8332859  +6.6614364     2084.768     3148.531     4627.452     80.02805     159.4853     319.1293      1.815     4.22     883.8394     56.27412     271.4127        19     1.422     0.829  66.78   1
       646      7.0509     68.4982 307.9375290  +6.6539417     1272.663     1801.589     1464.336     79.90132     159.6758     312.1302      1.514     4.65     890.1917     56.27412      159.947        12     1.163     0.711  74.40  16
       647    626.1027     64.9967 307.6803875  +6.6761723     3316.306     5943.821     6958.563      79.7744     159.3581     318.9388      2.063     6.01     868.3345     56.27412     483.5006        32     2.067     0.893  68.41   0
       648    445.0907     66.2028 307.7555727  +6.6696105     23405.19      35482.7     36252.39      79.3924     159.3581     319.0023      1.593     4.00     871.4728     56.27412     3193.426        46     1.524     1.040  71.89   0
       649    265.6812     66.5461 307.8301190  +6.6634474     9825.403     14953.08     16187.31     80.02805     159.6758     319.3198      1.679     4.03     883.7006     56.27412     1241.653        35     1.516     1.015  69.54   0
       650    922.8968     66.3005 307.5569972  +6.6855518     2063.443      2764.52     2812.823     80.02805     160.1827     319.0976      1.483     4.85     863.1862     56.27412      304.805        16     1.384     0.711  65.89   0
       651    325.3712     66.6045 307.8053116  +6.6654279     1010.373     1686.582     1644.268     79.51994     159.4853     319.0976      1.774     5.22      881.213     56.27412     150.6655        11     1.299     0.609  71.23   0
       652     31.0825     66.1739 307.9276215  +6.6557106     2244.142     3477.669     3285.053     79.90132     159.4217     319.2246      1.615     4.39     888.9186     56.27412     324.7107        21     1.499     0.840  71.44   0
       653    530.3254     66.2310 307.7201497  +6.6724556     738.6596     837.1699     752.0537     79.90133     159.6758     319.2563      1.363     4.83     869.2531     56.27412     128.3849         8     1.194     0.628  74.09   0
       654    558.3044     65.7160 307.7085394  +6.6736054     664.3531      1052.61     1121.938     80.02805     160.0561     319.3515      1.225     4.06     868.9066     56.27412     99.55676         7     1.358     0.347  45.85   0
       655    253.5078     63.2795 307.8352883  +6.6643870     3179.207     4808.642     5651.905      79.7744     159.9294     319.2881      1.717     3.90     883.7401     56.27412      417.071        25     1.401     0.979  73.14   0
       656    306.4167     61.0032 307.8133778  +6.6671038     1134.978     1838.202      2307.89     79.64726     159.2945     319.0976      1.683     4.21     882.3793     56.27412     174.8623        14     1.283     0.816  53.60   0
       657    943.5741     56.5257 307.5487318  +6.6902771     1126.665     1618.576      1650.46     79.64727     159.5488     319.2246      1.534     4.82     862.1898     56.27412      193.798         9     1.177     0.560  65.61   0
       658    694.8322     55.8436 307.6521322  +6.6822505     1891.767     3097.701     2968.813     79.64726     159.6758     319.1293      1.649     4.79     867.5678     56.27412     297.8798        17     1.343     0.807  70.01   0
       659     99.9910     56.4040 307.8993170  +6.6620635     640.3503     953.9936     483.5526      79.3924     159.3581     319.0976      1.459     3.93     885.4211     56.27412     129.7419         5     1.040     0.435  68.69   0
       660    260.6266     51.2028 307.8327381  +6.6696118     925.3946     1549.478     2147.928     79.51994     159.4217     319.0658      1.878     6.29     883.4962     56.27412     105.1838        12     1.150     0.967  79.25   0
       661    205.9364     51.0308 307.8554716  +6.6678449     763.9862     1024.679     228.3433      79.7744     159.7392     319.1928      1.470     4.97     883.6702     56.27412     110.8394         9     1.223     0.573  66.24   0
       662    183.1564     48.5670 307.8650216  +6.6680962     11190.54     16966.23     17905.53     79.64727     159.6123     319.1293      1.642     4.16     883.6196     56.27412     1532.724        38     1.558     0.990  71.44   0
       663    928.7732     46.4045 307.5552229  +6.6939618     4430.508     6225.246     6480.057     79.51994     159.4853     319.0976      1.566     4.40     862.8662     56.27412     645.7722        22     1.412     0.794  63.81   0
       664    527.3356     46.8146 307.7220468  +6.6803713     3109.898     4718.293     4522.208     79.51994     159.5488     319.1293      1.619     4.19     868.8294     56.27412     509.0868        21     1.393     0.858  70.01   0
       665    465.5749     45.1843 307.7477688  +6.6789745     1902.108     2811.812     2666.866      79.7744     159.5488     319.1928      1.593     3.98     870.2928     56.27412     264.8286        19     1.339     0.889  69.74   0
       666    729.4814     44.8950 307.6381004  +6.6879292     2088.097     2980.583     2567.652      79.7744     159.9294     319.3515      1.452     4.04     866.2747     56.27412     347.8077        17     1.368     0.747  66.10   0
       667     84.3692     45.5811 307.9061752  +6.6660057     467.0337     632.4768     1062.489     79.64727     159.4853     319.1293      1.566     4.28     885.8365     56.27412     102.8076         5     1.085     0.481 -87.57   0
       668    993.5681     42.5980 307.5284212  +6.6976944     2093.204     3140.315     3277.586      79.3924     159.4853     319.0658      1.631     4.34     858.5829     56.27412     312.4389        20     1.469     0.898  83.43   0
       669    712.9182     39.2217 307.6451750  +6.6897175     7736.865     11172.35     11260.84      79.7744     159.3581     319.1928      1.539     4.23     866.3768     56.27412      1111.58        29     1.486     0.862  69.46   0
       670    633.0839     38.3362 307.6783840  +6.6874125      3960.02      5723.98     5951.197     80.15458     159.8026     319.2881      1.541     4.15     867.4587     56.27412     580.6583        22     1.412     0.804  66.05   0
       671    335.2008     38.4427 307.8021779  +6.6773840     940.8774     1435.818     1838.553      79.3924     159.3581     318.8752      1.811     4.14     880.5142     56.27412     162.4402        10     1.174     0.690  84.76   0
       672    433.3065     34.6052 307.7615361  +6.6822600     6365.091     9462.994     9902.799     79.64727     159.3581     319.0023      1.594     4.06     871.9901     56.27412     883.0479        30     1.485     0.918  72.72   0
       673    389.0722     36.6680 307.7798497  +6.6799246     744.4252     1105.825     1055.115     80.15458     159.8026     319.2563      1.554     4.63     875.7426     56.27412       111.83         8     1.117     0.545  60.63   0
       674     34.2703     34.1750 307.9273807  +6.6690278      8900.14     13276.63     13955.42     79.64727     159.5488     319.1928      1.588     4.04     887.4019     56.27412     1337.996        33     1.503     0.933  73.30   0
       675    680.4897     33.2751 307.6588525  +6.6910880     1065.689     1478.193     1403.511     80.02805     159.9928     319.3198      1.630     5.88     867.0637     56.27412     144.9692        13     1.211     0.802  71.66   0
       676    509.2445     31.6974 307.7300749  +6.6860061     987.0031     1252.902     1880.286     80.02805     159.6123     319.4467      1.295     4.54      868.774     56.27412     142.0498        11     1.171     0.740  72.63   0
       677    329.8760     29.5021 307.8046928  +6.6808962     13801.85     21010.87     22456.57     79.64726     159.9294     319.2563      1.619     3.84     880.7889     56.27412     1858.295        43     1.558     1.046  71.92   0
       678    103.4039     29.7072 307.8988024  +6.6731994     2701.376     3875.319     4265.413     79.64727     159.3581     318.9705      1.550     4.20     884.7964     56.27412     369.5479        20     1.457     0.809  70.84   0
       679    424.7316     30.2926 307.7652453  +6.6837528     787.7575     1140.413     1424.806     79.90133     159.8026     319.2881      1.534     4.50     872.4533     56.27412     129.2021         8     1.013     0.568  70.13   0
       680    960.6799     29.7860 307.5425200  +6.7018871     576.9117     534.6642     1077.068     79.64727     159.4217     319.0341      1.058     3.73     860.2311     56.27412       97.263         5     0.908     0.441  42.75   0
       681     94.8537     28.8154 307.9023859  +6.6732798     1560.469     2343.746     2076.902      79.3924     159.6758     318.9705      1.514     4.08     885.0184     56.27412     238.5511        16     1.345     0.776  61.06   0
       682    798.3079     28.4792 307.6100478  +6.6970065     899.0552     1066.666     1115.029      79.7744     159.9294     319.3198      1.394     4.44     864.8605     56.27412     141.2236         8     1.123     0.499  69.66   0
       683    396.1046     27.3643 307.7772412  +6.6840014     2453.453     3617.458     3357.258     80.15458     159.5488     319.3833      1.600     4.18      875.071     56.27412     302.0325        20     1.344     0.896  66.65   0
       684    464.6142     27.4004 307.7487680  +6.6862842     648.3774     1141.839     1226.508     79.64727     159.3581     319.0341      1.778     4.05     870.1036     56.27412     108.4573         6     1.068     0.439  54.55   0
       685    601.8254   1020.0087 307.6583322  +6.2810845     1419.948     2291.365     2918.221     79.64727     159.4853     292.0708      1.768     5.05     900.5083     56.27412     168.9294        17     1.374     0.831  67.21  16
       686    991.1958     24.2954 307.5300214  +6.7051714     749.4713     1170.154     1015.629      79.7744     159.3581     319.0341      1.833     5.26     857.5234     56.27412     120.7451         8     1.173     0.666  46.46   0
       687    821.5295     22.5148 307.6005972  +6.7002446     1728.947      2522.91     2871.497     80.15458     159.9294     319.2881      1.664     4.85     864.1991     56.27412     262.6504        15     1.455     0.639  64.79   0
       688    534.6247     22.7957 307.7198272  +6.6905314     1509.664     2153.594     2578.693     79.51994     159.4217     319.0976      1.562     4.70     868.0948     56.27412     219.4346        13     1.221     0.727  80.74   0
       689     75.3808     23.9147 307.9106441  +6.6746476     536.1122     869.2448     219.8017     79.64726     159.4217     319.1928      1.690     4.20     885.5882     56.27412     92.32074         5     1.157     0.435  78.42   0
       690    891.9644     20.7094 307.5713841  +6.7033417     1472.608     2103.053     2271.532     80.15458     159.6123     319.2881      1.572     4.21     862.8955     56.27412     226.1495        13     1.242     0.726  60.88   0
       691    643.0690   1018.1333 307.6412680  +6.2832382     1481.709     2335.618     2725.935     80.02805     159.7392     310.5679      1.716     5.94     900.4466     56.27412     181.3262        18     1.465     0.873  70.56  16
       692    533.3224   1018.6288 307.6868257  +6.2793617     4298.556     6486.166     7317.333     79.90133     159.7392     306.3298      1.673     4.55      902.041     56.27412     531.1745        25     1.416     1.004  67.90  16
       693     68.0332   1016.9802 307.8800942  +6.2644310     865.0203     1294.929     1695.335     79.51994     159.4853     317.7291      1.538     5.09     903.9761     56.27412     132.3853        10     1.374     0.533  62.41  16
       694    960.1221     19.4757 307.5430979  +6.7061250     661.8074     748.7518     1071.614     80.28091     159.9294     319.3198      1.464     4.43     859.8862     56.27412     101.8231         7     1.289     0.432  65.23   0
       695    486.3616   1015.0936 307.7064459  +6.2792488     2285.064     3609.696     3807.066     80.15458     159.6123     319.3515      1.613     4.27     902.4446     56.27412     293.1244        22     1.481     0.843  78.53  16
       696    798.5267   1016.0122 307.5767815  +6.2893084     612.6711     807.9395     1453.849     79.51994     159.3581     319.0658      1.425     3.73     895.9158     56.27412      91.1225         6     1.164     0.343  40.53   0
       697    920.9201   1007.3347 307.5262447  +6.2969751     42421.38     69213.62     73345.88     80.28091     159.7392     319.2246      1.753     4.21     896.3625     56.27412     5266.621        68     1.721     1.196  71.28   0
       698    228.0866   1005.3909 307.8140242  +6.2745936     1776.932     2719.198     2917.736     79.64726     159.3581     319.0976      1.615     4.18     903.1502     56.27412     238.3814        20     1.440     0.840  62.07   0
       699    767.0544    999.0536 307.5904206  +6.2952588     6621.064     10603.21     12080.08     80.28091     159.6123     319.2563      1.774     4.65     897.6841     56.27412     818.5002        37     1.709     1.095  86.24   0
       700    627.0570   1003.3894 307.6484131  +6.2887897     1090.119      1613.27     1424.574      79.3924     159.6758     318.9705      1.605     5.01     900.3245     56.27412     152.5583        12     1.258     0.731  64.01   0
       701    819.0483   1000.9647 307.5687642  +6.2962060     2319.976     3599.168     3848.927      79.7744     159.7392     319.1928      1.740     4.49     895.8276     56.27412     302.3546        22     1.440     0.921  72.87   0
       702    734.6775   1000.1247 307.6038303  +6.2937351     585.4824     845.2552     946.7023     80.28091     159.9294     319.3198      1.443     3.38      899.433     56.27412     110.9498         5     0.776     0.426 -72.84   0
       703    236.4790    997.9426 307.8107906  +6.2779503     1466.227     2263.963     2376.498     80.02805     159.6758     319.2246      1.613     4.54     903.2084     56.27412     276.0221        17     1.313     0.986  77.62   0
       704    201.0569    997.7165 307.8255075  +6.2768542     917.8605     1566.737     1908.209     80.02805     159.6758     319.3515      1.823     6.25     903.2093     56.27412     113.7043        12     1.517     0.723 -82.27   0
       705    553.6647    998.2830 307.6790628  +6.2884424     994.7881     1436.159      2042.42     80.15458     159.8661     319.2881      1.983     5.97     901.6608     56.27412     142.1367        12     1.449     0.799  68.16   0
       706    955.2851    994.1299 307.5124159  +6.3035726     6413.415     10548.72     10630.48     80.15458     159.9294     319.2881      1.759     4.30     893.9749     56.27412     746.7622        37     1.685     1.075  69.59   0
       707     61.4149    995.8452 307.8835570  +6.2729336     2684.802     4321.294     4511.869      79.3924     159.4853     319.0341      1.722     4.47     903.6736     56.27412     386.6987        22     1.434     0.902  68.76   0
       708    211.7141    990.0273 307.8213417  +6.2803865      577.626     994.6917     815.0864     80.15458     159.4217     319.1293      1.951     4.32     903.2502     56.27412     103.8725         6     1.229     0.432  83.44   0
       709    637.2574    988.7000 307.6446710  +6.2951954      766.213      1223.97     1497.427      79.7744     159.6758     319.4785      1.489     3.65     900.2208     56.27412     125.3159         5     0.868     0.441 -45.97   0
       710    929.1915    985.9161 307.5235277  +6.3060937     1953.974     3023.711     2725.684     79.64726     159.3581     319.0976      1.599     3.99     895.3032     56.27412     281.4804        18     1.263     0.924  85.84   0
