#   1 NUMBER                 Running object number                                     
#   2 X_IMAGE                Object position along x                                    [pixel]
#   3 Y_IMAGE                Object position along y                                    [pixel]
#   4 ALPHA_J2000            Right ascension of barycenter (J2000)                      [deg]
#   5 DELTA_J2000            Declination of barycenter (J2000)                          [deg]
#   6 FLUX_APER              Flux vector within fixed circular aperture(s)              [count]
#   9 FLUXERR_APER           RMS error vector for aperture flux(es)                     [count]
#  12 FLUX_RADIUS            Fraction-of-light radii                                    [pixel]
#  13 FWHM_IMAGE             FWHM assuming a gaussian core                              [pixel]
#  14 BACKGROUND             Background at centroid position                            [count]
#  15 THRESHOLD              Detection threshold above background                       [count]
#  16 FLUX_MAX               Peak flux above background                                 [count]
#  17 ISOAREA_IMAGE          Isophotal area above Analysis threshold                    [pixel**2]
#  18 A_IMAGE                Profile RMS along major axis                               [pixel]
#  19 B_IMAGE                Profile RMS along minor axis                               [pixel]
#  20 THETA_IMAGE            Position angle (CCW/x)                                     [deg]
#  21 FLAGS                  Extraction flags                                          
         1    432.9721     32.4271 307.7557987  +6.6696409     14997.94     32571.24     36404.62     87.54823     175.5868     351.3135      2.240     5.01     1089.095     61.95553     1538.052        69     1.911     1.580 -70.59   0
         2    171.0528     14.8782 307.8652912  +6.6681092     7512.834     15626.53     17261.29     88.10765     175.7966     351.4883      2.199     4.76      1105.84     61.95553     856.7278        54     1.812     1.510 -72.29   0
         3    515.3293     13.1339 307.7222085  +6.6803629     2017.134     4237.944     4531.111     88.10765     175.8664     351.4883      2.142     5.48     1085.504     61.95553     201.8966        31     1.618     1.315 -34.76   0
         4    916.4984     12.3088 307.5554312  +6.6940909     3561.119     6147.524     6416.339     88.10765      176.285     351.4534      1.857     4.15     1073.921     61.95553     423.0126        32     1.606     1.161 -66.89   0
         5    453.2262     11.6715 307.7480796  +6.6788893     1267.293     2522.556     2711.622     87.68842     175.6568     351.4184      2.084     6.87     1087.792     61.95553     143.5878        17     1.261     1.048 -48.79   0
         6    717.4299     10.9706 307.6382496  +6.6880075      1486.52     2881.975      2521.98     87.54823     175.5169     351.2086      1.957     6.45     1077.288     61.95553     169.2803        22     1.432     1.214  81.74   0
         7    981.3475      8.6926 307.5285881  +6.6977429     1894.485     2788.894      2302.18     87.96813     175.6568     351.7328      1.649     3.69     1067.973     61.95553     243.7654        17     1.111     0.988 -71.51   0
         8    700.6292      5.2820 307.6454273  +6.6897958     5573.198     10412.89     11452.13     87.96813     175.6568     325.2423      1.987     4.41     1078.202     61.95553     545.4493        40     1.548     1.354 -78.00  16
         9    620.9377      4.6059 307.6785856  +6.6874141     2516.825      5223.77      5381.39     87.40781     175.5868     316.5533      2.118     5.31     1080.883     61.95553     284.4303        33     1.586     1.424  79.82  24
        10     22.1369      1.9540 307.9276431  +6.6684443     4799.355     6620.404     6285.304     84.25952     149.6813     275.6067      1.461     4.28     1111.967     61.95553     733.7135        23     1.385     0.952 -10.67  24
        11    421.1254      2.0616 307.7617516  +6.6817832     3623.745     5489.845     5647.291      85.7049     151.4759     277.6493      1.662     4.82     1090.215     61.95553     463.6219        25     1.490     0.999  -7.92  24
        12    537.6569    996.5321 307.6797181  +6.2750241     4044.806     6381.145     7373.602     88.24696     175.7267     351.4534      1.764     3.55     1136.352     61.95553     485.9753        32     1.553     1.111 -77.89   0
        13    741.7574   1023.2163 307.5940227  +6.2708162     623.5832     754.0642     1155.979     81.89388     146.8647     272.5142      1.203     3.73     1134.438     61.95553     114.0806         5     0.913     0.437 -44.36  24
        14    709.3557   1021.1938 307.6075525  +6.2705710     7481.892     11193.28     11863.71     87.54823     172.0535     305.2943      1.606     3.24     1134.742     61.95553     1095.336        32     1.488     1.012 -69.89  24
        15    576.6893   1023.2393 307.6626008  +6.2652992     39884.47     50248.75     52523.61     82.34261     146.8647     272.1985      1.274     3.73     1136.151     61.95553     8474.103        44     1.413     0.918 -11.28  24
        16    565.6174   1020.3863 307.6672969  +6.2661076     3816.388     5985.647     6512.436     87.82838     175.4469     316.7085      1.698     3.80     1136.408     61.95553     484.7423        27     1.468     1.026 -79.36  24
        17    424.3106   1021.5612 307.7259633  +6.2609001     3619.578     5592.289     6190.196     88.10765     168.7376     300.1411      1.724     3.56     1138.533     61.95553     425.6422        25     1.363     1.010 -76.28  24
        18    206.3805   1023.3151 307.8164407  +6.2528801     1512.335     1872.996     1283.349     80.98894     145.5203     270.7053      1.242     3.70     1140.794     61.95553     281.8979        12     1.194     0.666 -18.38  24
        19    742.1915    995.8602 307.5947634  +6.2821273     7967.089      12143.5     12355.21     87.40781     175.5868     351.2436      1.609     3.43     1133.041     61.95553     1102.705        34     1.459     1.063 -71.02   0
        20    507.7368    997.6733 307.6921101  +6.2735532     1058.736     1703.786     1791.917     88.24695     175.7966     351.4883      1.722     4.13     1136.742     61.95553     127.9508        10     0.900     0.820 -87.37   0
        21    288.1494    995.1528 307.7834236  +6.2672486     13690.68      23012.1     25656.98     88.10765     175.6568     351.5233      1.849     3.51     1139.871     61.95553     1905.541        63     1.892     1.364 -45.90   0
        22    411.9356    995.6881 307.7319784  +6.2711703      1018.75     1542.196     1323.884     88.10765     176.0061     351.4883      1.751     6.48     1138.078     61.95553     118.7249        14     1.295     0.911  -3.39   0
        23    803.3866    994.7043 307.5693774  +6.2846442     1183.141     1673.498     1703.189     87.82838     175.5169     351.2786      1.591     3.95     1130.921     61.95553     165.4846        10     0.891     0.828  83.44   0
        24    258.7946    992.3845 307.7957125  +6.2674085     654.3307     1106.464     705.6115     87.68842     175.4469     351.3135      1.809     3.44     1139.789     61.95553     88.90698         5     0.777     0.441 -18.78   0
        25    903.5414    989.2540 307.5279486  +6.2902303     9622.255     13683.97     13697.49     88.24696     175.7966     351.4883      1.530     3.04     1129.026     61.95553     1339.512        33     1.344     1.027 -70.92   0
        26    534.9453    988.7173 307.6811083  +6.2781606      7864.34     12349.84      13813.3     88.10765     175.7966     351.5931      1.693     3.46     1136.129     61.95553     1017.621        37     1.519     1.136 -72.37   0
        27    877.2006    985.3987 307.5390224  +6.2909454     12774.67     19392.79     20358.53     87.40781     175.3068     351.1387      1.648     3.31     1129.499     61.95553     1879.212        46     1.509     1.224 -59.43   0
        28    590.1399    985.9857 307.6582690  +6.2811320     1281.281     2419.717     2701.497     87.54823     175.6568     351.2086      2.128     5.88     1134.784     61.95553     151.3177        18     1.553     0.945 -70.13   0
        29    521.1936    984.6116 307.6869602  +6.2793966     3641.446     6409.941     7937.496     87.68842     175.5868     351.3835      1.995     4.03     1136.205     61.95553     470.6699        31     1.443     1.209 -80.40   2
        30    998.8904    984.7232 307.4884850  +6.2952736     5370.951      7807.33     8382.109     87.96813     176.0758     351.5233      1.511     3.31     1124.868     61.95553     831.5547        27     1.394     0.934 -65.28   0
        31    630.8701    983.8912 307.6414175  +6.2833566     1465.319     2233.502     2283.721     88.10765     175.9362     351.4883      1.482     4.40      1133.94     61.95553     198.9963        12     1.247     0.681 -64.50   0
        32     55.9279    983.9399 307.8802775  +6.2640935     774.0082      1183.93     1006.909     88.24695     175.7966     351.5233      1.473     4.87     1138.715     61.95553     108.9933         7     1.148     0.584  75.51   0
        33    895.2050    984.1279 307.5315846  +6.2920696     483.3251     657.0848     787.7974     87.68842     175.3068     351.3835      1.203     4.47     1128.983     61.95553     100.6038         5     0.792     0.718  86.65   0
        34    474.6778    981.0499 307.7064060  +6.2793129     2035.772     3328.342     3157.176     88.10765     175.8664     351.4534      1.678     3.85     1136.806     61.95553     297.3328        19     1.199     1.062  22.40   0
        35    509.8777    977.2302 307.6919107  +6.2820666     567.1191     571.3359     1083.698     87.96812     175.8664     351.4883      1.322     4.97      1136.15     61.95553     89.80347         6     1.071     0.653  75.93   0
        36    908.9386    972.9875 307.5262531  +6.2971272     45500.98     67671.77     71245.95     87.54823     175.5868     351.1736      1.558     3.28     1128.023     61.95553     6719.303        67     1.557     1.161 -73.40   0
        37    314.1355    975.1804 307.7733031  +6.2763660     636.7458     1028.098     929.6348     87.68842     175.7966     351.3135      1.844     5.16     1138.822     61.95553     81.07068         6     1.080     0.696  10.13   0
        38    216.4788    971.6799 307.8139932  +6.2745404     1680.581     2528.442     2576.094     88.38603     176.0758      351.663      1.619     3.21      1139.26     61.95553      260.505        16     1.121     0.891 -77.75   0
        39    614.5575    969.6940 307.6486736  +6.2886748     748.6895     1095.262     767.0254     88.24696     175.7267     351.6281      1.532     3.44     1133.842     61.95553      116.301         5     0.727     0.470  73.26   0
        40    104.8349    970.0128 307.8604317  +6.2714855     660.3232     965.1023     1221.052     87.54823     175.5868     351.2786      1.565     4.97     1138.694     61.95553     105.9829         6     1.023     0.685  85.29   0
        41    806.8961    966.7881 307.5688587  +6.2962892     2525.131     3988.597     4047.812     87.82838     175.5169     351.2436      1.671     3.58     1129.754     61.95553     339.5919        21     1.301     0.919 -68.70   0
        42    755.1367    964.6528 307.5904358  +6.2954459      6767.02     10395.08     11748.23     88.10765     175.7267     351.4534      1.694     3.39      1131.07     61.95553     946.9429        35     1.559     1.065 -65.98   0
        43    224.5916    963.8869 307.8108865  +6.2780303     1327.809     2153.876      2120.73     87.68842     175.4469     351.2436      1.638     4.90     1139.039     61.95553     189.7115        18     1.282     1.132 -19.77   0
        44    541.9731    963.9228 307.6790251  +6.2886341     745.1318       1118.6     913.0388     87.96813     175.7267     351.4534      1.406     4.31     1135.185     61.95553     119.3358         7     1.002     0.559 -57.24   0
        45    188.9766    963.1995 307.8257061  +6.2771205     859.6928     1368.985     1248.115     87.68842     175.4469     351.2436      1.672     5.59     1138.988     61.95553     106.8647        10     0.989     0.897  27.23   0
        46     49.7772    962.0601 307.8835745  +6.2729218     2597.447     4284.968     4033.468     87.68842     175.7267     351.3835      1.737     3.81     1138.476     61.95553     316.0656        23     1.389     0.996 -79.85   0
        47    943.1766    959.8140 307.5124704  +6.3037066     7208.828     10468.32      10362.8     87.82838     175.5868     351.3835      1.527     3.13     1126.216     61.95553     1157.835        29     1.379     0.954 -71.29   0
        48    199.0500    956.1118 307.8217611  +6.2803849     624.8093     1100.588     1276.496     88.10765     175.5868     351.6281      1.942     5.00     1138.777     61.95553     105.5088         7     1.098     0.645 -63.82   0
        49    624.6760    954.1741 307.6449928  +6.2954214     581.5707     906.9504     923.8758     87.68842     175.7267     351.4534      1.661     4.05     1133.188     61.95553     105.4507         6     0.928     0.635 -16.02   0
        50    917.0190    951.1784 307.5236289  +6.3064023     2111.818     2983.813      2765.99     87.82838     175.7267     351.4184      1.468     4.16     1126.611     61.95553     311.1309        17     1.333     0.846 -69.21   0
        51    637.7448    947.3763 307.6397922  +6.2986647     4474.872     7315.972     6977.445     87.68842     175.8664     351.2786      1.721     3.54     1132.614     61.95553     576.7896        34     1.525     1.135 -65.31   0
        52    250.0146    947.8632 307.8008667  +6.2854988     4102.583     6632.175     7069.515     87.54823     175.6568     351.3135      1.734     3.49     1138.598     61.95553     536.7668        27     1.394     1.075 -71.14   0
        53    776.5224    948.3548 307.5820991  +6.3028890     1254.729      1756.57     1935.108     87.96813     175.8664     351.4883      1.607     3.86     1129.698     61.95553     158.4509        13     1.003     0.892 -48.49   0
        54    987.1998    947.3786 307.4945968  +6.3103064     846.6054     1421.414     1145.071     87.68842     175.4469     351.1387      1.541     3.54     1123.872     61.95553     156.4509         7     1.140     0.418 -66.58   0
        55    459.7117    946.1578 307.7138022  +6.2932210     984.5728     1704.072     1388.943     88.10765     175.7267     351.5233      1.655     6.08     1136.306     61.95553     137.9076        12     1.377     0.754 -37.21   0
        56     18.6522    945.2881 307.8970739  +6.2788025     2166.656     3322.145     3587.351     88.10765     175.6568     351.6281      1.732     3.71     1138.284     61.95553     296.6039        20     1.316     0.932 -78.74   0
        57    869.5486    943.9110 307.5435970  +6.3078231      980.456      1748.65     1383.325     88.10765     175.5868     351.6281      1.587     5.33     1127.463     61.95553     159.2511        10     1.424     0.564 -69.63   0
        58    286.3036    941.1553 307.7860169  +6.2894843     904.2695     1294.272     1436.103     88.10765     175.7267      351.663      1.548     4.28     1138.388     61.95553     135.2726         7     0.895     0.842 -74.36   0
        59    993.4359    940.2619 307.4922448  +6.3134526     1068.341      1595.67     1694.113     88.10765     175.7966     351.4534      1.782     4.11     1123.366     61.95553     144.3916        12     1.247     0.736 -77.18   0
        60    941.0083    941.1300 307.5139992  +6.3113501     747.8339     657.4756     274.2445     87.54823     175.3768     351.3485      1.087     2.85     1125.307     61.95553     152.3809         7     0.873     0.690  84.09   0
        61    562.3140    939.9512 307.6713827  +6.2992125     1774.894     2851.487     2684.183     88.10765     175.7267     351.5233      1.671     4.72     1134.034     61.95553     227.2651        18     1.355     0.922 -79.66   0
        62    601.5864    936.4439 307.6551840  +6.3019722      1206.46     2009.578     1614.256     87.40782     175.5868     351.2086      1.803     3.73     1133.316     61.95553     144.0889        13     1.032     0.898 -68.80   0
        63    281.4611    934.0771 307.7882683  +6.2922450     1202.236     2184.616     2132.067     88.38603     175.8664     351.4534      1.964     4.40     1138.199     61.95553     155.3131        15     1.137     1.057  84.49   0
        64    748.3333    930.3783 307.5944166  +6.3093728     989.4877     1625.179     1554.419     87.68842     175.7966     351.4184      1.764     6.79     1129.503     61.95553     119.4508        13     1.376     0.940  81.22   0
        65    885.9532    926.6966 307.5373598  +6.3154780      7142.49     10732.76     11065.33     88.10765     175.6568      351.663      1.602     3.35     1126.125     61.95553     1022.978        33     1.469     1.032 -67.92   0
        66    422.0280    923.8781 307.7302113  +6.3011611     1905.444     2815.984     2677.369     87.96813     175.7966     351.4883      1.528     3.56     1136.439     61.95553      267.124        18     1.189     0.952 -74.47   0
        67    323.6010    922.3333 307.7711576  +6.2985055     8344.995     13977.19     14495.34     87.26718     175.3068     351.2086      1.797     3.71     1137.921     61.95553     968.2076        41     1.553     1.236 -64.06   0
        68    243.7619    921.4047 307.8043598  +6.2962150     6260.968     10491.52     10837.23     87.12631     175.5169     351.2086      1.815     3.62     1137.955     61.95553     788.0004        37     1.486     1.240 -79.52   0
        69    571.4593    915.8094 307.6683974  +6.3094871     958.9101     1399.307     1982.573     87.40781     175.6568     351.1736      1.592     4.03     1133.089     61.95553     141.2188         7     0.969     0.480  80.77   0
        70    901.6727    912.0587 307.5313205  +6.3220461      966.184     1559.028     1532.051     88.24695     175.7966     351.4534      1.866     5.25     1124.916     61.95553     134.9235        11     1.122     0.878 -73.96   0
        71    205.2097    911.9985 307.8206954  +6.2988072     592.1821     717.3965     1104.189     87.40781     175.4469     351.2086      1.436     3.77     1137.646     61.95553     81.78699         5     0.813     0.502  34.36   0
        72    857.8586    910.6567 307.5495727  +6.3211663     714.3251     1188.015     1338.932     88.24695     175.7966     351.5233      1.563     4.55     1126.086     61.95553     101.7765         6     1.100     0.534 -69.31   0
        73    968.8295    907.4641 307.5035707  +6.3261782     831.9034     1260.161     1732.695     87.82838     175.7966     351.4184      1.737     4.12     1122.597     61.95553     125.9755         7     1.024     0.568  76.42   0
        74    737.8636    904.8318 307.5996271  +6.3195732     1676.156     2728.232     3482.207     87.82838     175.8664     351.4534      2.053     3.98     1128.577     61.95553     215.0074        18     1.267     0.954 -76.18   0
        75    602.1590    901.3372 307.6561300  +6.3164885     803.2121      1246.24     914.1008     88.10765     175.7267     351.5931      1.612     4.89     1131.755     61.95553     91.01807         9     0.973     0.697 -70.44   0
        76    135.7411    901.3970 307.8499165  +6.3008557     1870.968     1862.356      1813.69     87.40781     175.5868     351.2086      0.743     0.76     1137.219     61.95553     887.4042         5     0.584     0.420 -72.12   0
        77    969.3391    900.1709 307.5036041  +6.3292069     1184.603     1981.375      2528.09     87.82838     175.7966     351.4184      2.074     5.79     1122.234     61.95553     179.8893        12     1.441     0.655 -77.88   0
        78    523.1765    900.5760 307.6889724  +6.3141648     1036.077     1789.455     2293.551     87.54823     175.5868     351.4534      1.789     5.28     1133.746     61.95553     147.7764        11     1.196     0.770  40.11   0
        79    656.5711    898.3137 307.6336238  +6.3195532     2547.385     4174.077      4230.45     88.24696     175.4469     351.3485      1.761     3.72     1129.544     61.95553     340.5673        26     1.291     1.190 -68.85   0
        80     53.2814    894.4705 307.8844103  +6.3009491     2618.193     4478.318     4715.221     88.38603     176.1456     351.5233      1.851     4.19     1137.046     61.95553      299.957        25     1.462     1.080 -79.84   0
        81    947.1548    895.8481 307.5129672  +6.3302539       698.36     919.4274     864.1846     88.10765     175.6568     351.4883      1.329     2.43     1122.734     61.95553     123.9889         6     0.726     0.555 -38.45   0
        82    817.2535    894.5751 307.5669855  +6.3264546     838.7628     893.0251     710.4965     87.54823     175.8664     351.3135      1.399     3.92      1126.64     61.95553     142.9553         7     0.960     0.519 -59.87   0
        83    196.9324    893.4442 307.8247626  +6.3061915     1817.828     3184.866      3328.74     88.10765     175.7267     351.5233      1.834     4.84     1137.233     61.95553      248.075        22     1.379     1.165 -79.99   0
        84     70.6303    893.8798 307.8772225  +6.3017753     1817.296     2947.801       3151.7     87.96813     175.7267     351.4534      1.718     3.65     1137.056     61.95553     249.2468        17     1.187     0.927 -68.61   0
        85    934.7075    893.7007 307.5182114  +6.3307265     671.1583     877.1807     337.9091     88.10765     176.3547     351.4534      1.515     4.40     1123.013     61.95553     101.8824         5     1.128     0.489 -59.52   0
        86    230.9100    890.0232 307.8107615  +6.3087429     811.9604     1268.461     918.0797     88.10765     175.5868     351.3485      1.575     2.38     1137.367     61.95553     150.9207         5     0.762     0.474  24.17   0
        87    651.2775    887.2084 307.6361977  +6.3239625     6228.798     10533.16     11359.47     87.68842     175.2367     351.3135      1.842     3.62     1129.149     61.95553     808.5654        36     1.483     1.227 -64.11   0
        88    788.5033    887.7856 307.5791600  +6.3283004     840.0536     1112.425     564.4955     87.82838     175.5169     351.2436      1.455     4.08     1127.082     61.95553     129.6047         7     1.006     0.474 -79.58   0
        89     11.7119    885.7401 307.9019770  +6.3031585     1171.045     2006.341     2206.762     87.96813     175.9362     351.5931      1.867     4.94     1136.771     61.95553      138.692        14     1.201     0.921  61.57   0
        90    888.8287    883.6061 307.5376141  +6.3333681     2674.832     4036.633     4541.669     87.54823     175.5868     351.2786      1.630     3.35     1123.834     61.95553     404.5762        23     1.388     0.939 -72.88   0
        91     24.4444    884.6555 307.8967239  +6.3040339     852.8956      1275.06     2330.808     88.10765     175.7966     351.5233      1.800     4.44     1136.748     61.95553     117.7563         7     1.067     0.525 -48.28   0
        92    334.3646    880.5444 307.7680987  +6.3161220     13923.39     24142.97     26167.84     87.96813     175.7966     351.5233      1.893     3.75     1137.168     61.95553     1594.501        55     1.708     1.318 -64.07   0
        93     68.8320    882.0044 307.8783723  +6.3066187      1223.05     2184.531     1805.215     87.40781     175.6568     351.2436      1.848     6.36     1136.685     61.95553     154.0162        13     1.248     0.911 -35.98   0
        94    205.2785    880.2449 307.8217419  +6.3119217     1002.481     1564.958     1866.463     87.96813     175.7966     351.4883      1.689     5.27     1137.027     61.95553     131.8109        10     1.254     0.742 -72.01   0
        95    384.9667    879.7543 307.7471007  +6.3181418     704.1091     983.2227      618.731     87.68842     175.7966     351.3835      1.470     3.68     1136.374     61.95553      118.079         6     0.904     0.473 -38.09   0
        96    412.2749    871.2010 307.7360434  +6.3225873     895.8938     1789.428     2025.721     87.26717     175.1666     351.3135      2.121     6.34     1135.729     61.95553     134.5757        13     1.319     1.070  76.45   0
        97     98.0203    870.8287 307.8666242  +6.3122129     1459.127     2922.616     3090.446     87.54823     175.5868     351.4184      2.142     5.22     1136.375     61.95553     177.5348        19     1.476     1.027 -52.00   0
        98    492.2917    867.5602 307.7029195  +6.3267663     736.6804     1191.865     1204.347     88.24696     175.7267     351.5582      1.770     4.35     1133.592     61.95553     87.90283         7     0.960     0.561 -55.60   0
        99    849.9045    865.0546 307.5544118  +6.3397328     1942.586      3127.94     3051.814     87.96813     175.7267     351.7328      1.650     4.15     1124.171     61.95553     239.5367        19     1.329     0.921 -82.71   0
       100    664.9716    866.9622 307.6311901  +6.3327800     659.5175     1213.794     1886.119     87.54823     175.4469     351.3135      2.001     3.06     1127.409     61.95553     104.9407         5     0.646     0.573 -89.31   0
       101    879.2050    865.3291 307.5422276  +6.3405952      2105.07       2933.5     2923.702     87.68842     175.3768     351.3485      1.493     3.16     1123.159     61.95553      333.193        16     1.071     0.945 -73.39   0
       102    813.4456    864.1635 307.5695912  +6.3388863     2939.226     4519.351     5029.181     87.82838     175.7966     351.4184      1.697     3.66     1125.558     61.95553      402.174        22     1.357     0.937 -79.00   0
       103     81.3120    864.8038 307.8737703  +6.3141401     2179.467     3570.419     3796.695     87.54823     175.4469     351.1387      1.771     3.85     1136.174     61.95553     294.1215        21     1.310     1.015 -73.45   0
       104    549.3800    855.7416 307.6795979  +6.3335544     285700.5     490698.7     526287.9     87.68842     175.6568     351.2786      1.858     3.73     1131.473     61.95553     32418.09       166     1.830     1.482 -69.18   0
       105    444.0222    862.7950 307.7231365  +6.3271203     599.2742     1002.761     922.9102     87.68842     175.5169     351.2786      2.100     4.64     1134.715     61.95553     91.73474         6     1.067     0.572 -77.91   0
       106    393.6306    858.4429 307.7442212  +6.3272320     6510.859     11265.61     12180.91     87.68842     175.7267     351.3135      1.864     3.76     1135.729     61.95553     787.9567        40     1.595     1.250 -65.54   0
       107    336.8773    856.7305 307.7678599  +6.3260398     10628.75     18618.28     19920.53     88.38603     176.0061     351.4534      1.869     3.81     1136.675     61.95553     1234.192        49     1.594     1.368 -71.01   0
       108    636.7565    858.8513 307.6431872  +6.3351878     1016.374     1568.344     2069.162     88.24695     175.7267     351.5233      1.808     5.30      1128.18     61.95553     135.3693         9     1.034     0.766 -45.84   0
       109    655.0411    852.9949 307.6357871  +6.3382164      2906.73     5054.763     5734.072     87.26717     175.4469     351.1736      1.844     4.11     1127.249     61.95553     415.0918        32     1.522     1.292 -81.83   0
       110    887.7356    851.6688 307.5391424  +6.3465203     5112.481     7921.062     8461.631     88.10765     175.8664     351.5233      1.672     3.45     1122.428     61.95553     701.1301        32     1.597     1.005 -64.11   0
       111    630.0167    846.9552 307.6463888  +6.3398753      3038.96     5244.694     5726.847     87.54823     175.6568     351.2436      1.838     4.39     1127.786     61.95553     349.4774        29     1.569     1.090 -67.64   0
       112   1021.0319    846.0296 307.4839434  +6.3532840     5007.815     7298.895     7453.993     87.54823     172.9791      307.659      1.517     3.34     1117.635     61.95553     693.7523        27     1.403     0.965 -68.91  16
       113    622.0786    842.7432 307.6498292  +6.3413497     1671.864     3810.113      5535.03     88.10765     175.7966     351.4534      2.617     9.72     1127.791     61.95553     276.3296        32     2.689     0.981 -63.42   0
       114    818.2754    846.2484 307.5681873  +6.3464453     1553.566     2312.471     2122.271     87.96813     175.8664     351.5233      1.552     3.67     1124.266     61.95553     209.5345        15     1.145     0.863 -69.83   0
       115    945.1732    844.9891 307.5155000  +6.3511904      677.675      1064.97     949.4504     87.68842     175.5868     351.3485      1.405     4.64     1120.431     61.95553     155.4385         7     1.283     0.567 -62.94   0
       116    906.4716    839.6097 307.5317626  +6.3521239      3258.18     5160.427     4858.258     87.54823     175.3768     351.2786      1.656     3.39      1121.51     61.95553     431.9724        24     1.402     0.969 -59.29   0
       117    317.1208    840.8917 307.7766043  +6.3319188     914.6584     1731.165      1652.07     87.82838     176.0758     351.5582      1.924     4.53      1136.68     61.95553     104.4442         8     0.912     0.641  47.36   0
       118    364.6137    835.9363 307.7570385  +6.3355549     2218.768     3988.445     4346.779     87.54823     175.5868     351.3135      1.983     5.03     1135.697     61.95553     248.0294        24     1.459     1.156 -68.64   0
       119    500.9543    825.4416 307.7007421  +6.3444485     2626.385     4372.342     4620.392     87.96812     175.7966     351.3135      1.791     4.05      1131.14     61.95553     307.4554        24     1.347     1.081 -59.18   0
       120    845.1346    824.5832 307.5577555  +6.3562867     932.1242     1610.549     1672.318     87.54823     175.6568     351.3485      1.755     3.90     1122.458     61.95553     134.8351         9     0.964     0.781  65.03   0
       121    547.7545    821.6154 307.6814250  +6.3475923     5135.498      8799.43     10011.59     87.54823     175.5868     351.2086      1.851     3.78     1129.188     61.95553     582.5383        38     1.538     1.304 -57.15   2
       122    554.8333    821.0212 307.6785036  +6.3480741     1048.117     1843.291     1938.168     87.54823     175.5868     351.2786      1.950     5.12     1128.835     61.95553     139.7681        10     1.091     0.678  12.89   3
       123    565.6582    823.5240 307.6739212  +6.3474022     620.9102     1375.776     1485.776     88.24696     175.7966     351.4534      1.949     3.45     1128.594     61.95553     101.8719         5     1.094     0.315 -21.72   0
       124    465.5807    820.9957 307.7155906  +6.3451019     1155.056      1971.23     2026.691     87.68842     175.3768     351.2786      1.902     5.86     1132.257     61.95553     184.9548        13     1.309     0.942 -88.66   0
       125    107.0627    819.9207 307.8645927  +6.3335378     1136.722     1685.343     1515.257     88.24695     175.8664     351.4883      1.575     4.25     1136.074     61.95553     176.2101        14     1.168     0.954 -76.12   0
       126    883.4802    819.8474 307.5419809  +6.3595194     1829.088     2601.112     2581.511     88.10765     175.7966     351.4883      1.452     5.21     1121.425     61.95553     472.3392        12     1.077     0.711  63.50   0
       127    683.5736    818.9271 307.6250796  +6.3532367     680.2996     975.5643     462.2541     87.68842     175.6568     351.3835      1.517     4.71     1125.656     61.95553     97.72168         5     1.087     0.579  14.19   0
       128    518.4701    815.4672 307.6938008  +6.3491527     16891.17     28981.61      30912.2     88.10765     175.9362     351.4883      1.876     3.85     1129.918     61.95553     1899.893        58     1.672     1.331 -66.37   0
       129    359.8098    816.7665 307.7596826  +6.3433101     581.4493      998.853      1898.39     87.54823     175.5868     351.3135      1.751     4.42     1135.337     61.95553     79.22522         5     0.803     0.692 -33.42   0
       130    932.0654    813.5676 307.5220031  +6.3637299     3769.628     5532.787     5998.846     87.96812     175.8664     351.4534      1.588     3.31     1119.935     61.95553     503.0417        27     1.327     1.063 -73.70   0
       131     52.4020    812.3470 307.8875605  +6.3348307     517.1537     649.7225      896.843     87.40782     175.5169     351.0337      1.564     4.32      1135.87     61.95553     80.62683         5     1.026     0.519 -46.68   0
       132     29.0619    805.9664 307.8974745  +6.3366818     1272.641     2271.915     2633.351     87.82838     175.8664     351.4184      2.017     5.19     1135.763     61.95553     148.0582        18     1.405     0.926 -69.66   0
       133    311.2242    804.1979 307.7802956  +6.3468736      2632.63     4663.368     5103.996     87.68842     175.4469     351.2786      1.882     4.02     1136.166     61.95553     345.3508        28     1.359     1.254 -37.82   0
       134    776.5797    799.9216 307.5870727  +6.3641865     50460.95     81981.39     86351.95     87.68842     175.4469     351.4534      1.756     3.55     1122.818     61.95553     6291.129        72     1.662     1.290 -65.85   0
       135     11.1773    802.0927 307.9050367  +6.3376807     1891.833     3004.808     2972.971     88.10765     175.5868     351.3135      1.672     4.34     1135.676     61.95553     235.9041        18     1.297     0.937 -68.60   0
       136    233.8881    798.0103 307.8126388  +6.3468380     4192.723     8129.489      10293.1     87.68842     175.4469     351.3135      2.331     4.21     1136.368     61.95553     513.8667        41     1.696     1.306 -60.35   1
       137    420.5979    798.1498 307.7350535  +6.3530316     685.3074     1285.346     1035.441     87.40781     175.3768     351.0337      1.827     6.56     1133.036     61.95553     118.6462         8     1.387     0.870 -89.73   0
       138    901.8568    795.1891 307.5351740  +6.3703139      8141.96      12780.9     13565.15     87.40781     175.7267     351.1387      1.654     3.29     1119.909     61.95553     1077.626        35     1.415     1.154 -73.80   0
       139    704.8262    794.5345 307.6170704  +6.3640186        18774     31924.49     34916.96     87.68842     175.7267     351.3835      1.844     3.66     1124.662     61.95553     2215.147        57     1.682     1.323 -69.36   3
       140    698.5521    791.0857 307.6197937  +6.3652335     77657.77     129506.5     139338.5     88.10765     175.7267     351.4883      1.819     3.72     1124.436     61.95553     9152.266        93     1.745     1.387 -67.09   3
       141    343.4896    792.0132 307.7673009  +6.3529854     16253.89     29950.09     32285.15     87.82838     175.5169     351.3485      1.969     4.11     1134.635     61.95553      1857.22        60     1.765     1.399 -71.85   0
       142    392.9249    792.3602 307.7467479  +6.3544966     1232.695     2079.365     2299.739     87.96813     175.7966     351.5233      1.714     6.66     1133.313     61.95553     164.5776        17     1.531     0.813 -67.85   0
       143    405.4068    789.8597 307.7416459  +6.3559467     17439.56     32491.24     34926.91     87.40781     175.6568     351.2436      1.972     4.04     1132.824     61.95553     1946.568        65     1.806     1.432 -60.89   0
       144    233.4541    776.4291 307.8135497  +6.3557351     770132.8      2170538      2480170     87.82838     175.8664     351.4184      2.567     5.69     1135.219     61.95553     63436.13       557     2.519     2.084 -75.71   4
       145    942.3888    788.7960 307.5185460  +6.3743030     2172.996     3025.071      3634.19     87.68842     175.4469     351.3835      1.538     3.69     1118.264     61.95553     297.9409        16     1.124     0.917 -64.16   0
       146    898.7191    786.6285 307.5367658  +6.3737445     6470.371     9911.462     10633.85     87.96813     175.5868     351.4534      1.673     3.62      1119.45     61.95553     785.5219        31     1.472     1.026 -70.60   0
       147    639.3560    785.6440 307.6445754  +6.3655053      5575.09     9361.949     9704.479     88.10765     175.7966     351.3485      1.828     3.88     1124.488     61.95553     652.2715        32     1.508     1.165 -68.08   0
       148    428.2477    783.9932 307.7323532  +6.3591333     1446.455     2570.746     2665.024     87.54823     175.5868     351.0687      1.810     4.75     1131.631     61.95553     170.7814        16     1.231     0.989 -78.53   0
       149    476.5713    782.0921 307.7123376  +6.3615343     373.0346     740.3173     824.7848     88.24695     175.5169     351.3835      1.283     3.37     1129.937     61.95553     98.54016         5     1.616     0.203 -54.52   0
       150   1021.9406    778.0557 307.4858490  +6.3813844     860.9461     1089.676     1457.282     88.24695     164.7598     294.2307      1.416     4.12     1114.117     61.95553     126.2078         7     0.939     0.516 -49.42  16
       151    867.5487    777.3867 307.5500295  +6.3765231     646.0745     1109.576     985.3024     87.40782     175.7267     351.2086      1.610     3.94     1119.511     61.95553     108.9717         5     1.003     0.444 -75.54   0
       152    674.4013    775.9133 307.6303407  +6.3706932     2090.908     3673.482     3608.883     87.26717     175.3068     351.1736      1.839     4.44     1123.861     61.95553     255.4517        26     1.515     1.122 -86.77   0
       153    408.3177    772.5233 307.7410223  +6.3632030     42545.46     78091.74     84635.54     88.24696     176.0758     351.6281      1.977     4.04     1131.281     61.95553     4583.069        84     1.797     1.482 -68.67   0
       154    118.5434    776.8613 307.8612818  +6.3517035     934.9247     1346.161     1783.203     88.24695     175.7966     351.5233      1.916     5.93     1135.162     61.95553     126.6975         9     1.054     0.939  -9.84   0
       155    526.0312    771.5861 307.6921402  +6.3675258      5599.25     10239.65     11015.96     87.68842     175.5169     351.4184      1.933     4.20     1127.025     61.95553     586.6019        38     1.655     1.252 -80.01   0
       156    442.8054    770.0719 307.7267744  +6.3653689     3373.014     6560.285     7738.353     87.68842     175.3068     351.3835      2.130     4.54     1130.145     61.95553     396.4016        33     1.554     1.255 -70.55   0
       157    771.2590    768.0527 307.5903568  +6.3771694     10190.14     17048.16     18098.72     88.10765     175.7966     351.4883      1.795     3.54     1120.722     61.95553      1295.08        47     1.599     1.286 -62.63   0
       158    439.3307    763.7837 307.7284307  +6.3678494     1742.505     3397.772     3810.797     87.54823     175.6568     351.3835      2.060     4.95     1129.801     61.95553     189.7241        21     1.353     1.056 -80.85   1
       159      1.2595    764.6982 307.9104263  +6.3527888     651.1399     983.3633      909.678     75.16817     138.2483     263.2986      1.213     3.35     1134.584     61.95553     158.0062         5     0.942     0.393 -76.85  24
       160    792.8198    762.1174 307.5815971  +6.3803390     1077.611     2080.911     1504.032     87.68842     175.4469     351.4184      1.869     5.12     1119.437     61.95553      158.486        11     1.321     0.772  86.59   0
       161    137.2449    760.6769 307.8540596  +6.3590140     2409.381     4650.828     5169.461     87.96813     175.8664     351.5233      2.082     4.62     1134.596     61.95553     296.2894        30     1.606     1.179 -70.08   0
       162    129.0987    760.2782 307.8574580  +6.3589053     9126.049        16973      19013.8     87.68842     176.0758     351.5233      2.011     3.99     1134.549     61.95553     1032.843        50     1.676     1.403 -79.66   1
       163    121.1203    757.4171 307.8608701  +6.3598191     2498.188     4846.998      5735.29     87.68842     175.4469     351.3835      2.176     5.16     1134.428     61.95553     313.2371        30     1.639     1.252 -88.39   3
       164    121.6028    751.3834 307.8608741  +6.3623268     1693.318     3213.723     3793.335     87.68842     175.3768     351.2786      2.055     4.56     1134.207     61.95553     208.6907        22     1.386     1.116 -77.43   3
       165    916.7026    756.6014 307.5303025  +6.3867430     6121.069     9442.436     9368.007     87.54823     175.5169     351.1037      1.656     3.51      1117.05     61.95553     755.0408        29     1.401     1.045 -59.59   0
       166    965.8228    756.5317 307.5098925  +6.3884063     1461.289     2329.853     2816.982     87.68842     175.7267     351.4534      1.802     3.95     1115.475     61.95553     208.7799        14     1.257     0.816 -55.42   0
       167    672.2089    754.7233 307.6319661  +6.3793704     1472.887     2318.365      2645.88     87.68842     175.2367     351.2786      1.718     4.17     1122.772     61.95553     174.6039        15     1.121     0.947  78.53   0
       168    559.2365    753.6616 307.6789471  +6.3760371     1840.643     3410.464      3381.13     88.10765     175.8664     351.4534      1.999     4.57     1124.521     61.95553     226.0781        21     1.377     1.049 -66.23   0
       169    406.7788    753.0886 307.7423185  +6.3711769     965.0305     1998.651     2146.562     88.10765     175.5868     351.3485      2.399     6.20     1129.587     61.95553     137.3799        12     1.567     0.690 -87.94   0
       170    940.3508    748.2127 307.5207573  +6.3909942     3092.114     4553.952     4191.032     87.40781     175.7267     351.1736      1.574     3.22     1115.829     61.95553     426.5946        21     1.233     0.943 -79.27   0
       171    910.8964    748.5075 307.5329875  +6.3898921     2854.605     4402.972      4914.25     88.10765     176.3547     351.4534      1.669     4.18     1116.661     61.95553     359.3771        23     1.454     0.988 -66.88   0
       172    971.1289    747.7773 307.5079817  +6.3921981     1813.288     2727.199     2935.996     87.68842     175.6568     351.4883      1.633     4.05     1114.858     61.95553     241.3706        15     1.279     0.818 -54.49   0
       173    810.2672    746.4767 307.5748733  +6.3873793     925.5911      1550.05     1753.508     88.24696     175.8664     351.4534      1.826     5.77     1118.024     61.95553     138.1676        12     1.278     0.822 -68.51   0
       174    663.3400    747.7178 307.6358877  +6.3819673     1237.793     2044.206     1980.751     88.24696     175.7966     351.5233      1.681     4.94     1122.458     61.95553     144.4731        12     1.127     0.834  24.33   0
       175    885.3522    744.1451 307.5437494  +6.3908431     584.0003     738.3223     1487.061     88.10765     175.7966     351.5931      1.817     4.00      1116.94     61.95553        80.87         6     1.103     0.416 -76.70   0
       176    235.6046    743.0016 307.8137879  +6.3696106     1485.228     2998.312     3959.047     87.40781     175.3068     351.2086      2.335     7.17     1133.471     61.95553     165.6582        23     1.494     1.177 -79.19   0
       177    955.2991    735.8737 307.5149601  +6.3965870     2328.029     3841.794     3837.878     87.68842     175.9362     351.4534      1.719     3.97     1114.699     61.95553     320.2721        22     1.404     0.962 -75.43   0
       178    928.9031    737.9485 307.5258596  +6.3948518     922.0431     1504.981      1759.99     87.96813     175.7267     351.7328      1.788     3.63     1115.513     61.95553     164.7198         9     0.924     0.745 -77.18   0
       179    902.4852    736.8842 307.5368738  +6.3944120     1166.916     1932.069     2156.682     87.82838     175.9362     351.5582      1.838     6.45      1116.08     61.95553     180.8671        15     1.391     0.840 -89.20   0
       180    256.2535    738.6208 307.8053559  +6.3721115     594.7634      1176.62     1754.693     87.54823     175.7966     351.2786      1.839     4.13     1133.065     61.95553     77.48169         5     1.197     0.406  13.63   0
       181    151.6000    736.9913 307.8488974  +6.3692760     555.1506     731.4905     271.5465     87.26717     175.3768     351.2786      1.422     3.86      1133.69     61.95553     88.38684         5     0.873     0.490 -88.90   0
       182    674.8973    735.3042 307.6315035  +6.3874791     715.6755     1199.494     1364.872     88.10765     176.4243     351.3135      1.835     4.37     1121.623     61.95553     105.1672         6     1.092     0.497  49.96   0
       183    996.9288    729.2588 307.4978824  +6.4007036     1816.877     2682.059     2757.713     88.24695     175.7966     351.5233      1.634     3.07       1113.2     61.95553     287.8059        12     0.964     0.816 -41.99   0
       184    798.7586    727.6078 307.5802910  +6.3947877     974.0944     1600.994     1331.251     87.40781     175.5868     351.1736      1.731     6.32     1117.166     61.95553     126.8427        12     1.153     0.973 -20.42   0
       185    884.6777    725.1680 307.5446681  +6.3986573      1311.15     1880.171     2684.788     87.96813     175.7966     351.4534      1.520     3.44     1115.839     61.95553     182.0226        10     0.956     0.752 -52.37   0
       186    858.8344    720.4984 307.5555648  +6.3997251     846.7732     1347.864     1554.278     88.10765     175.6568     351.6281      1.754     3.14     1116.056     61.95553     149.3616         8     0.857     0.702 -61.05   0
       187    841.3365    716.5934 307.5629679  +6.4007548     1351.162     2197.785     1934.094     87.40782     175.4469     351.2436      1.699     5.81     1116.114     61.95553     180.5991        13     1.303     0.886  89.79   0
       188     40.8874    715.7133 307.8956223  +6.3743469     2118.162     3821.821     4368.086     87.82838     176.0758     351.5931      1.958     4.91     1132.896     61.95553     243.5961        25     1.596     1.048 -75.84   0
       189    104.1891    716.2186 307.8693018  +6.3762631     752.5062     1449.906     1708.398     87.68842     175.4469     351.3485      2.208     5.20     1132.834     61.95553     105.8112         8     1.143     0.669 -68.13   0
       190    695.6787    707.0232 307.6238208  +6.3998511     564.1209     833.9025     512.7362     87.68842     175.5868     351.4534      1.462     4.26     1119.109     61.95553     81.13293         7     0.743     0.695 -72.89   0
       191    653.3184    703.9102 307.6415292  +6.3997231      5013.58     9072.827      9312.58     87.82838     176.0061     351.5582      1.932     4.07     1120.192     61.95553     537.0125        42     1.644     1.312 -70.42   0
       192    600.0247    703.2812 307.6636974  +6.3982037     1199.075     2121.228     2246.346     87.82838     175.5169     351.4534      1.908     6.15     1121.024     61.95553     132.9458        16     1.164     1.036  30.44   0
       193    116.4847    700.1961 307.8647358  +6.3832919     2879.453     5440.146     5845.974     87.54823     175.3768     351.1736      2.007     4.35     1132.088     61.95553     412.4274        31     1.448     1.349 -52.21   0
       194    627.1601    699.5321 307.6525473  +6.4006579     1794.426     3204.333      3373.82     87.96813     175.7267     351.5931      1.804     4.50     1120.346     61.95553     236.5483        21     1.439     1.015 -52.49   0
       195    990.2725    699.0649 307.5016633  +6.4129509      2518.26     3825.615     4080.195     88.10765     175.7966     351.5233      1.650     3.66     1111.848     61.95553     317.0171        19     1.274     0.903 -72.27   0
       196    770.1813    696.0676 307.5932289  +6.4068598     16989.15     29434.62     31235.27     87.68842     175.7267     351.3835      1.844     3.86     1116.121     61.95553     2025.909        54     1.659     1.309 -70.98   0
       197    900.1224    695.8228 307.5392368  +6.4112898     3447.828      5260.14     5506.908     87.68842     175.5868     351.4184      1.644     3.44     1114.049     61.95553     490.1813        24     1.331     1.041 -67.21   0
       198    497.9216    696.4386 307.7063583  +6.3976181     733.2624     1169.394      1437.02     87.96812     175.8664     351.4883      1.689     3.84     1124.395     61.95553     105.8954         6     1.245     0.340  49.65   0
       199    469.2511    696.5445 307.7182690  +6.3966158     1008.566     1798.028     1613.983     88.10765     175.7966     351.4883      1.874     5.32     1125.538     61.95553     151.2941        13     1.219     0.885   0.97   0
       200    315.5493    695.4415 307.7821774  +6.3919281     576.6483     915.0156     937.4026     88.10765     175.7966     351.4883      1.665     4.11     1129.665     61.95553     98.29126         5     1.163     0.414 -55.01   0
       201    243.7565    689.6663 307.8122061  +6.3919078     4425.321     8680.922     10354.67     88.10765     175.7267     351.5233      2.154     4.50     1130.742     61.95553      485.249        44     1.751     1.445  89.79   0
       202    650.7189    688.8197 307.6431183  +6.4058680     5515.559     10102.23     10870.89     87.68842     175.4469     351.4184      1.984     4.27     1119.421     61.95553     582.1497        41     1.652     1.278 -68.84   0
       203    632.9509    689.8969 307.6504658  +6.4048300     751.7191     1597.565     1498.202     87.96813     175.7267      351.663      2.117     5.88     1119.763     61.95553     102.7666         7     1.312     0.743 -82.36   0
       204    910.5819    681.4858 307.5353723  +6.4175585      1132.13     1675.185     2175.105     87.68842     175.5169     351.4184      1.752     4.12     1113.136     61.95553     157.4218        14     1.125     0.973  77.10   0
       205    722.2950    677.3357 307.6137603  +6.4129984     2997.905     5225.578     6025.216     87.96813     175.9362     351.5233      1.868     4.65      1116.04     61.95553     304.8656        29     1.566     1.158  87.53   0
       206    677.6904    676.6841 307.6323189  +6.4117794     758.9587     1412.295     1425.311     87.82838     176.1456     351.6281      1.799     4.00     1118.138     61.95553     112.9596         6     0.953     0.479  56.10   2
       207    988.7082    673.8625 307.5031604  +6.4233063     8805.228     13522.84     14213.44     88.10765     175.9362     351.5582      1.657     3.37     1110.593     61.95553     1173.808        38     1.556     1.084 -71.62   0
       208    977.3702    674.7538 307.5078423  +6.4225611     642.3089     908.7902     790.1493     87.54823     175.9362     351.3485      1.508     4.37     1111.038     61.95553     89.65503         5     1.177     0.462 -30.44   0
       209    927.1266    674.1010 307.5287449  +6.4211588     2098.565     3364.617     3584.772     87.68842     175.9362     351.4534      1.713     3.71     1112.592     61.95553     340.6611        19     1.264     0.958 -71.06   0
       210      7.8020    673.8528 307.9107904  +6.3905211     1534.563     3102.036     3832.403     87.40781     175.5169       348.47      2.266     6.18     1131.217     61.95553     200.8378        24     1.646     1.072 -30.42  16
       211     66.2358    668.9893 307.8866741  +6.3944916     19397.74     37299.45     41069.44     87.54823     175.5868     351.2436      2.061     4.16     1131.087     61.95553     2488.303        71     1.875     1.458 -80.69   0
       212    496.2488    667.0990 307.7080443  +6.4096777      1006.75     1741.435      1783.97     88.10765     175.7267     351.6979      1.843     6.55     1122.948     61.95553     136.1583        12     1.338     0.901 -53.82   0
       213    916.9714    666.0142 307.5332372  +6.4241602     811.3769      1315.34     1237.603     87.68842     175.5868     351.3835      1.844     3.64      1112.22     61.95553     129.8374         7     0.887     0.621 -32.53   0
       214    711.9966    661.0101 307.6185903  +6.4193965     2790.695      5076.09     5263.426     87.54823     175.4469     351.3485      1.875     4.42     1115.613     61.95553     297.3391        29     1.489     1.208 -48.07   0
       215    536.3967    662.9282 307.6915009  +6.4127419      607.781      1030.23     788.8417     87.54823     175.3768     351.3135      1.405     4.18     1121.652     61.95553     108.9534         6     1.287     0.387  18.66   0
       216    734.1693    659.1890 307.6094371  +6.4208880     3210.585     5974.441     6614.713     87.54823     175.5169     351.3485      2.004     4.38     1114.602     61.95553     372.9323        32     1.574     1.214 -69.95   0
       217    565.6376    657.2400 307.6795411  +6.4160677     2373.177     4539.471     4693.079     87.82838     175.7966     351.3485      2.012     5.39     1120.185     61.95553     269.3887        35     1.755     1.327 -75.00   0
       218    226.3050    657.1285 307.8205598  +6.4047589     1249.312     2561.754     2888.618     88.10765     175.8664     351.4883      2.063     6.49     1129.542     61.95553     161.2174        19     1.509     1.202  88.07   0
       219    402.7196    658.5535 307.7472007  +6.4100785     693.0972     1691.089     1388.926     88.10765     175.7966     351.4883      2.217     4.42     1125.975     61.95553      90.4325         7     1.257     0.443 -57.02   2
       220   1006.8986    655.2590 307.4962257  +6.4315937     4828.992      7096.52     6997.946     87.82838     175.7267     351.6281      1.538     3.27     1108.656     61.95553     704.1976        25     1.408     0.902 -69.44   0
       221    972.3531    654.2136 307.5106178  +6.4308764     7873.091      12226.2     13190.39     87.40781     175.5868     351.2436      1.655     3.37     1109.759     61.95553     1035.853        35     1.492     1.082 -68.74   0
       222    310.0472    656.2612 307.7857894  +6.4079228     1240.131     2157.221     1899.459     87.96813     175.7267     351.5582      1.776     4.92     1127.795     61.95553     165.6884        16     1.380     0.931 -38.19   0
       223   1021.8938    653.1192 307.4900657  +6.4329760     797.0838     1264.793     971.2941     87.82838     165.3551     294.8979      1.629     4.59     1108.008     61.95553     125.5206        10     1.119     0.690 -88.42  16
       224    692.6812    653.3636 307.6268752  +6.4219097      628.644     1147.011     1712.017     88.10765     175.8664     351.4534      2.025     5.88     1115.899     61.95553     107.8109         6     1.192     0.816  38.85   0
       225    417.7871    648.7263 307.7412713  +6.4146407     2136.082     4019.865     4500.452     87.54823     175.4469     351.2786      2.043     4.80     1124.907     61.95553     244.9546        29     1.584     1.177 -86.90   0
       226    130.9574    647.8722 307.8604953  +6.4053836     17571.47      34324.7     37331.44     87.96813     175.7966     351.5233      2.105     4.27     1129.878     61.95553      2059.03        69     1.838     1.524 -76.29   0
       227    527.5681    669.9713 307.6949320  +6.4095384      1690.01     3058.277     2923.726     87.54823     175.5169     351.2436      1.967     4.93     1122.172     61.95553     207.0354        17     1.280     0.969 -66.32   0
       228    799.1385    648.4652 307.5827979  +6.4274824      1236.69     1728.954     1677.295     88.10765     175.7267     351.5233      1.658     6.33     1113.307     61.95553     121.8506        14     1.132     0.993 -73.83   0
       229    967.2407    637.2401 307.5133131  +6.4377155     6314.661     10781.63     12014.89     87.82838     175.8664     351.3485      1.849     3.57     1108.728     61.95553     830.0264        42     1.518     1.336 -77.78   0
       230     12.3838    636.7701 307.9101449  +6.4059874     910.4913     1784.093     1642.604     87.68842     175.5169     351.4184      2.121     5.34     1131.515     61.95553     125.4316        11     1.163     0.870  89.29   0
       231   1022.3844    632.3458 307.4905597  +6.4415708     89854.77       129317     133558.9     87.40781     159.4558     286.7464      1.573     3.34      1106.49     61.95553     11862.11        59     1.542     1.065 -80.14  24
       232    560.9011    632.5616 307.6823425  +6.4261003     35164.92     68373.26     74420.27     88.10765     175.6568     351.7328      2.083     4.40      1119.23     61.95553     3521.873        81     1.844     1.528 -68.23   0
       233    925.3495    634.4774 307.5308160  +6.4374623     734.4788     1183.815     965.1026     88.10765     175.8664     351.4534      1.794     4.73     1109.931     61.95553     121.8005         6     0.981     0.647 -68.32   0
       234    168.4794    629.4947 307.8455257  +6.4142310      2032.76     3905.587      3896.75     87.82838     176.0758     351.5582      1.943     5.10     1129.086     61.95553     228.5625        26     1.527     1.218  89.32   0
       235     61.5475    623.8917 307.8901519  +6.4129563     1182.993     1856.005     1439.848     87.96812     175.5868     351.6979      1.697     4.66     1130.194     61.95553     155.9288        14     1.204     0.977 -11.16   0
       236    458.1877    616.3610 307.7255755  +6.4293570     44351.56     90056.47     99571.35     87.54823     175.5868     351.2436      2.140     4.57     1121.472     61.95553     4729.523        97     1.925     1.589 -71.01   0
       237      1.9241    617.9223 307.9151310  +6.4134188     1329.985     1874.786     2034.193     84.25952     149.5992     275.2053      1.548     5.82     1132.018     61.95553     157.8008        13     1.230     0.776  88.01  24
       238    133.1998    611.6011 307.8607929  +6.4204363     1110.754     2133.667     1151.708     87.40781     175.3068     351.1387      2.023     6.54     1128.672     61.95553     149.3702        16     1.388     1.134 -89.14   0
       239    927.6342    609.0961 307.5307201  +6.4480196     693.9933     902.9998     1455.097     88.24695     175.6568     351.6281      1.468     4.61     1108.122     61.95553     116.9296         8     1.088     0.556 -67.69   0
       240    603.6707    608.0088 307.6653964  +6.4376678     632.2045     1071.382     1476.804     87.54823     175.3068     351.3485      1.590     4.75     1115.021     61.95553     100.2042         5     1.265     0.506  16.64   0
       241    303.7300    605.7631 307.7901234  +6.4285638     1425.412     3150.724     3589.992     87.96813     175.8664     351.5582      2.366     6.15     1124.422     61.95553     180.0508        26     1.631     1.222 -58.56   0
       242    730.1233    599.8405 307.6131184  +6.4452610     4173.735     7390.736     8008.385     87.96812     175.7966     351.5582      1.929     4.00     1112.231     61.95553     462.2039        36     1.578     1.279 -63.62   0
       243    783.6876    595.1102 307.5910161  +6.4490004     11005.37     19443.08     20801.84     87.82838      176.285     351.6281      1.901     3.95     1110.911     61.95553      1291.58        48     1.671     1.292 -64.00   0
       244   1000.7408    595.3988 307.5007965  +6.4561085     1046.315     1555.771     1122.481     87.40781     175.5169     351.1387      1.645     5.67     1104.679     61.95553     131.0381        12     1.032     0.879 -79.90   0
       245    526.0146    594.7363 307.6981178  +6.4405543     1033.521     2034.314     2021.047     87.54823     175.6568     351.3485      2.072     6.52      1118.56     61.95553     115.4293        13     1.274     0.937 -71.62   0
       246   1023.0496    593.9927 307.4915719  +6.4574310     1819.628     2432.249     2547.396     83.67438     149.3527     275.2946      1.407     3.95     1103.776     61.95553      272.701        16     1.271     0.835 -80.87  24
       247    607.4235    593.2874 307.6643335  +6.4438722     2112.225      4024.56     4308.616     88.10765     175.5868     351.3485      2.020     5.71     1114.448     61.95553     226.2867        25     1.606     1.075 -77.37   0
       248    924.3350    589.2807 307.5327577  +6.4560926     1077.125     1799.765     2303.921     88.38603     175.8664     351.4534      1.795     4.16     1107.295     61.95553     155.2981        11     1.139     0.828 -30.32   0
       249    366.7610    587.8127 307.7645361  +6.4380867     683.0861     1337.401     1201.778     87.54823     175.5868     351.2436      1.631     3.86     1122.373     61.95553     97.93872         5     1.228     0.348 -77.92   0
       250    221.0981    587.0477 307.8250969  +6.4335231     993.4246     1681.711     2152.317     88.10765     175.7267     351.6979      1.955     4.93     1126.593     61.95553     130.3351         9     0.982     0.702  84.96   0
       251    859.6025    578.2123 307.5600339  +6.4585079     2470.331     4296.333     5028.992     87.68842     175.4469     351.3135      1.964     4.20     1108.719     61.95553     284.9027        26     1.412     1.149 -66.04   0
       252    818.5750    575.7676 307.5771679  +6.4581506     2095.804     3656.318     3579.953     87.54823     175.5868     351.3135      1.873     4.69     1109.315     61.95553     250.2437        23     1.378     1.178  88.54   0
       253    246.6348    570.9996 307.8150278  +6.4410059     5604.931     11256.61     12601.38      87.1263     175.5868     351.2786      2.116     4.41      1124.17     61.95553     637.7159        50     1.740     1.502 -86.18   0
       254    799.1015    566.9773 307.5855574  +6.4611316     125462.3     227190.1     246388.9     88.10765     175.5169     351.2786      1.961     4.11     1109.259     61.95553      13496.6       122     1.838     1.517 -68.20   0
       255    180.7931    565.4534 307.8425783  +6.4410886     39852.16     82637.66     92890.46     87.54823     175.5868     351.1736      2.193     4.65     1126.099     61.95553     4236.176       100     1.970     1.657 -69.94   0
       256    104.7785    561.7268 307.8742948  +6.4400772     4309.695      8811.62     9748.783     87.68842     175.5868     351.4184      2.149     4.67     1127.025     61.95553     512.8505        43     1.725     1.438 -81.93   0
       257    969.9481    558.7554 307.5148264  +6.4702161     1214.403     1921.038     1935.144     88.10765     175.7267     351.4883      1.741     5.89     1103.817     61.95553     170.8798        14     1.512     0.827 -66.20   0
       258    835.5619    554.1452 307.5708358  +6.4676456     3725.315     6520.878     7166.179     88.10765     175.8664     351.5233      1.870     4.68     1107.782     61.95553     431.2378        30     1.600     1.078 -69.75   0
       259    354.1764    552.6094 307.7709568  +6.4522022     11151.04     23974.64     26388.81     87.68842     175.5868     351.3485      2.205     4.85     1120.717     61.95553     1227.439        64     1.873     1.576 -72.04   0
       260    156.3752    552.6707 307.8531592  +6.4455480     973.8136     2307.008     2793.837     87.68842     175.6568     351.4184      2.565     5.52     1126.279     61.95553     152.3937        10     1.289     0.676 -25.02   2
       261    789.5431    547.7007 307.5901793  +6.4687733     4509.962     8233.303     9086.354     87.82838     175.7966     351.6979      1.967     4.36     1108.652     61.95553     471.5188        35     1.571     1.268 -70.72   0
       262    520.4539    547.4337 307.7020263  +6.4599017     4444.711      8873.11      9803.13     87.96813     175.7966     351.4184      2.115     4.60     1114.962     61.95553     455.0109        41     1.688     1.361 -73.35   0
       263    789.3936    571.7091 307.5894328  +6.4588540     2082.091     3891.989     4796.199     87.68842     175.4469     351.2436      2.248     4.78     1109.765     61.95553     216.2391        25     1.498     1.139 -50.54   1
       264     93.3059    549.2164 307.8794868  +6.4448580     782.8008     1481.692      1504.71     87.82838     175.5868     351.3135      2.064     5.69     1126.776     61.95553      106.835         8     0.990     0.920 -24.66   0
       265    378.4301    543.5342 307.7611839  +6.4567616     923.3315      1902.27     2285.495     87.82838     175.7966     351.4184      2.338     6.94     1120.175     61.95553     124.6398        13     1.304     1.035  71.01   0
       266    167.5823    540.7866 307.8489044  +6.4508313     4983.258     10063.73     10525.74     87.82838     175.4469     351.3835      2.103     4.58     1125.383     61.95553     540.8085        44     1.737     1.424 -71.25   0
       267    565.2942    540.2937 307.6836311  +6.4643486     1768.987     3464.526     3366.635     88.10765     176.3547     351.4534      2.043     5.06     1113.675     61.95553     176.1481        23     1.309     1.225 -54.41   0
       268    262.8148    537.0909 307.8094516  +6.4555502     56900.17     122525.9     137214.6     87.82838     175.5868     351.3135      2.242     4.83     1120.874     61.95553     6469.445       100     1.987     1.652 -71.13   0
       269     39.2382    539.4932 307.9022860  +6.4470576     3734.437     7405.351     8344.183     88.24696     175.7267     351.5582      2.069     4.58     1127.801     61.95553      443.291        39     1.628     1.443 -62.47   0
       270    805.9782    539.8989 307.5836112  +6.4725428     1017.985     1920.308     2251.954     87.96813     175.5169     351.2436      1.992     6.32      1107.84     61.95553     137.8633        12     1.182     0.948 -49.23   0
       271    489.5305    527.8606 307.7155395  +6.4669505     28066.91     60597.38     69603.82     88.24695     175.7966     351.5233      2.295     4.73     1113.895     61.95553     2740.369        94     1.940     1.798 -63.72   0
       272    246.6574    532.2719 307.8163298  +6.4569986     847.9247      1877.36     2265.566     88.24696     175.7966     351.4534      2.277     7.18      1121.13     61.95553     113.2393        11     1.214     1.189  44.77   0
       273    962.0489    530.4961 307.5190597  +6.4816231     1494.412     2398.482     2705.802     87.96812     175.6568      351.663      1.742     5.03      1102.49     61.95553     187.8673        15     1.338     0.840 -89.55   0
       274    785.8015    529.3637 307.5923521  +6.4762208     12427.18     22486.26     23959.97     87.12631     175.5868     351.2436      1.922     4.09     1107.984     61.95553     1366.699        53     1.698     1.338 -70.00   0
       275    202.1310    524.1113 307.8351112  +6.4588757     1321.613     2886.236     3606.957     88.24695     176.0758     351.4534      2.433     6.10     1122.638     61.95553     190.5886        24     1.673     1.230 -67.08   0
       276     37.8657    524.2681 307.9033731  +6.4532984     849.0164     1662.089     1064.067     88.10765     175.8664     351.5233      1.764     7.98     1127.293     61.95553     121.9568        15     1.528     1.166  82.55   0
       277    649.3903    522.7214 307.6492721  +6.4744133     2153.487     4236.523     4837.961     87.68842     175.3068     351.3135      2.070     4.72     1110.755     61.95553     232.5023        27     1.438     1.241 -73.97   0
       278    659.6664    522.4230 307.6450111  +6.4748796      1061.62     1922.544      2287.52     87.68842     175.7966     351.4184      1.849     6.01     1110.387     61.95553     139.5746        13     1.192     0.852  52.94   0
       279    711.6046    521.3500 307.6234604  +6.4770558     977.0845     1895.099     1832.316     87.40782     175.5868     351.1037      1.971     6.11      1109.32     61.95553     139.3735        13     1.438     1.108 -57.99   0
       280    385.8233    519.5909 307.7589210  +6.4668962     847.9279     1496.982      1675.37     87.68842     175.5169     351.3485      2.109     6.33     1117.969     61.95553     115.4871        10     1.896     0.594 -75.57   2
       281    388.3148    518.4718 307.7579233  +6.4674417     872.5314     1280.022     1347.913     88.24696     176.0758     351.5233      1.598     4.31     1117.776     61.95553      137.821         8     1.220     0.434 -80.77   3
       282    318.6809    517.0526 307.7869119  +6.4656963     2556.961     5456.006     6200.507     88.10765     175.7966     351.5233      2.238     5.33     1118.123     61.95553     274.0547        36     1.697     1.350 -59.39   0
       283    133.9209    515.4786 307.8637516  +6.4601524     17974.67     36361.88      39855.7     88.38603     176.0758     351.6281      2.154     4.60     1124.817     61.95553     1996.437        67     1.889     1.533 -74.11   0
       284    498.5525    516.1539 307.7121853  +6.4720863     1514.464     2905.947     3708.936     88.10765     175.6568     351.5233      2.206     6.06     1112.792     61.95553     174.0111        24     1.659     1.028  73.92   0
       285    861.6749    515.6866 307.5612771  +6.4843970     1305.978      2201.32     2012.728     88.10765     176.1456     351.5582      1.799     5.17     1105.211     61.95553     148.7438        16     1.210     1.029 -75.41   0
       286     99.2634    513.6293 307.8782177  +6.4597529     1787.703     4013.162     4148.523     87.82838     175.7966     351.4184      2.199     5.82     1125.226     61.95553     229.2719        32     1.622     1.402 -53.92   0
       287    336.1168    511.9866 307.7798367  +6.4683722     721.2009     1365.411     1378.662     87.68842     175.5169     351.3135      2.027     6.07     1117.583     61.95553     101.5865         9     1.195     0.866 -61.84   0
       288    959.3148    509.7853 307.5208925  +6.4900847     4490.346     7534.617     7308.993     87.68842     175.5169     351.3485      1.769     3.83     1101.438     61.95553     540.3286        31     1.485     1.139 -65.43   0
       289    532.8495    502.2739 307.6983994  +6.4789644     1005.533     2210.591      2587.47     88.10765     175.8664     351.5233      2.352     7.18     1111.445     61.95553     115.3665        13     1.250     1.154 -14.75   0
       290    430.8783    496.5403 307.7409748  +6.4779223     27962.28     59219.86     65815.72     88.24695     175.7966     351.4534      2.213     4.88     1114.645     61.95553     2884.742        82     1.938     1.610 -69.62   0
       291      1.1528    498.9662 307.9194892  +6.4625129     1701.637     2489.884     2367.621     73.51592     136.3697     261.0027      1.294     4.10     1127.519     61.95553     449.3466         9     1.441     0.344 -85.70  24
       292    638.8231    496.1732 307.6545597  +6.4850235     8337.379     16537.86     18469.65     87.54823     175.6568     351.3835      2.098     4.54       1109.2     61.95553     897.7976        51     1.759     1.429 -72.11   0
       293    278.7883    497.3582 307.8041582  +6.4724925     764.2321     1361.651     1552.999     87.40781     175.5868     351.1736      1.802     4.75      1117.24     61.95553     120.0072         6     1.213     0.527 -48.02   0
       294    196.0184    494.1575 307.8386665  +6.4710396     12612.14     27354.34     31131.23     87.54823     175.5868     351.2436      2.263     4.90     1121.014     61.95553     1396.413        69     1.933     1.652 -79.52   0
       295    161.9969    495.4205 307.8527632  +6.4693770     1002.316     1939.372     2054.333     87.68842     175.4469     351.2436      1.968     5.73     1123.444     61.95553      125.348        11     0.995     0.931 -79.22   0
       296    972.7639    494.1981 307.5158266  +6.4969689     1040.173     1827.534     1634.217     87.12631     175.5868     351.2786      1.854     5.79     1099.572     61.95553     138.9944        12     1.325     0.712 -50.55   0
       297    560.5895    493.2431 307.6871749  +6.4836206     1942.641     3962.827     3734.289     87.54823     175.5868     351.1736      2.067     5.98     1110.543     61.95553     260.9154        25     1.530     1.247  84.47   0
       298    812.9832    494.1908 307.5822390  +6.4916514     877.4075     1223.969      1283.77     87.82838     175.5169     351.3835      1.479     4.78     1105.851     61.95553     122.8618         7     0.872     0.742  64.88   0
       299    934.3387    490.0419 307.5319377  +6.4974065     4104.449     6834.567     6987.262     88.10765     175.7966     351.5582      1.768     3.80     1101.861     61.95553     479.9368        32     1.410     1.237 -81.48   0
       300    607.7495    488.4391 307.6677358  +6.4871797     4607.118     9003.886     10209.92     87.96813     175.7966     351.4534      2.106     4.80     1109.618     61.95553     429.4906        41     1.744     1.331 -62.74   0
       301     95.4372    488.7383 307.8806521  +6.4699027      686.553     1514.609     1600.965     88.10765     175.8664     351.4883      2.227     5.29     1124.272     61.95553     90.77637         8     0.974     0.812 -62.81   0
       302    956.9287    482.2520 307.5228102  +6.5013752     2912.969     4719.664     4440.016     87.96813     175.7966     351.5233      1.682     3.80     1099.879     61.95553     348.2087        24     1.479     0.942 -71.34   0
       303    519.8048    479.8642 307.7045780  +6.4877824     4783.143     10044.51      11159.1     87.40781     175.4469     351.2786      2.176     4.72     1109.841     61.95553     533.3933        46     1.762     1.432 -72.18   0
       304    365.8105    479.9886 307.7685780  +6.4825796     1687.158     3624.489     3594.237     87.82838     175.5868     351.4534      2.134     5.65     1114.533     61.95553     181.3531        30     1.514     1.384 -73.09   0
       305    876.3411    475.5567 307.5565318  +6.5014571     2711.819     4829.499     6233.386     87.96813     175.7966     351.5931      2.070     4.34     1102.769     61.95553     327.1377        26     1.476     1.115 -69.73   0
       306    883.5372    469.9104 307.5537308  +6.5040285     1899.449     3285.675     4233.288     88.10765     175.9362     351.5582      2.032     5.39     1102.154     61.95553     193.3436        21     1.482     1.004 -69.76   0
       307    923.0351    469.0549 307.5373421  +6.5056968     1037.014     1776.486       1874.4     87.96813     175.7966     351.5233      1.913     6.35     1101.065     61.95553     134.1062        13     1.376     0.822 -74.46   0
       308    102.5884    469.8387 307.8783210  +6.4779469     549.8195     961.5477     766.1113     87.54823     175.5868     351.1736      1.733     3.45     1123.192     61.95553      85.0105         5     0.761     0.452  71.42   0
       309    707.5027    465.9946 307.6270314  +6.4997778     2259.787     4093.088     4560.175     87.82838     175.4469     351.2086      1.964     4.95     1105.711     61.95553     231.9119        24     1.331     1.260 -79.60   0
       310    378.5978    464.2893 307.7637943  +6.4894905     2269.213     4887.583     5142.441     87.40781     175.3768     351.2086      2.162     6.06     1112.791     61.95553     224.7694        33     1.715     1.308 -68.98   0
       311     69.7793    465.4845 307.8921043  +6.4786434     1298.719     2454.478     2503.487     87.82838     175.4469     351.3835      2.082     6.61     1123.819     61.95553     158.3738        20     1.465     1.115 -52.57   0
       312    606.3054    460.8448 307.6692672  +6.4985264      6922.14      14086.7     16069.18     87.96813     175.7267     351.6281      2.168     4.76     1107.693     61.95553     697.3319        52     1.810     1.463 -66.26   0
       313    769.2349    457.0435 307.6016741  +6.5055330     11909.01      23219.8     26740.56     87.82838     175.7966     351.3135      2.149     4.79     1104.297     61.95553     1239.274        73     2.225     1.450 -55.71   0
       314    288.9044    457.8706 307.8012905  +6.4891372     1772.828     3467.119      3445.67     87.96813     175.8664     351.4883      2.047     5.43     1114.005     61.95553     200.2015        21     1.328     1.156 -61.37   0
       315    413.1552    456.6779 307.7496886  +6.4937901     535.2624     1004.003     931.4628     87.96813     175.7966     351.4883      1.857     4.51     1111.447     61.95553     79.19653         6     1.206     0.480 -47.61   0
       316    797.6070    454.9066 307.5899532  +6.5073613     938.8065     1779.761     1330.571     87.68842     175.4469     351.2786      2.036     6.04     1103.676     61.95553     123.5315        11     1.234     0.832  73.03   0
       317    371.8435    454.5076 307.7669325  +6.4933036     1001.932      2338.55     2445.638     88.10765     175.7966     351.6281      2.262     7.41      1112.04     61.95553     117.0874        16     1.487     1.033 -65.29   0
       318    954.3029    452.0325 307.5249179  +6.5137670     1735.506     2765.673     2695.752     88.24695     175.6568     351.5931      1.711     4.66     1098.348     61.95553     204.9054        19     1.309     1.001 -73.63   0
       319    106.5820    449.3115 307.8773573  +6.4865572     3191.321     6435.357     7320.184     87.82838     175.5169     351.3835      2.142     4.93     1121.955     61.95553     373.0149        37     1.676     1.366 -78.14   0
       320    744.3000    448.3601 307.6123310  +6.5082873     1659.385     3158.823     3541.479     88.10765     175.6568     351.7328      2.043     5.37     1103.989     61.95553     186.7777        22     1.388     1.141 -55.67   0
       321   1008.0706    446.7624 307.5027458  +6.5177321     3498.379      6478.99     7116.551     87.96812     175.7966     351.5582      1.996     4.19     1095.142     61.95553     388.5426        33     1.487     1.303  61.35   0
       322    342.4823    444.3582 307.7794793  +6.4965116     2147.341     4244.956     4900.575     88.10765     175.7966     351.4184      2.202     5.24     1111.683     61.95553     232.0006        26     1.440     1.277 -86.99   0
       323    264.3376    446.1740 307.8118971  +6.4931439      928.764       1852.2     1984.701     87.68842     175.7267     351.3835      2.231     6.39     1114.526     61.95553     113.7042        11     1.288     0.891  -1.20   0
       324    698.1598    441.8003 307.6317305  +6.5094570     1065.018     2456.734     2951.064     86.98521     175.4469     351.1736      2.495     8.01     1103.974     61.95553     121.1637        18     1.746     1.027 -43.69   0
       325    229.2107    439.3513 307.8267279  +6.4947838     625.8272     1181.771     1347.461     87.54823     175.6568     351.1387      2.352     5.56     1116.227     61.95553     88.68445         6     1.629     0.534 -37.96   0
       326    824.7557    432.0210 307.5794393  +6.5177167      1157.31     2085.834     2548.587     87.54823     175.6568     351.2786      1.940     6.45     1101.105     61.95553     140.6777        19     1.426     1.150 -33.13   0
       327    462.4304    432.3351 307.7300308  +6.5054906     890.9122     1937.496     2036.686     87.82838     175.9362     351.4184      2.254     6.34     1107.211     61.95553     109.7841         9     1.241     0.911  18.40   2
       328    810.0872    431.0953 307.5855677  +6.5176101     1481.639     2443.698     2842.757     88.10765     176.2153     351.5582      2.021     4.55     1101.406     61.95553     193.3372        16     1.181     1.021 -29.17   0
       329    707.5015    428.9615 307.6282804  +6.5150704     10784.79     20828.34     23013.85     88.10765     175.6568     351.7328      2.045     4.60     1102.902     61.95553     1072.818        51     1.742     1.396 -72.07   0
       330    628.7615    424.9938 307.6611431  +6.5140807     1727.019     3433.934     3790.994     87.12631     175.5169     351.2086      2.076     4.67     1104.327     61.95553     189.3411        27     1.417     1.250 -72.63   0
       331    600.9953    420.2615 307.6728440  +6.5151076     8776.035      22791.5     30326.05     87.40781     175.5169     351.2086      2.806     6.93     1104.655     61.95553     983.2537        89     2.564     1.798  36.17   0
       332    932.6999    419.0464 307.5350071  +6.5266696     3134.789     5391.425     5579.712     88.10765     175.6568     351.7328      1.803     3.98     1097.334     61.95553     368.8297        27     1.433     1.146 -67.27   0
       333    371.9321    414.9875 307.7682325  +6.5096259     18104.79     39986.44     44948.11     87.54823     175.6568     351.3835      2.265     4.95     1108.212     61.95553     2059.549        73     1.936     1.610 -69.22   0
       334    118.0671    414.6647 307.8737588  +6.5012494     1537.412     3306.189     3530.216     88.10765     175.7966     351.5233      2.161     6.15      1119.68     61.95553     193.3173        24     1.583     1.265  84.35   0
       335    887.8866    414.2868 307.5537949  +6.5271431     1274.544      2300.04     2644.676     87.82838     176.0758     351.5931      1.981     4.07     1098.329     61.95553      200.678        18     1.302     0.959  81.95   0
       336     51.4447    410.7757 307.9015807  +6.5006184     1030.892     2235.552     3278.632     87.54823     175.7966     351.3485      2.811     7.91     1121.219     61.95553     112.7952        20     1.492     1.172 -61.14   0
       337    901.5037    409.2800 307.5483031  +6.5296641     4176.615     6868.803      6947.19     87.82838     176.0758     351.5931      1.793     3.93     1097.672     61.95553     514.4917        30     1.439     1.160 -75.35   0
       338    229.5008    405.6001 307.8277506  +6.5087305     8749.435     18968.08     20705.38     87.54823     175.3768     351.0337      2.224     4.90     1114.554     61.95553     942.5918        61     1.861     1.595 -77.28   0
       339    297.2258    406.1087 307.7995841  +6.5107903     1705.869     1758.607     2179.623     88.24695     175.5169     351.3135      0.617     0.97      1110.34     61.95553     882.2804         5     0.484     0.411  72.76   0
       340     65.3186    400.0898 307.8961770  +6.5054968     676.7769     1088.145     1214.908     87.82838     176.0061     351.5582      1.873     5.69      1120.68     61.95553     116.5547         7     1.233     0.739 -10.76   0
       341    952.3956    397.7474 307.5275365  +6.5361206     949.9583     1332.027     1402.429     87.40781     175.5169     351.0687      1.558     5.33     1095.164     61.95553     121.3041        10     1.073     0.891 -45.77   0
       342    129.7745    394.1603 307.8695882  +6.5101091     3322.052     7026.123     7288.991     87.68842     175.5868     351.2436      2.169     4.94     1118.614     61.95553     389.5024        39     1.728     1.403 -85.35   0
       343    343.0746    395.3558 307.7808912  +6.5167662     849.0212      1654.17     1658.744     87.96813     175.8664     351.5233      1.925     3.57      1107.89     61.95553     132.6814         7     0.892     0.707 -86.93   0
       344    234.6382    393.4430 307.8260271  +6.5139227     894.5278      1634.72     1259.778     87.82838     175.7966     351.3485      1.870     6.38     1113.353     61.95553     136.1984        12     1.241     0.972 -79.45   0
       345    151.7021    390.1165 307.8606114  +6.5125148     1589.294     3266.104     3261.493     88.10765     176.2153     351.5582      2.170     6.04     1117.674     61.95553     195.6208        24     1.536     1.206 -77.34   0
       346    546.4570    389.3672 307.6965564  +6.5260431      635.917     1156.525     861.7408     87.96813     175.8664     351.4534      1.817     3.47     1102.795     61.95553     104.7454         5     1.100     0.317 -68.59   0
       347    375.2076    384.5002 307.7679024  +6.5223248      1434.15     3259.395     3816.813     87.82838     175.3768     351.2786      2.375     6.64     1105.801     61.95553     177.3015        23     1.406     1.341 -83.39   0
       348    963.4966    384.0291 307.5233834  +6.5421550       1033.9     1766.604     1547.929     88.24695     175.5169     351.4883      1.904     6.14     1093.818     61.95553     120.3187        12     1.249     0.848 -62.87   0
       349     25.4351    379.6026 307.9134490  +6.5126168     2310.448     4895.297     5566.825     87.12631     175.5868     351.2436      2.262     5.37     1121.027     61.95553     262.7366        34     1.728     1.264 -59.72   0
       350    429.1077    378.3036 307.7457079  +6.5266876     4668.237     10204.02     12017.94     88.10765     176.3547     351.4534      2.311     5.30      1103.16     61.95553     474.3069        47     1.809     1.503 -76.54   0
       351    769.6064    375.5800 307.6042646  +6.5391855     9738.891      18382.8     19918.86     87.68842     175.5169     351.2786      2.012     4.37     1099.082     61.95553     1002.493        53     1.723     1.416 -79.94   0
       352    761.4762    377.2841 307.6075868  +6.5382107     1412.229     2472.618     2371.166     88.24696     176.1456     351.5582      1.883     5.30     1099.349     61.95553     160.7205        20     1.348     1.086 -83.21   0
       353   1013.5154    370.6381 307.5030415  +6.5493489      3115.76     4872.379     5167.103     88.10765     175.7267     351.4534      1.736     4.16     1091.046     61.95553     372.5978        27     1.438     1.130 -62.75   0
       354    178.8415    366.2650 307.8501396  +6.5232742      564.179     1044.578     527.4227     88.10765     175.7267     351.5931      1.822     5.61     1115.427     61.95553     89.10583         6     1.309     0.678 -77.28   0
       355    449.3521    362.9280 307.7378129  +6.5337141     1375.995     3152.168     3515.741     88.10765     175.8664     351.5233      2.350     8.02     1101.582     61.95553     157.5619        25     1.617     1.340  72.10   0
       356    477.1282    362.1199 307.7262946  +6.5349768     1997.272     4360.035     4364.931     88.38603     176.0758     351.5233      2.188     5.44     1101.202     61.95553     197.4873        30     1.498     1.380 -72.20   0
       357    834.9462    358.5184 307.5776787  +6.5484090     26041.99     48551.04     52556.33     88.10765     175.7966     351.5582      1.999     4.29     1097.365     61.95553     2761.523        65     1.829     1.380 -75.43   0
       358    327.7357    353.7130 307.7886762  +6.5334483     614.9656     1145.854      636.224     88.10765     176.0061     351.5233      1.687     4.60      1106.33     61.95553     89.16003         6     1.249     0.482  31.68   0
       359    606.8851    351.0940 307.6727304  +6.5438666     1809.484     3854.062     4603.569     87.96813      176.285     351.5931      2.315     5.70     1098.733     61.95553      210.848        27     1.488     1.310  14.73   0
       360     15.4649    351.8214 307.9185360  +6.5237533     922.3171     1727.634     1724.389     87.68842     175.7966     351.3485      1.738     5.60     1120.704     61.95553     142.6085         8     1.255     0.704 -50.39   0
       361    691.4864    344.5356 307.6377843  +6.5493993     57435.92     112494.2     123838.9     88.24696     176.0061     351.4883      2.094     4.60     1098.304     61.95553     5264.379       100     1.897     1.598 -67.67   0
       362    849.9501    345.7298 307.5718724  +6.5541900     869.7896     1713.814      2540.45     88.10765     175.7267     351.5233      2.430     5.74     1096.546     61.95553     114.6086         9     1.242     0.846  49.90   0
       363    553.9325    341.2540 307.6950739  +6.5461608     1825.488     3736.058     4592.557     88.10765     175.7267     351.3835      2.241     5.46     1098.902     61.95553     208.4098        26     1.402     1.313 -59.77   0
       364     91.2886    340.3388 307.8874100  +6.5310415     4258.347     8993.579     9683.113     88.10765     175.9362     351.5582      2.180     4.76     1118.486     61.95553     514.3101        44     1.760     1.460 -79.30   0
       365    537.1927    337.5156 307.7021586  +6.5471451     4678.167     10169.16     11064.23     87.68842     175.4469     351.3135      2.197     5.03     1098.872     61.95553      498.019        42     1.738     1.427 -73.06   0
       366    266.1577    335.3425 307.8148938  +6.5389708     1790.061     3620.986     3852.787     87.96813     175.7966     351.5233      2.072     4.93     1108.749     61.95553     238.3076        24     1.455     1.151 -84.05   0
       367    400.1521    332.6918 307.7592862  +6.5445534     16213.54     36549.46     41668.92     88.10765     175.7267     351.6281      2.319     5.22     1101.127     61.95553      1747.57        73     1.990     1.631 -68.73   0
       368    479.5909    328.8078 307.7263967  +6.5488150     855.5124     1729.178     1921.943     87.40781     175.5868     351.3485      2.229     6.44     1098.668     61.95553     96.62268        12     1.272     0.916  54.92   0
       369    379.3594    329.4011 307.7680405  +6.5452162     531.6848     1569.647     2445.665     87.26718     175.5169     351.1736      3.486     6.21     1101.972     61.95553      96.8595         7     1.715     0.631  50.33   0
       370    489.2537    323.0462 307.7225748  +6.5515174       5486.5     12005.13     13301.18     88.10765     175.7966     351.5233      2.260     5.18     1098.108     61.95553     597.6743        51     1.806     1.527 -66.16   0
       371    758.3351    321.6143 307.6107686  +6.5610946     2280.881     4660.633     5565.282     87.54823     175.6568     351.3835      2.210     5.13     1096.302     61.95553     259.3053        31     1.640     1.252 -81.13   0
       372    913.4662    322.0759 307.5462650  +6.5660733      676.147     1091.829     983.7026     88.24695     175.8664     351.4534      1.703     3.04     1091.697     61.95553     99.66199         6     0.775     0.498 -87.15   0
       373    152.3708    313.0367 307.8629467  +6.5443656     701.6937     1608.228     2496.908     87.68842     175.5169     351.3135      2.929     5.89     1115.376     61.95553     88.39966         7     1.301     0.751  65.13   0
       374    379.0753    307.3279 307.7689054  +6.5543215     4808.776     10510.09     11973.72     88.38603     176.0758     351.4883      2.256     5.23      1100.93     61.95553     509.8691        48     1.812     1.489 -65.43   0
       375    235.1033    307.8226 307.8287343  +6.5492936      1247.09     2711.055       3109.1     88.10765     175.5169     351.2786      2.344     7.24     1109.328     61.95553     138.8086        21     1.556     1.221 -70.28   0
       376    746.9359    303.0721 307.6161323  +6.5683713     39072.76     76129.83     82991.09     88.10765     175.7966     351.5233      2.078     4.46     1095.147     61.95553     3881.081        83     1.857     1.508 -69.26   0
       377    731.5971    306.8430 307.6223815  +6.5663025     555.5621     1105.607     1401.565     87.40781     175.3068     351.1037      2.264     4.45     1095.515     61.95553     74.22241         5     1.167     0.482 -85.11   0
       378    418.5438    302.8103 307.7526518  +6.5575081     1558.108     3288.464     3632.211     87.40781     175.7267     351.1387      2.213     5.85     1099.156     61.95553     197.2616        23     1.480     1.153 -43.26   0
       379    922.6423    299.4558 307.5432117  +6.5757197      1968.42     3433.368     3416.882     87.96813     175.7267     351.5233      1.822     4.44     1089.484     61.95553     244.8778        21     1.422     0.991 -68.70   0
       380    981.6528    300.1683 307.5186563  +6.5773895     1455.817     2373.875     2253.673     87.96813     175.8664     351.3835      1.739     4.14     1087.889     61.95553     211.9648        18     1.297     0.944 -77.63   0
       381    565.2033    300.1597 307.6917765  +6.5635069     685.1702     1444.693     1161.256     87.26717     175.5169     351.1736      1.777     5.54     1095.117     61.95553     106.5525         8     1.469     0.590 -51.53   0
       382    404.8078    298.4385 307.7585095  +6.5588536     1104.027     2714.192     2787.383     87.26717     175.5169     351.1736      2.326     8.35     1099.516     61.95553     130.0233        23     1.505     1.293  -4.08   0
       383    826.2581    293.1932 307.5834904  +6.5750953     944.5038     2082.465      2180.16     87.40781     175.6568     351.1736      2.251     5.85     1093.271     61.95553     120.5792        11     1.031     0.935 -79.47   0
       384    435.8294    290.8853 307.7458696  +6.5630107     850.2923     1626.169     2214.263     88.24695     175.4469     351.3485      2.162     6.06     1097.923     61.95553     117.7811         9     1.177     0.877  -0.60   0
       385    181.7709    289.9391 307.8515091  +6.5548896     1420.856     3047.816      3503.01     87.82838     175.7966     351.4184      2.259     6.12      1112.61     61.95553      151.864        22     1.372     1.209 -62.71   0
       386    745.3613    287.7735 307.6173026  +6.5746362     4489.362     8551.934     9001.566     87.68842     175.5868     351.3135      1.999     4.59     1094.127     61.95553     461.2001        36     1.585     1.312 -78.32   0
       387    761.8109    285.7091 307.6105339  +6.5760374      1954.29     3566.501     3471.389     87.82838     175.4469     351.2786      1.966     4.70      1094.01     61.95553     224.7898        25     1.476     1.121 -68.89   0
       388     78.3431    286.6447 307.8946127  +6.5527785     706.1871     1412.526     1698.545     88.10765     175.7966     351.5233      1.962     4.91     1117.713     61.95553      105.741         7     1.004     0.679  -1.78   0
       389     65.4280    281.7621 307.9001467  +6.5543609     785.6585     1748.674     1843.304     87.54823     175.5169     351.3135      2.253     6.04     1117.877     61.95553     108.3158         9     1.551     0.662 -73.52   0
       390    352.1584    280.2321 307.7810111  +6.5646090     1104.049      2715.19     3609.995     87.54823     175.7267     351.3135      2.681     9.32     1100.736     61.95553     147.1317        22     2.044     1.187 -29.54   0
       391    999.9370    276.3329 307.5118567  +6.5878406     5074.651      8649.03     9171.925     88.10765     175.7966     351.4883      1.795     3.86     1085.954     61.95553     594.6993        32     1.561     1.125 -64.35   0
       392    478.1433    276.6266 307.7287621  +6.5703142     1286.874     2731.671     2843.771     87.68842     175.8664     351.3135      2.208     6.00     1094.766     61.95553     175.1057        19     1.422     1.151 -85.85   0
       393    240.6906    272.1839 307.8276192  +6.5641972     3716.565     8137.516     9716.091     87.82838     175.5868     351.3485      2.377     5.05     1108.079     61.95553     438.8983        45     1.713     1.533 -69.45   0
       394    374.7989    263.5262 307.7721650  +6.5722655     1227.451      2650.91     2578.541     87.40781     175.1666     351.3485      2.085     7.34     1099.229     61.95553     155.6985        17     1.462     1.191 -79.60   0
       395    961.6731    261.6782 307.5282568  +6.5926191       848.55     1578.219     1680.625     88.38603     176.0758     351.5233      1.964     5.33     1086.209     61.95553     145.2239         9     1.223     0.691 -33.06   0
       396    144.7025    258.9264 307.8679691  +6.5664518     1219.593     2587.386     2333.199     87.68842     175.9362     351.4883      2.079     8.15     1113.722     61.95553     129.5813        20     1.525     1.216 -50.65   0
       397    297.0067    259.6594 307.8046335  +6.5712566     718.4024     1495.134     1391.469     87.40781     175.6568     351.2086      2.068     4.26     1103.984     61.95553     91.82898         6     1.376     0.377 -25.69   2
       398    296.4448    257.5118 307.8049398  +6.5721246     631.4446     1342.635     1309.407     88.10765     175.6568     351.5233      1.650     3.99     1104.048     61.95553      88.3689         5     1.372     0.332 -31.40   2
       399    554.4286    254.6199 307.6977936  +6.5819521     1236.265      2823.91     2914.641     87.68842     175.5868     351.4184      2.219     6.54     1091.952     61.95553     171.8829        20     1.435     1.274  37.80   0
       400    897.9771    253.4468 307.5550139  +6.5938977     1296.941     2449.969     2887.545     87.68842     175.7966     351.3485      2.075     6.73     1087.833     61.95553     188.1255        15     1.518     0.837 -50.08   0
       401    717.8949    251.8174 307.6299330  +6.5885679     3704.702     7536.408      7876.78     87.96812     175.5868     351.3135      2.104     4.68     1092.104     61.95553     366.6578        39     1.643     1.386 -75.74   0
       402    658.3669    251.9051 307.6546768  +6.5865449     1428.093     2851.908     2917.581     88.24695     175.6568     351.5931      2.040     5.84     1091.766     61.95553     149.0186        22     1.431     1.114 -50.33   0
       403    955.6115    251.7583 307.5311106  +6.5965137      687.358     1192.957     893.3079     87.40781     175.5868     351.1736      1.801     3.43     1085.851     61.95553      94.4679         5     0.739     0.461  74.02   0
       404    913.4427    244.0825 307.5488996  +6.5982797       990.46     1724.545     1982.617     88.10765     175.7966     351.4184      1.980     6.60     1086.858     61.95553     111.7499        13     1.356     0.900 -59.64   0
       405    217.4668    237.5143 307.8384478  +6.5777346     1407.151     2889.153     3753.909     88.10765     176.0758     351.5233      2.430     7.05     1109.123     61.95553     174.5677        26     1.658     1.248 -47.72   0
       406    859.4139    235.8936 307.5716367  +6.5998617     1340.573     2436.045     2714.386     87.82838     175.5169     351.3135      1.992     5.62      1088.18     61.95553     175.3372        16     1.423     0.990 -71.25   0
       407    750.2614    235.6300 307.6170233  +6.5963320     1062.847     2009.695     1890.893     87.82838     175.7966     351.4534      2.006     6.89     1091.234     61.95553     123.5342        14     1.340     1.005  79.20   0
       408    451.5271    226.8957 307.7415077  +6.5899595     14227.11     31639.28     36384.55     87.96812     175.9362     351.4534      2.320     5.42     1092.697     61.95553     1486.532        81     2.287     1.631 -52.40   0
       409    777.3266    226.1010 307.6060928  +6.6011695     9429.876     18836.07      21483.5     87.68842     175.8664     351.4534      2.126     4.59     1090.424     61.95553     956.4768        57     1.784     1.543 -51.83   0
       410    139.6835    220.6949 307.8713519  +6.5820701     1552.852     3194.232     3786.738     87.96813     176.2153     351.6281      2.132     6.39     1112.535     61.95553     195.8322        22     1.671     1.067 -69.14   0
       411    913.7696    216.4848 307.5496926  +6.6096869     1162.487     1989.673      1553.64     88.10765     175.5868     351.3485      1.773     6.08     1085.296     61.95553     128.4657        12     1.112     0.934   1.25   0
       412    575.3253    212.8091 307.6905186  +6.5999156     3318.705     6921.905     7338.122     87.68842     175.3068     351.3485      2.140     5.01     1089.519     61.95553      313.318        37     1.655     1.377 -72.34   0
       413    538.0689    212.4767 307.7060182  +6.5988078      1240.27     3083.629     3200.089     88.24695     175.9362     351.4883      2.366     7.80     1089.505     61.95553     145.4734        24     1.520     1.424 -48.08   0
       414    379.7520    212.3032 307.7718391  +6.5935830      958.991     2107.583     1641.807     88.10765     175.6568      351.663      2.097     7.99     1096.845     61.95553     111.1266        16     1.512     1.181 -64.40   0
       415    936.1408    209.6037 307.5406235  +6.6132733     2250.292     4081.256     4767.188     87.40781     175.6568     351.2086      1.949     4.36      1084.16     61.95553     259.4177        24     1.405     1.152  87.46   0
       416    882.2243    209.2370 307.5630512  +6.6116293     9137.667     16036.85      17290.8     87.68842     175.5868     351.2086      1.907     3.92     1085.975     61.95553      992.238        50     1.635     1.367 -74.03   0
       417    968.9159    207.1204 307.5270811  +6.6153896     8396.089     13874.61     14680.77     87.96813     176.1456     351.5931      1.774     3.61     1082.803     61.95553     976.9398        39     1.576     1.185 -78.57   0
       418    680.1500    207.2327 307.6471283  +6.6057191     1991.644     4162.178     5055.516     87.96812     175.7966     351.4184      2.288     6.17     1089.658     61.95553     236.3358        28     1.560     1.372  73.98   0
       419      8.6129    206.0854 307.9263325  +6.5837005     17806.98     36626.04      40987.7     87.68842     175.6568     351.3135      2.184     4.67     1120.319     61.95553      2049.82        75     1.966     1.553 -76.87  16
       420    255.4521    207.4494 307.8236760  +6.5914229     712.5435     1295.978     1115.847     88.24696     175.6568     351.4534      1.891     5.25      1106.72     61.95553      104.514         7     1.205     0.646 -52.49   0
       421    488.8947    202.5999 307.7267947  +6.6012421     1226.729     2404.778     3134.635     87.54823     175.3768     351.0337      2.160     6.05     1089.346     61.95553     139.8331        18     1.400     1.035 -62.99   0
       422    872.9531    197.8883 307.5672877  +6.6160069     1550.184     2999.333     2840.347     88.10765     175.6568     351.5931      1.932     5.22     1085.799     61.95553     214.5537        20     1.484     1.046 -85.03   0
       423    820.4659    198.8704 307.5890758  +6.6138524     1548.776     2562.868     3541.198     88.10765     175.8664     351.4883      2.181     3.88      1087.52     61.95553     200.1434        17     1.163     0.967  82.94   0
       424    500.9117    198.0756 307.7219519  +6.6035122       1800.3     4033.578     4267.069     88.10765     176.1456     351.5931      2.230     5.83     1089.185     61.95553     189.9009        30     1.503     1.394 -17.76   0
       425    732.4885    195.2691 307.6257729  +6.6124059     29167.97     56394.08     61321.33     88.24696     176.0758     351.4534      2.068     4.49     1089.193     61.95553     2826.994        73     1.817     1.527 -73.10   0
       426    335.5807    194.8832 307.7907913  +6.5992970      4089.45     10107.15     12453.14     87.68842     175.4469     351.4534      2.614     6.67     1100.037     61.95553     418.4924        54     2.217     1.490 -74.24   0
       427    965.9697    194.1465 307.5287424  +6.6206491     2560.829     4046.605      4864.79     87.96813     175.8664     351.3835      1.877     3.61     1082.112     61.95553     324.0526        23     1.223     1.138  83.09   0
       428   1004.4749    192.7079 307.5127823  +6.6225244     1517.407     2477.802     2385.244     88.10765     175.9362     351.4534      1.783     4.34     1080.819     61.95553     194.5549        18     1.220     1.014  80.66   0
       429    900.3750    192.3395 307.5560740  +6.6192116     6180.693     10543.38     11506.41     87.68842     175.7966     351.3835      1.853     3.88     1084.399     61.95553       707.63        35     1.453     1.284 -65.94   0
       430    443.8340    191.5434 307.7459013  +6.6043003     3215.331     6854.785     7396.037     87.96813     175.7966     351.4883      2.212     4.92      1091.18     61.95553     375.0305        41     1.739     1.459 -68.06   0
       431    101.4191    183.0272 307.8885361  +6.5963394     3218.241     6462.563       7355.3     87.68842     175.5868     351.3835      2.141     4.83     1113.341     61.95553     366.9144        37     1.721     1.321 -59.21   0
       432    247.0084    180.7111 307.8280920  +6.6021808     4253.743     9501.254     10459.51     87.68842     175.4469     351.2086      2.261     5.14     1107.275     61.95553     507.1764        48     1.809     1.533 -73.99   0
       433    271.6866    179.5299 307.8178730  +6.6034958     21897.51     48088.54     53716.07     88.24696     176.0758     351.5233      2.276     5.05     1105.922     61.95553     2304.701        78     1.939     1.668 -74.64   0
       434    920.2805    182.0149 307.5481459  +6.6241379      651.159      1275.61      1775.32     87.68842     175.5169     351.3135      2.704     4.97     1082.916     61.95553      95.4856         7     1.241     0.563  -7.90   0
       435    395.7354    175.0338 307.7664555  +6.6095079     31649.59      70802.2     78896.65     87.96813     175.7966     351.4534      2.287     5.17     1093.446     61.95553     3425.815        91     1.994     1.662 -70.43   0
       436    151.7174    176.4507 307.8678500  +6.6007435     2560.823     5626.407     6149.199     88.10765     175.7267     351.5233      2.222     5.58     1111.197     61.95553     306.2296        36     1.695     1.419 -85.18   0
       437    413.1949    175.8402 307.7591698  +6.6097593     834.9527     1727.602     1755.519     87.26717     175.4469     351.1736      2.110     8.18     1091.731     61.95553     100.4727        16     1.456     1.284 -46.23   0
       438    299.7350    172.8022 307.8064406  +6.6072140     11600.04     25581.02     29153.86     87.40781     175.5169     351.2436      2.280     5.01     1103.848     61.95553     1251.489        72     1.944     1.654 -66.21   2
       439    307.4022    172.8240 307.8032524  +6.6074619     1489.403     3474.363     4691.749     87.68842     175.4469     351.2786      2.622     8.19     1103.071     61.95553     203.7035        29     1.992     1.239 -68.69   3
       440    734.9173    171.1760 307.6255755  +6.6224360     23911.58     46738.49     51325.77     87.96812     175.5169     351.4184      2.082     4.42      1087.95     61.95553     2445.544        71     1.817     1.503 -70.93   0
       441    682.1512    173.7786 307.6474249  +6.6196005     484.0446     914.0392     1238.815     87.68842     175.8664     351.3485      2.480     5.61      1088.86     61.95553     82.35962         6     1.396     0.636  75.32   0
       442    783.2547    171.6658 307.6054629  +6.6238459      1025.41     1881.664     2079.083     88.10765     175.7267     351.4534      1.974     6.20      1086.54     61.95553     125.9089        15     1.333     1.131 -68.76   0
       443     51.8773    168.6235 307.9096197  +6.6006231     6363.425      13125.7     13679.93     87.68842     175.6568     351.4534      2.131     4.67     1117.039     61.95553     763.2103        48     1.798     1.445 -71.52   0
       444     85.6123    166.9098 307.8956540  +6.6024638     1227.719     2391.559     1930.004     87.82838     175.5169     351.2786      1.963     6.38     1114.071     61.95553     135.0798        21     1.336     1.216 -65.07   0
       445    993.6254    165.4751 307.5182088  +6.6334091     962.9139     1454.036     1458.398     87.68842     175.5868     351.4534      1.688     5.14     1079.575     61.95553     150.7262        10     1.215     0.702 -14.83   0
       446    994.2764    151.7305 307.5184005  +6.6391066      1904.94     3156.653     3528.281     88.24696     175.9362     351.4883      1.796     4.01     1078.894     61.95553       244.78        22     1.260     1.138 -43.67   0
       447    576.7977    150.5330 307.6920097  +6.6256810     744.0186     1492.052     2340.745     87.54823     175.4469     351.2786      2.053     5.60     1087.649     61.95553      113.519         8     1.113     0.795  41.26   0
       448    270.5738    145.8369 307.8194769  +6.6173713     19691.05     43449.25     49042.24     87.68842     175.5868     351.2786      2.297     5.07      1106.11     61.95553     2117.756        83     1.980     1.686 -69.52   0
       449    585.8748    147.5173 307.6883378  +6.6272296     1381.238     2657.833     3420.985     88.38603     176.1456     351.5582      2.311     4.68     1087.517     61.95553     168.3267        15     1.244     1.036 -22.46   0
       450     15.9200    144.4966 307.9253865  +6.6093772     3196.177     6433.978     6490.628     87.82838     176.0758     351.5931      2.107     4.83     1119.533     61.95553     390.3586        36     1.670     1.336 -75.10   0
       451    702.2731    142.4374 307.6401166  +6.6332141     5655.266     11217.83     12400.35     87.96813     175.7966     351.5582      2.101     4.72     1087.165     61.95553     586.6199        46     1.778     1.383 -73.00   0
       452    112.9507    139.7048 307.8852122  +6.6146154     3484.289     7101.115     7237.349     87.96813     175.6568      351.663      2.123     4.88     1112.041     61.95553     410.8403        37     1.713     1.322 -73.54   0
       453    383.6161    135.6949 307.7728249  +6.6253464     2674.885      6079.62     6855.765     87.82838     175.5868     351.3485      2.358     5.90     1093.768     61.95553     292.8469        39     1.775     1.453 -81.92   0
       454    452.1574    137.3837 307.7442724  +6.6269431      1006.72     1833.828     1377.156     87.54823     175.5868     351.2436      1.879     6.15     1088.483     61.95553     131.3197        12     1.215     0.932 -59.97   0
       455    348.0467    134.5305 307.7876518  +6.6246360      2051.48      4566.01     4999.098     88.10765     175.7267     351.4883      2.330     5.94     1098.114     61.95553     200.0995        34     1.651     1.481  86.17   0
       456    103.4731    135.2995 307.8893017  +6.6161162     902.5138     2170.049     2442.078     87.82838     175.9362     351.4883      2.138     4.84     1112.343     61.95553     146.4017        10     1.304     0.585 -76.58   2
       457    994.7305    128.4293 307.5189954  +6.6487438     1386.652     2226.247     1764.908     87.82838     175.7966     351.4184      1.660     4.25     1077.642     61.95553     219.6642        14     1.358     0.821 -80.70   0
       458    199.9316    123.5152 307.8496013  +6.6242196     3751.036     7959.732     8774.034     88.38603     176.0758     351.5233      2.224     4.99     1108.964     61.95553      439.775        45     1.819     1.449 -70.91   0
       459    661.6647    122.2150 307.6576821  +6.6402092     4284.583      8648.26     9268.936     87.54823     175.6568     351.3835      2.100     4.75     1086.387     61.95553     419.6654        43     1.729     1.386 -80.68   0
       460     82.8444    123.6601 307.8982725  +6.6202295     1258.445     2909.679     2884.539     87.96813     175.7267     351.6281      2.281     6.78     1113.499     61.95553     168.3567        21     1.592     1.152 -54.82   0
       461    809.7236    122.1437 307.5961272  +6.6451781      785.608     1403.825     854.1815     88.10765     175.7267     351.4534      1.830     5.95     1083.017     61.95553     149.5543         9     1.366     0.730 -35.41   0
       462    613.8237    119.4336 307.6776662  +6.6397601     6424.441     13191.52     14519.52     87.54823     175.5868     351.2436      2.127     4.91     1086.239     61.95553     623.0151        50     1.777     1.470 -79.17   3
       463    617.4232    110.9306 307.6764568  +6.6433915     36568.16      75158.7     83645.73     87.68842     175.6568     351.4534      2.170     4.70      1085.87     61.95553      3646.53        87     1.929     1.605 -69.26   3
       464     12.6120    116.9018 307.9276988  +6.6206604     807.9357     2267.895     3820.916     87.82838     175.5169     351.2436      3.327     8.52     1118.688     61.95553     101.2379        18     2.060     0.986 -82.87  16
       465    341.1325    115.3573 307.7911754  +6.6323216     2407.135     5825.505     7184.062     88.10765     175.7267     351.5582      2.543     6.19      1098.79     61.95553     265.5309        39     1.894     1.409 -59.32   0
       466    522.8862    114.5787 307.7156380  +6.6387258     1097.808     2211.542     2050.705     88.10765     175.5169     351.3485      2.170     7.85     1086.285     61.95553     141.3491        17     1.562     1.104 -58.76   0
       467    986.6230    114.5782 307.5228322  +6.6541938     740.8735     1158.011     1343.936     87.82838     175.5868     351.4534      1.822     5.15     1077.256     61.95553     105.7124         8     1.136     0.660 -56.16   0
       468    296.3927    104.9936 307.8101266  +6.6351020     2261.368     5293.724     6528.748     87.40781     175.5868     351.3135      2.518     6.15     1104.375     61.95553     257.8134        35     1.680     1.419 -76.06   0
       469    667.6393     97.8190 307.6560213  +6.6504827     955.8854     1980.268     1584.522     87.68842     175.5868     351.2086      2.100     6.85     1084.977     61.95553     129.1033        12     1.520     0.865 -67.86   0
       470      2.3746     87.3132 307.9329598  +6.6325340     3458.354     8190.418     14590.14     87.68842      155.872     282.6476      4.797    11.84     1118.048     61.95553     529.9054        88     4.363     1.536  88.58  24
       471    681.6912     94.9723 307.6502751  +6.6521273     2281.919     4385.686     4623.787     88.24695     175.5169     351.3485      2.034     4.94      1084.78     61.95553     244.6245        29     1.522     1.267 -79.37   0
       472    423.5518     85.9049 307.7579063  +6.6472431     2631.508      6052.16     7061.968     87.96812     175.6568      351.663      2.369     5.91     1089.188     61.95553     282.3595        39     1.744     1.498  89.03   0
       473    877.9824     82.2908 307.5690895  +6.6639096     1652.434     2913.164     2787.351     87.82838     175.5169     351.3835      1.849     4.83     1078.326     61.95553     190.5544        22     1.367     1.102 -61.08   0
       474    895.9631     81.3160 307.5616462  +6.6649111     3162.166     5439.957     5507.647     88.10765     175.7966     351.4184      1.852     4.28     1078.044     61.95553     361.8207        28     1.416     1.215 -86.64   0
       475    588.1262     80.0849 307.6896791  +6.6551501      1178.82     2255.118      2484.22     88.24695     176.1456     351.5233      2.015     6.97     1084.734     61.95553     121.8624        17     1.282     1.063  -2.04   0
       476    387.0831     78.0654 307.7733337  +6.6492594     1257.036     2727.242     2771.406     88.24695     176.0758     351.5582      2.129     6.57     1093.152     61.95553     176.5089        20     1.347     1.206 -40.74   0
       477    135.0022     74.7826 307.8782474  +6.6421634     2117.403     4302.951     4333.718     87.68842     175.3068     351.2436      2.066     5.18     1109.546     61.95553     236.5085        31     1.600     1.290 -84.78   0
       478     16.9180     72.6418 307.9274119  +6.6390809     9071.748     18135.79     20905.34     88.10765     175.7966     351.4184      2.187     4.51     1116.236     61.95553     1037.626        59     1.854     1.487 -71.25   0
       479    283.2442     73.5829 307.8166569  +6.6476316     1055.265     2389.461     3288.494     87.68842     175.6568     351.2436      2.556     7.56     1105.486     61.95553     131.5891        15     1.365     1.171 -71.81   0
       480    937.5818     71.5679 307.5446699  +6.6703224     593.8771     1073.164     1423.194     87.68842     175.5868     351.3485      1.528     3.45      1076.57     61.95553     108.0554         5     0.946     0.485 -45.19   0
       481    818.3657     67.0506 307.5943905  +6.6682163      4882.68     8727.779     9689.383     87.96812     175.7966     351.3835      1.933     4.17     1079.404     61.95553     553.3887        39     1.617     1.296 -84.09   0
       482    763.6149     67.7670 307.6171308  +6.6660949     2397.981     4436.141     4766.667     87.68842     175.5169     351.3485      1.966     4.95     1081.033     61.95553     268.4312        24     1.402     1.165 -68.47   0
       483    409.1576     67.1946 307.7645238  +6.6544873     605.9492      1156.57      1031.37     87.40781     175.4469     351.1736      1.744     4.35     1090.699     61.95553     94.97949         5     0.856     0.629  36.10   0
       484     57.1710     64.6045 307.9109503  +6.6437523     2245.738     4732.209     4843.292     87.54823     175.5868     351.2786      2.172     5.37      1113.25     61.95553     258.2108        33     1.632     1.349 -70.25   0
       485    525.7017     65.4155 307.7161289  +6.6591210     738.6942     1155.897     1752.077     88.10765     175.5169     351.2086      1.803     4.81     1085.486     61.95553     90.51233         7     1.334     0.492   1.09   0
       486    418.4207     63.8892 307.7607844  +6.6561623     741.3082     1410.906     2308.182     87.96813     175.5169     351.3485      2.030     5.15     1089.757     61.95553     106.6548         7     0.893     0.841  -4.11   0
       487    580.7318     62.2530 307.6933558  +6.6622664     759.9713     1479.125     1526.745     87.96813     175.7267     351.3835      1.764     5.05     1084.342     61.95553     95.68433         7     1.186     0.607  55.47   2
       488      1.1873     59.4910 307.9343984  +6.6439823     851.2792      1365.65     1751.194     74.34664     136.9988     261.4259      1.609     4.05     1116.437     61.95553     189.7822         7     1.297     0.362  83.24  24
       489    758.0185     55.3865 307.6198752  +6.6710206     1512.913     2741.911     3233.015     87.82838     175.4469     351.3835      1.907     5.68     1079.942     61.95553      177.965        19     1.390     1.097 -87.87   0
       490     72.2010     55.6399 307.9050060  +6.6479589     557.2698     1027.404     822.0013     87.12631     175.5169     351.1387      1.871     5.23     1111.895     61.95553     91.98999         6     1.157     0.668 -20.66   0
       491     84.8863     48.8286 307.8999634  +6.6511975     6586.724     13545.17     15083.79     88.24695     175.4469     351.3485      2.186     4.78       1110.8     61.95553     760.6243        52     1.864     1.445 -67.47   0
       492    413.9742     48.7477 307.7631454  +6.6622658     1664.135     3663.583     3666.457     87.68842     175.9362     351.3835      2.283     6.06      1090.32     61.95553     201.3982        28     1.696     1.254 -63.26   0
       493    627.5831     40.6959 307.6746039  +6.6727333     13489.43     26798.09     29849.67     87.96813     175.5868     351.3135      2.116     4.55     1082.544     61.95553     1324.395        59     1.808     1.497 -72.87   0
       494    252.2149     43.1715 307.8305880  +6.6591490     866.6069     2305.716     3893.837     87.68842     175.5868     351.3835      3.753     8.72     1106.107     61.95553     125.0061        17     1.604     1.325 -35.91   3
       495    765.7670     41.0349 307.6171374  +6.6772054     1511.124       1803.9     1922.129     87.68842     175.5169     351.2086      0.697     1.34       1078.5     61.95553     693.1752         5     0.618     0.376  66.85   0
       496    527.3223     36.8367 307.7164209  +6.6709763     3481.917     7199.165     7944.191     87.96813     175.8664     351.4883      2.161     4.79     1085.441     61.95553     396.2039        40     1.712     1.388 -75.95   0
       497    245.4524     37.4808 307.8335924  +6.6612720      1333.26      2871.94     4389.032     88.10765     175.7966     351.5233      3.230     6.38     1106.149     61.95553     168.9355        19     1.528     1.178  80.23   1
       498    701.7888   1020.3120 307.6107259  +6.2706828     1191.507     1731.705      1841.35     87.68842     175.5169     317.4832      1.570     2.99     1134.745     61.95553     181.0789        10     0.933     0.714 -65.34  16
       499    253.5653     32.7952 307.8303781  +6.6634788     5972.303     13084.94     15184.64     87.26717     175.5868     351.2436      2.280     5.08     1105.906     61.95553     682.5037        52     1.841     1.513 -78.40   0
       500    614.1032     31.1687 307.6805304  +6.6762171     2169.581      4900.93     6089.932     88.24695     175.5868     351.5931      2.623     6.75      1082.13     61.95553     268.4684        41     2.062     1.464  70.06   0
       501    910.6311     32.4674 307.5571921  +6.6855712     1627.352     2749.968     3208.346     87.96813     175.7966     351.4534      1.851     4.38     1075.165     61.95553     218.9346        16     1.220     0.924 -88.10   0
       502     19.0605     32.3393 307.9278901  +6.6557944     1637.448     3260.512     3385.235     88.10765     175.7966     351.5233      2.071     6.25     1113.803     61.95553     191.0369        23     1.477     1.132 -79.20   0
       503    241.5672     29.6753 307.8354723  +6.6643648     2174.541     4360.337     4897.954     87.96813     175.7966     351.4184      2.128     5.28     1106.063     61.95553     233.6899        29     1.557     1.319 -61.76   0
       504    294.6754     27.6138 307.8134615  +6.6669965     752.5182     1423.722     1094.335     87.54823     175.5169     351.2786      1.985     6.33     1104.503     61.95553       96.724         7     1.294     0.870 -77.91   0
       505    931.3234     22.9024 307.5489102  +6.6902100     810.3468      1302.63     847.9683     87.68842     176.0758     351.5233      1.558     4.45     1073.995     61.95553     95.79346         7     0.903     0.623  63.88   0
       506    682.6949     22.2016 307.6523133  +6.6822105     1498.041     2608.752     2482.347     87.54823     175.4469     351.0687      1.827     5.13     1080.762     61.95553     168.5938        16     1.211     1.000  78.44   0
       507    741.2283   1016.3950 307.5944721  +6.2736154     1249.474     1962.016     2284.235     87.54823     175.5868     351.2786      1.660     3.34     1134.115     61.95553     203.9902        13     1.033     0.881 -60.02   0
       508    233.6832   1010.9812 307.8055156  +6.2588881     1290.016     2112.745      1638.31     87.68842     175.4469     351.4534      1.649     6.11       1140.3     61.95553     167.9749        16     1.461     0.924  76.81   0
       509    948.9412   1010.6617 307.5083665  +6.2829007      7421.29     10502.88     11196.42     88.10765     175.7267     351.5233      1.529     3.27      1128.53     61.95553      1077.46        29     1.345     0.968 -68.19   0
       510    703.4717   1011.1789 307.6103344  +6.2745104     937.8781     1473.776     1917.506     87.68842     175.6568     351.4534      1.497     4.81     1134.294     61.95553     195.0151        10     1.301     0.765 -71.17   1
       511    708.6253   1008.8643 307.6082712  +6.2756381     2703.058     4330.166     5038.046     87.68842     175.7966     351.4184      1.762     3.52     1134.144     61.95553     397.1041        23     1.409     0.977 -63.99   0
       512    431.4837   1009.9901 307.7233740  +6.2659181      1051.45     1409.508     1236.717     87.68842     175.4469     351.3135      1.359     2.58     1138.153     61.95553     181.9193         6     0.760     0.498  86.46   0
       513    724.4520   1007.8627 307.6017295  +6.2765794     1119.404     1623.754     1187.578     88.10765     175.7267     351.4534      1.620     5.22     1133.963     61.95553     168.9938        14     1.287     0.898 -62.12   0
       514    355.5578   1006.1892 307.7550458  +6.2649478     1818.147     2950.121     3168.783     87.40781     175.5868     351.2086      1.799     4.11     1138.076     61.95553     252.0082        18     1.364     0.908 -55.88   0
       515    965.7371   1004.0887 307.5016090  +6.2861738     602.3755     997.3856     721.2574     87.96813     175.9362     351.5233      1.749     4.81       1127.3     61.95553     113.5922         5     1.222     0.537 -62.48   0
