#   1 NUMBER                 Running object number                                     
#   2 X_IMAGE                Object position along x                                    [pixel]
#   3 Y_IMAGE                Object position along y                                    [pixel]
#   4 ALPHA_J2000            Right ascension of barycenter (J2000)                      [deg]
#   5 DELTA_J2000            Declination of barycenter (J2000)                          [deg]
#   6 FLUX_APER              Flux vector within fixed circular aperture(s)              [count]
#   9 FLUXERR_APER           RMS error vector for aperture flux(es)                     [count]
#  12 FLUX_RADIUS            Fraction-of-light radii                                    [pixel]
#  13 FWHM_IMAGE             FWHM assuming a gaussian core                              [pixel]
#  14 BACKGROUND             Background at centroid position                            [count]
#  15 THRESHOLD              Detection threshold above background                       [count]
#  16 FLUX_MAX               Peak flux above background                                 [count]
#  17 ISOAREA_IMAGE          Isophotal area above Analysis threshold                    [pixel**2]
#  18 A_IMAGE                Profile RMS along major axis                               [pixel]
#  19 B_IMAGE                Profile RMS along minor axis                               [pixel]
#  20 THETA_IMAGE            Position angle (CCW/x)                                     [deg]
#  21 FLAGS                  Extraction flags                                          
         1    711.5479     25.0203 307.6451883  +6.6899227      6966.37     10702.11     11138.76     77.70782      156.099     311.7949      1.615     3.82     820.1364     54.99173     954.6158        34     1.647     0.949 -41.72   0
         2    432.0587     20.4178 307.7614832  +6.6824667     5933.842     9585.431      9986.87     77.83224      155.913     311.7639      1.727     3.85     823.5926     54.99173     798.9724        34     1.606     1.029 -37.11   0
         3    328.6059     15.4405 307.8046391  +6.6810517     12406.13     20131.05     21444.15     77.45835     155.7267     311.6707      1.760     4.11     828.8622     54.99173     1720.167        49     1.713     1.098 -38.14   0
         4    102.4720     15.7037 307.8985947  +6.6733447     2407.385     4005.094     4424.963     78.08052      156.223       311.95      1.765     3.92     825.9437     54.99173     396.3276        23     1.643     0.866 -43.24   0
         5     32.9891     20.0525 307.9273190  +6.6692109     7986.239     13206.83     14054.31     77.58318      155.975     311.7328      1.722     3.94     825.7754     54.99173     1085.737        42     1.626     1.122 -43.15   0
         6     93.4775     14.5603 307.9023707  +6.6735142     1525.805     2490.996     2649.718     78.08052      156.037     312.0121      1.750     4.19     825.8223     54.99173     204.7998        19     1.274     0.979 -33.46   0
         7    394.7863     13.3746 307.7772084  +6.6841250     2459.551     3796.292     3744.861     77.95648     155.8509      311.919      1.666     3.86     826.0793     54.99173     321.6707        21     1.391     0.897 -39.62   0
         8    463.2439     13.5378 307.7487560  +6.6863528     715.6741     1151.592     1017.401     78.20435      155.975     312.0431      1.699     5.37     821.3333     54.99173     111.2504         7     1.141     0.713 -43.33   0
         9    655.5569      8.9277 307.6689956  +6.6946951     10607.95     16727.78     18561.92     78.08051      156.099     312.0121      1.682     3.91     819.7879     54.99173     1460.658        44     1.643     1.069 -37.32  16
        10    990.0057     10.1889 307.5299695  +6.7053413     643.3639     984.4916     1063.594     77.83224     155.8509      311.888      1.482     3.86     814.7013     54.99173     105.0763         5     0.839     0.510 -66.12   0
        11    820.5520      8.1783 307.6004557  +6.7005185     1454.941     2634.629     3153.151     77.83224      156.037     311.0802      2.034     4.67     818.8363     54.99173     195.2084        20     1.354     1.180 -76.41  16
        12    533.2786      8.6948 307.7198163  +6.6906988     1219.507     2021.097     2395.612     77.95648     156.2849     312.0121      1.793     4.79     819.7582     54.99173     189.9796        16     1.367     0.798 -46.03  16
        13     73.3311      9.5482 307.9109111  +6.6749058     667.0439     1130.141     1246.844     78.08052      155.913      311.919      1.956     4.31     825.3241     54.99173     89.96521         7     1.217     0.436 -40.06   0
        14    255.8991      5.6425 307.8351813  +6.6826561     5908.197      9977.51     11693.31     78.20435      155.913     292.8123      1.916     4.42     827.1315     54.99173     788.9615        40     1.899     1.007 -31.90  16
        15    890.7955      6.1942 307.5713316  +6.7036823      1271.48     2020.606     1995.375     77.58318     155.7266     297.6633      1.667     5.11     819.0412     54.99173     189.2908        14     1.431     0.673 -41.59  16
        16    647.1870      4.2514 307.6726308  +6.6963460     8665.202     13871.23     15345.38     77.58318      155.291     276.5991      1.696     3.93     819.6383     54.99173     1193.665        40     1.714     0.997 -41.04  24
        17    417.1054      4.3363 307.7682381  +6.6886053     7851.906     12335.36      12750.5     78.08051     155.6645     277.8209      1.675     3.78     824.6079     54.99173     1025.087        38     1.609     1.024 -41.25  24
        18    678.6067      2.6358 307.6596284  +6.6980639     11190.54     22511.01     25409.51     77.45835     141.3277     254.6301      2.119     8.99     819.5099     54.99173     1926.644        48     2.315     0.975 -28.28  24
        19    732.8788      2.8943 307.6370664  +6.6997715     1743.525     2794.786     2987.416     77.95648     144.4431     258.7395      1.733     4.55     819.4751     54.99173     239.7868        16     1.398     0.742 -41.54  24
        20    655.6756      1.4481 307.6691974  +6.6977874       1688.4     2397.709     3017.263     69.28085      125.901     236.7482      1.380     2.93     819.4999     54.99173     386.8746        11     1.170     0.574 -14.29  25
        21    195.3010      1.5434 307.8604999  +6.6823126     892.3188     1267.445     1537.816     70.66384     127.3531     238.2558      1.582     5.30     825.7091     54.99173     150.3464        10     1.196     0.664   2.02  24
        22    625.7968    989.4619 307.6484614  +6.2888291     722.4742     1173.342     768.1885     77.58318     155.8509     311.7018      1.512     4.96     852.3406     54.99173     109.1445        10     1.431     0.487 -36.49   0
        23    975.8315   1023.7921 307.5019688  +6.2863368     467.7675     670.6423     545.5292     66.13656     121.9974     232.5416      1.628     3.74     849.0231     54.99173     110.7595         5     0.996     0.404  -2.42  24
        24    705.3978   1022.6284 307.6142978  +6.2777947     458.0128     658.4182     959.5932     77.33332     138.0019     250.8781      1.567     4.17     852.0484     54.99173     65.60992         5     1.024     0.484 -85.48  24
        25    817.8855    986.9478 307.5687847  +6.2962836     1969.717     3487.683     4079.147     78.20435      155.975     312.1051      1.927     4.49     849.3367     54.99173     289.4457        23     1.522     1.055 -39.17   0
        26    766.0801    984.7688 307.5903690  +6.2954541     5842.437     10277.01     11278.66     78.08051      155.975       311.95      1.909     4.21     850.2473     54.99173     680.4018        44     1.786     1.190 -50.44   0
        27    552.7576    984.1782 307.6789662  +6.2885679     776.5962     1105.979      1227.45     77.83224      155.913     311.8259      1.644     4.69     852.4758     54.99173     107.4515         8     1.175     0.530 -43.87   0
        28    235.3177    983.9818 307.8107784  +6.2780113     1382.375     2140.122     2448.718     77.83224     155.7267      311.919      1.581     4.43     852.3548     54.99173     172.7418        16     1.329     0.805 -36.26   0
        29    199.9946    983.4568 307.8254624  +6.2770423       802.99     1307.776     1455.861     77.70782      155.913     311.7018      1.785     6.83     851.3084     54.99173       103.42        13     1.442     0.906 -64.74   0
        30     60.6086    981.9168 307.8833871  +6.2729952     2377.208     4048.624     4141.887     77.83224     155.7266     311.8259      1.791     4.21     848.8452     54.99173     331.4962        23     1.513     0.963 -36.16   0
        31    954.2452    979.8103 307.5124018  +6.3037783     5418.384     9982.521     10497.12     77.70782      155.913     311.7018      1.930     4.36     847.8975     54.99173     624.8794        35     1.591     1.195 -47.28   0
        32    636.1104    974.4852 307.6446810  +6.2953580     742.3298     1065.215     982.2914     77.95648     156.3468     312.1051      1.614     3.90     852.0626     54.99173     138.3585         7     0.946     0.594 -49.24   0
        33    927.9777    971.4419 307.5235888  +6.3063582     1744.022     3082.504     3264.456     77.83224     155.8509     311.7639      1.897     4.59     848.4193     54.99173     241.7495        25     1.514     1.109 -42.57   0
        34    648.6311    967.5931 307.6397131  +6.2986224     4161.206     6872.459     7240.055     77.58318     155.8509     311.7639      1.815     3.75     851.8548     54.99173     534.6814        33     1.603     1.074 -42.77   0
        35    260.8291    967.6650 307.8007350  +6.2856046     4037.884     6733.382     6982.211     77.95648      156.037      311.919      1.753     3.76     852.0015     54.99173     557.2068        32     1.652     1.005 -38.88   0
        36    787.6597    967.8896 307.5819735  +6.3031442     1137.136     1951.075     1766.467     78.08051      156.099     312.0741      1.863     6.41     849.5796     54.99173     158.0381        20     1.530     1.116 -37.07   0
        37    470.7097    966.0432 307.7136432  +6.2933096      1043.42     1878.319     1874.936     78.20435      155.975     312.0431      1.776     4.11     852.3101     54.99173     159.4398        12     1.170     0.781 -67.94   0
        38     29.4041    965.1346 307.8969090  +6.2788752     1892.498      2862.05     3034.328     77.45835     155.7888     311.7639      1.675     4.03     848.3226     54.99173     268.6471        22     1.434     0.979 -53.29   0
        39    880.6817    964.1331 307.5434725  +6.3077992     789.2893     1376.839     956.1163       78.328     156.2849     312.0431      1.888     5.77     848.7835     54.99173     118.7143        10     1.367     0.830 -19.29   0
        40    296.8402    960.9830 307.7860075  +6.2895718     708.9904      1233.74     1837.013     77.83224     155.8509     311.7949      2.033     6.53     852.1867     54.99173     99.94299        11     1.517     0.790 -70.20   0
        41    951.7528    960.8324 307.5140709  +6.3115316     624.4779     1027.097     973.3638     77.83224      156.037      311.919      1.824     5.35     847.1436     54.99173     79.41144         9     1.291     0.625 -87.81   0
        42   1004.4728    960.2384 307.4921989  +6.3135334     657.2573     1302.115     2261.598     78.08052      155.975     312.0431      3.754     5.52     845.2198     54.99173     122.1651         7     1.162     0.741 -43.16   0
        43    573.1086    960.0095 307.6713268  +6.2992282     1568.154     2625.643     2627.261     77.83224     155.7266     311.7328      1.808     4.20     852.2017     54.99173     241.6467        15     1.311     0.802 -35.12   0
        44    612.5447    956.3914 307.6550729  +6.3020412     1175.455     1966.266     1684.725     77.58318      155.975     311.7018      1.830     5.21     852.1097     54.99173     160.7553        14     1.503     0.655 -28.74   0
        45     62.3228    956.7516 307.8835239  +6.2834434     685.7097     1189.041     1398.174     78.08052      156.099      311.981      2.001     4.84     848.3137     54.99173      93.4632         7     1.033     0.642 -18.51   0
        46    292.2211    954.2072 307.7881534  +6.2922146     1354.067     2434.709     2514.003     77.83224     155.8509     311.7949      1.815     4.82     852.1044     54.99173     184.7809        20     1.451     0.970 -16.01   0
        47    759.1699    949.9338 307.5944047  +6.3096072     749.9401     1290.169     1285.382     77.95648      156.037      311.919      1.750     6.50     849.8405     54.99173     104.3716        13     1.858     0.639 -32.87   0
        48    896.8408    946.7823 307.5373427  +6.3155025     5882.454     10430.42     10166.03     77.70782     155.8509     311.7639      1.858     4.23     848.0857     54.99173     715.8475        41     1.687     1.169 -41.30   0
        49    432.7416    943.9258 307.7301515  +6.3011704     1959.481      3290.71     3617.988     78.20435      156.037      311.981      1.726     4.08     851.9132     54.99173     271.9398        22     1.374     1.071 -49.38   0
        50    334.4482    942.3085 307.7710200  +6.2985438     8771.784     14195.92     15027.45     78.20436      155.913     312.1051      1.766     3.86     851.8384     54.99173     1151.453        42     1.660     1.120 -36.64   0
        51    106.1275    945.2932 307.8657222  +6.2896469     578.9515     773.2288     440.7382     78.08052      156.161     312.0431      1.116     3.38     848.4837     54.99173     93.97394         5     0.947     0.349 -45.79   0
        52    254.5427    941.1835 307.8042364  +6.2963279     6619.498     10906.03     11528.92     77.58318      155.975     311.7328      1.753     4.06     851.0681     54.99173     820.3112        38     1.669     1.059 -40.05   0
        53    582.7479    935.5246 307.6681455  +6.3096607     1045.034      1545.16     1330.682     78.20435      156.099      311.981      1.643     5.28     851.9266     54.99173     121.3322        10     1.125     0.699 -31.80   0
        54    767.1613    935.1646 307.5915809  +6.3159725       619.02     983.4741     1524.134     77.95648      155.913     311.7949      1.612     4.97     849.5308     54.99173     89.73834         7     0.916     0.762 -44.94   0
        55    913.1693    931.3743 307.5310775  +6.3224091     866.7834     1608.088     1708.799     77.70782     155.8509     311.8259      2.057     6.50     847.1583     54.99173     134.0665        12     1.698     0.699 -37.60   0
        56    868.8243    930.9541 307.5495061  +6.3211038     709.8302     962.6674      778.792     77.83224      156.037     311.8569      1.595     4.45     848.4876     54.99173     106.0376         7     1.110     0.508 -31.81   0
        57    979.9189    927.2589 307.5034968  +6.3263332      732.254     1367.712     2097.195       78.328      156.099      311.981      2.776     5.67     844.7184     54.99173     100.3177         8     1.157     0.783 -42.08   0
        58    749.0978    925.3366 307.5994108  +6.3194274     1459.247     2799.591     3249.296     78.08051      156.161     312.0121      2.173     4.87     849.5236     54.99173     230.6497        20     1.502     1.069 -55.35   0
        59    841.6939    925.1334 307.5609668  +6.3226022     470.2196     800.5775     803.5863     78.08051      156.223      311.981      2.035     5.48     848.7365     54.99173     71.82251         7     1.504     0.563 -52.35   0
        60    979.9621    920.6573 307.5036994  +6.3290606     1165.458      2207.16     2936.228     78.20435      156.099      311.981      1.961     6.20     844.6682     54.99173     144.7996        19     1.505     0.973 -36.35   0
        61    613.1428    921.0756 307.6560089  +6.3166434     809.6989     1303.781     1203.974     78.20435      155.975      311.919      1.654     5.73     851.6484     54.99173     111.0131        10     1.127     0.820 -88.40   0
        62    534.3340    920.6874 307.6887469  +6.3141673     990.0366     1799.349     2192.027     78.20435      156.223     312.0121      2.110     5.99     851.7432     54.99173     131.6092        12     1.426     0.709 -39.28   0
        63    667.5565    918.3243 307.6335059  +6.3195986     2367.209     3874.402     3865.437     78.08052      156.099     312.0121      1.746     3.97     850.9612     54.99173     311.1041        24     1.429     0.969 -40.75   0
        64    475.7406    918.7510 307.7131423  +6.3130053     473.1261     587.8132     1051.751     78.20435      156.037     312.0431      1.625     4.87     851.8726     54.99173     76.79633         5     1.285     0.524  26.86   0
        65    828.2928    914.8806 307.5668748  +6.3263885     900.5503     1544.816     1715.302     77.95648     156.2849     312.0431      1.866     4.26     848.7114     54.99173     147.6875        10     1.100     0.758 -28.27   0
        66     64.1876    914.3380 307.8841797  +6.3010184     2778.084     4639.379     5019.949     77.70782     155.8509     311.7018      1.771     4.00     847.3458     54.99173      338.998        26     1.464     0.988 -44.49   0
        67    957.6907    915.5550 307.5131184  +6.3304253     562.6971      754.834     921.9332     78.20436      155.975     312.1051      1.395     4.08      845.424     54.99173     82.09705         7     0.987     0.482  -8.21   0
        68    945.4488    913.7292 307.5182630  +6.3307711     780.4686     1473.115     1682.073     78.20435      155.975     312.0121      2.058     5.64     845.8782     54.99173     113.9213        10     1.350     0.664 -42.04   0
        69     81.6000    913.7266 307.8769704  +6.3018562      1751.85     2653.651     2678.031     77.45835     155.4156     311.7639      1.666     4.24     847.6691     54.99173     233.9153        19     1.429     0.833 -39.44   0
        70    207.8207    913.0975 307.8245819  +6.3063563     1970.028     2952.561     3081.831     78.08051     155.8509     311.7328      1.702     3.75     849.5076     54.99173      280.691        19     1.438     0.784 -41.37   0
        71    241.3707    909.7166 307.8107648  +6.3088785     676.5481     1220.362     982.1663     78.20435     155.8509      311.888      1.878     5.74     850.1252     54.99173     98.81769        10     1.578     0.589 -45.02   0
        72    662.1826    907.4315 307.6361025  +6.3239167      6419.89     10602.27     11043.33     77.83224     155.8509     311.8569      1.773     3.90     850.7592     54.99173     831.4462        39     1.619     1.112 -38.70   0
        73    346.5749    908.8264 307.7671104  +6.3127753     851.5821     1423.051     1270.101     77.70782     155.8509     311.8259      1.850     5.06     851.2994     54.99173     134.7962        12     1.325     0.890 -48.54   0
        74     22.2728    905.4926 307.9018817  +6.3032611     1108.953     1743.651     1470.946     78.08052      156.161     312.0121      1.619     5.07     846.1833     54.99173     135.4961        13     1.397     0.662 -32.47   0
        75    900.0615    903.5614 307.5374507  +6.3334565     2413.643     4310.541     4783.103     78.20435      156.099     312.0121      1.950     4.34     847.0209     54.99173     304.5867        28     1.517     1.109 -46.35   0
        76     35.1799    904.1292 307.8965685  +6.3042582     855.9676     1231.648      1086.93     77.83224      155.913      311.919      1.578     4.30     846.4308     54.99173     121.9551         9     0.985     0.706 -12.18   0
        77    345.1705    900.5388 307.7679723  +6.3161502     15310.75     24850.36     26492.74     77.95648      156.037       311.95      1.744     3.96     851.1268     54.99173     2145.157        48     1.668     1.111 -38.46   0
        78     79.7758    901.4360 307.8781421  +6.3068696     1132.617     1809.341     1730.154     77.83224     155.8509     311.7639      1.695     5.38     847.3878     54.99173     166.1205        14     1.249     0.855 -55.62   0
        79    216.2768    899.9445 307.8215135  +6.3120711      1140.64     1994.485     2040.609     78.20435      156.037       311.95      1.675     4.26     849.5797     54.99173     184.7695        12     1.295     0.633 -51.20   0
        80    396.2212    899.4491 307.7468106  +6.3183113     704.2563     856.0671     427.2148     77.70782      156.099     311.8569      1.280     5.08     851.2218     54.99173     101.8556         7     1.076     0.709 -33.35   0
        81    422.5759    891.5586 307.7361320  +6.3224525     1060.439     1831.467     1493.333     77.83225     155.8509     311.7639      1.702     5.08     851.1953     54.99173     147.1375        12     1.120     0.897 -24.78   0
        82    108.4486    891.0250 307.8665875  +6.3121320     1561.359     2732.209     2992.532     77.83224      156.037      311.888      1.881     4.81     847.8239     54.99173     214.7031        18     1.535     0.804 -50.02   0
        83    676.2793    887.9816 307.6309007  +6.3324190     655.6285     1600.867     2234.607     77.83224     155.7266      311.919      2.662     7.36      850.099     54.99173      104.501        12     1.845     0.821 -71.26   0
        84    503.7719    888.4753 307.7025190  +6.3264449     654.6879     1098.114     1328.054     78.08052      156.037       311.95      1.945     4.96     851.1946     54.99173     89.98236         7     1.003     0.695 -54.81   0
        85    890.3062    885.2913 307.5421127  +6.3406751     1631.932     2744.195     2894.342     78.20435     156.5324      311.981      1.728     5.01     846.8193     54.99173     201.7822        19     1.461     0.932 -39.07   0
        86    824.5319    884.2702 307.5694609  +6.3389025     2799.381      5000.27     5504.434     78.20435      156.161       311.95      1.933     4.52     848.1859     54.99173     361.4414        31     1.610     1.123 -37.56   0
        87     91.8981    884.6694 307.8736739  +6.3142000     2344.529     3787.116     4275.503     78.08051      156.161      311.981      1.767     4.21     847.4602     54.99173     305.4772        25     1.556     0.966 -44.76   0
        88    863.0767    884.9039 307.5534333  +6.3399269     2466.054     5092.521     5756.227     77.83224      156.161     312.0431      2.069     0.00     847.2616     54.99173     2500.995        23     2.136     0.858  -2.21   0
        89    560.2342    875.7548 307.6794997  +6.3335870       307619     502620.2     536603.1     77.83224      155.913      311.888      1.760     3.94      850.855     54.99173     43149.93       182     1.880     1.335 -40.11   0
        90    404.5154    878.2678 307.7440783  +6.3273352     7204.627     11437.57     11757.88     78.45145     156.2849     312.0121      1.741     3.98     850.9152     54.99173     944.8712        37     1.616     1.035 -40.53   0
        91    648.1500    878.4584 307.6429010  +6.3354110     1243.907     1933.908      2253.33     78.20435      156.037     312.0121      1.789     4.30     850.2689     54.99173     172.0201        15     1.305     0.792 -32.06   0
        92    347.7320    876.6967 307.7677103  +6.3260805     11743.91     18863.79     20350.04     78.20435      156.099      311.981      1.748     4.03     850.6235     54.99173     1552.703        43     1.671     1.049 -37.95   0
        93    666.1472    872.9590 307.6356117  +6.3382833     3188.551     5191.027     5593.998     78.08052      156.099     312.0121      1.722     3.83     849.8566     54.99173     430.6838        27     1.424     1.027 -43.75   0
        94    898.5334    871.9490 307.5391424  +6.3464588     4637.957     8004.333     9060.208     78.08051      155.975      311.981      1.902     4.06     846.4281     54.99173      573.499        35     1.580     1.158 -41.93   0
        95    737.2297    869.5943 307.6062062  +6.3420477     666.7534     1031.627     701.0411     77.70782     155.8509     311.7949      1.495     3.18     849.4492     54.99173     105.7015         5     0.726     0.458 -18.24   0
        96    640.7758    867.1500 307.6463424  +6.3398338     3217.777     5183.481     6008.776     77.83224      156.099      311.888      1.662     3.87     850.1358     54.99173     464.7553        26     1.492     0.937 -42.58   0
        97    829.3247    866.2955 307.5680722  +6.3464845     1452.464     2604.489     3072.771     77.83224      156.223     312.0121      2.004     5.22     847.7307     54.99173     178.8872        19     1.423     0.955 -53.72   0
        98    633.1758    862.8271 307.6496433  +6.3413647     1743.344     3928.628     4796.792     77.70782     155.8509     311.8259      2.422     8.33     850.1782     54.99173     272.7058        32     2.668     0.936 -56.71   0
        99    956.3157    864.7017 307.5153890  +6.3513776     745.5591     1210.453     1220.992     78.20435     156.4706     312.0431      1.755     5.60     845.0623     54.99173     101.7736         9     0.988     0.894  79.55   0
       100    917.5506    859.7150 307.5316541  +6.3521445     2829.749     4840.412      4994.51     78.20436      156.037     312.0741      1.844     4.18     846.0243     54.99173     350.2681        31     1.642     1.054 -32.70   0
       101    327.7360    860.2819 307.7765657  +6.3321877     980.5413      1719.38     1737.191       78.328      156.099      311.981      1.948     3.90     850.2325     54.99173     160.9263        11     1.106     0.805 -33.61   0
       102    375.6947    855.7061 307.7568045  +6.3356851     2391.692     3918.546     3925.854     78.20435     156.5942      311.919      1.757     4.42     850.2744     54.99173     304.0873        21     1.405     0.931 -38.89   0
       103    511.8035    845.2714 307.7006343  +6.3445530     2846.399      4631.54      4296.74     77.70782     155.6645     311.8259      1.658     4.12      849.835     54.99173     404.7561        24     1.582     0.856 -40.23   0
       104    856.3619    844.5588 307.5575716  +6.3563620     908.5663     1328.449     1633.697     77.95648      156.099     311.8569      1.596     5.18     846.6115     54.99173     150.7855        11     1.459     0.615 -41.79   0
       105    577.1735    842.9214 307.6735670  +6.3477110     783.8742     1261.915     1110.462     78.08051      155.975      311.919      1.712     5.47     849.8145     54.99173     109.5355        10     1.108     0.761 -43.83   0
       106    558.6706    841.5224 307.6812977  +6.3476696     5694.974     9034.462     9941.698     78.45145     156.2849       311.95      1.714     3.92     849.7097     54.99173     783.0848        33     1.564     1.030 -41.91   0
       107    565.4225    840.9747 307.6785122  +6.3481216     1248.823     2124.008     2476.035     77.70782     155.8509       311.95      1.844     4.06     849.6921     54.99173     185.3042        15     1.333     0.748 -32.08   1
       108    476.6236    840.3640 307.7154082  +6.3454014     1607.397      2495.78      2419.44     77.83224     155.7888     311.7639      1.644     4.33     849.6436     54.99173     226.2233        18     1.375     0.937 -42.35   0
       109    894.2425    839.8828 307.5419968  +6.3595563     1251.429     2087.105      2005.38     78.20435      156.037      311.919      1.818     6.81     845.9527     54.99173     138.6772        17     1.384     0.940 -57.92   0
       110    269.8281    841.5416 307.8012427  +6.3379830     649.7159     808.3802      786.008     77.83224      156.099      311.888      1.604     4.42     849.5953     54.99173     97.48199         6     1.070     0.567 -29.63   0
       111    118.1184    839.4941 307.8643091  +6.3337339     1297.437     2231.052     2194.973     77.95648     156.2849     312.0741      1.803     5.75     846.7766     54.99173     182.0314        15     1.574     0.664 -45.25   0
       112    693.8271    838.3934 307.6252756  +6.3534809     569.8396     938.7904     786.6824     77.70782      155.913     311.7949      1.864     5.18     849.1024     54.99173      75.5589         5     1.051     0.720  79.13   0
       113    529.3292    835.3622 307.6936891  +6.3492313      18518.2     29768.31      31163.9     78.08052      156.037     312.0431      1.728     3.98     849.3742     54.99173     2557.524        53     1.694     1.103 -38.60   0
       114    370.9962    836.9454 307.7593864  +6.3432739     585.5312     728.3177      613.662     77.58318     155.8509     311.6396      1.396     2.66     849.7867     54.99173     129.8901         5     0.934     0.359 -58.61   0
       115    942.9922    833.8093 307.5219547  +6.3636896     3384.823     6031.121     6053.151     77.70782     155.8509     311.8569      1.843     4.45     844.9391     54.99173     420.3581        32     1.692     1.089 -42.87   0
       116     63.5925    831.3777 307.8872243  +6.3352522     517.0702     830.3681     751.8652     77.70782     155.8509     311.7949      1.413     4.18     845.2427     54.99173     92.91748         5     1.226     0.407 -52.38   0
       117     39.7107    825.8558 307.8973273  +6.3367291     1525.044     2345.702     1778.024     78.20435      155.913     312.1051      1.643     3.87     844.5778     54.99173     193.7405        17     1.305     0.842 -44.51   0
       118    584.2516    825.7576 307.6712035  +6.3550349     608.0941     957.0504     1433.181     78.20435      156.037     312.0121      1.717     4.58     849.2143     54.99173     115.3088         6     0.885     0.672  14.09   0
       119    322.0149    824.0507 307.7801601  +6.3469558     2989.061     4903.023     5123.737     77.58318      156.037     311.7328      1.663     3.95     849.7049     54.99173      399.318        23     1.469     0.919 -42.44   0
       120    787.4883    820.0026 307.5869957  +6.3642031     50508.61     83011.33     88547.55     77.58318     155.6645     311.7328      1.762     3.98     847.2797     54.99173     6684.141        82     1.766     1.237 -38.42   0
       121     22.0283    822.2672 307.9047909  +6.3376161     2078.682     3476.798     3939.412     77.95648      155.975       311.95      1.781     4.11      844.149     54.99173     257.9595        23     1.472     0.927 -36.84   0
       122    430.8410    818.6124 307.7351510  +6.3528493     802.9612     1597.855     1356.059     77.58318     155.8509     311.7018      2.089     6.16     848.4641     54.99173     114.5208        11     1.662     0.641 -47.10   0
       123    244.2818    796.3317 307.8133728  +6.3557929     778593.6      1868099      2117725     78.45145     156.2849     312.0121      2.398     6.62     847.9415     54.99173     63398.68       656     2.824     2.202 -62.88   4
       124    715.7737    814.5611 307.6169602  +6.3640549     20085.59     32523.68     35147.01     77.83224     155.8509     311.8259      1.760     3.92     848.7545     54.99173     2536.073        55     1.748     1.137 -37.22   3
       125    709.4816    811.0752 307.6196900  +6.3652841     82730.48     132303.5     141414.1     78.45145     156.2849     312.0431      1.753     3.90      848.699     54.99173     11238.89        92     1.785     1.221 -38.05   3
       126    354.3491    811.9490 307.7671398  +6.3530369     19276.82     31019.77     33195.75     78.20435      155.913      311.919      1.724     3.83     849.5651     54.99173     2720.022        55     1.689     1.150 -40.52   0
       127    403.5269    812.3950 307.7467027  +6.3545012     1357.911     2286.173      2613.87     77.83225     155.6023      311.888      1.744     4.97     848.3494     54.99173     172.2888        16     1.363     0.811 -43.93   0
       128    416.1577    809.7878 307.7415451  +6.3560010     21066.28     33862.58     36311.38     77.58318     155.8509     311.7018      1.699     3.90      847.955     54.99173     2985.151        55     1.684     1.119 -40.43   0
       129    643.1495    811.3229 307.6472285  +6.3629648     901.9774     1211.425     1219.199     78.20435      156.099       311.95      1.487     3.51     848.7888     54.99173     140.2386        10     1.022     0.677 -39.47   0
       130    953.2277    808.7744 307.5185408  +6.3743681     1752.144     3083.359     2853.618     77.70782     155.8509     311.8569      1.790     5.33     844.2787     54.99173     222.5115        19     1.509     0.863 -47.12   0
       131    909.7485    806.6660 307.5366681  +6.3737892     6102.686     10205.36     11610.47     78.08052      155.975      311.981      1.811     3.92     845.0925     54.99173     746.5365        40     1.643     1.143 -39.53   0
       132    882.5219    807.5186 307.5479468  +6.3725292     647.2209     1020.951     862.2769     78.45145     156.2849     312.1361      1.568     4.77     845.7012     54.99173     93.06195         5     1.135     0.569 -57.38   0
       133    650.3199    805.6160 307.6444421  +6.3655610     6080.652     9732.377     9963.682     77.83224     155.7888     311.8259      1.722     3.89      848.662     54.99173     857.3611        35     1.575     1.034 -37.44   0
       134    438.9804    803.5876 307.7322758  +6.3593258     1595.395     2490.677     2537.694     77.95648     155.7888      311.888      1.635     4.05     847.7588     54.99173     215.5057        17     1.258     0.934 -43.22   0
       135    164.2444    802.7693 307.8463927  +6.3504472     738.8195     912.5637     150.9809     77.83224      156.099     311.8569      1.348     4.50      846.918     54.99173     118.1514         8     1.170     0.492 -46.09   0
       136    877.7065    797.9802 307.5502657  +6.3763071     592.9561     1050.656     915.1387     78.08051     155.8509     311.8259      1.794     4.50     845.6636     54.99173     96.55493         5     1.011     0.569 -18.95   0
       137    603.9946    797.7053 307.6639457  +6.3672784     781.7278     1381.663     1842.569     77.95648     155.7267     311.7639      2.092     6.20     848.3812     54.99173     105.6725        12     1.441     0.750 -21.23   0
       138    685.2036    795.8653 307.6302822  +6.3707532     2202.483     3494.822     3642.515     77.45835     155.7888     311.7639      1.619     3.92     848.3514     54.99173     359.0827        18     1.312     0.875 -51.50   0
       139    154.5542    796.5153 307.8506274  +6.3527039     1046.646     1452.484     1403.792     78.20436      155.975      311.981      1.502     3.72     846.5415     54.99173     192.9811        10     1.062     0.695 -38.83   0
       140    129.5402    796.4784 307.8610159  +6.3518787     1125.679     1754.682     1298.758       78.328      156.037       311.95      1.615     4.51      845.771     54.99173     150.1881        13     1.190     0.785 -27.24   0
       141    419.1568    792.4476 307.7408824  +6.3632614     50991.09     81695.18     87259.07     78.20435      155.975      311.919      1.741     3.89     847.1729     54.99173      6818.92        82     1.778     1.211 -36.88   0
       142    912.7583    815.2119 307.5351324  +6.3703608     7555.426     13213.15     14131.14     77.58318     155.8509     311.7018      1.874     4.08     845.1844     54.99173     915.6875        42     1.702     1.153 -39.62   0
       143    962.5458    794.3239 307.5151541  +6.3806455     696.0868     967.9452     936.0524       78.328      156.037      311.981      1.705     5.15     843.9131     54.99173     97.60675         7     1.084     0.691 -82.04   0
       144    536.8649    791.4666 307.6920332  +6.3676084     6844.125     10819.43     11725.33     78.20435      156.037     312.0121      1.717     3.88      847.539     54.99173     898.7521        39     1.658     1.076 -41.48   0
       145    782.0991    788.0544 307.5903036  +6.3772151     10696.08     17508.53     19127.27     78.08052      156.037     312.2291      1.737     3.87     846.5522     54.99173     1474.426        49     1.722     1.142 -44.06   0
       146    453.6733    789.9742 307.7266315  +6.3654391     4331.537     6993.391     8202.027     77.83224      155.913      311.919      1.777     3.81       847.35     54.99173     556.2327        29     1.508     1.006 -41.94   0
       147     11.5542    784.1696 307.9104257  +6.3529939     997.4462     1625.196     1784.207     77.83224      156.099     311.8569      1.784     5.96     843.5179     54.99173     133.0771        12     1.608     0.621 -38.93   0
       148    450.2235    783.5726 307.7282792  +6.3679668     2222.169     3477.182     4162.251     77.70782      155.913     311.8259      1.727     3.76     847.1248     54.99173      333.091        18     1.228     0.894 -35.17   0
       149    803.8202    782.0144 307.5814850  +6.3804342     1081.385      1789.59     2155.938     77.95648     155.7888      311.888      1.873     5.34     845.8317     54.99173     163.1555        16     1.438     0.829 -36.35   0
       150    147.8391    780.4337 307.8539578  +6.3591184     2863.459     4730.571     5198.133     77.95648     155.8509     311.7949      1.816     4.19     845.8507     54.99173     384.1904        24     1.564     0.956 -38.15   2
       151    139.8414    780.0416 307.8572922  +6.3590116     10760.53     17450.28     19416.61     77.95648      156.037     311.8569      1.730     3.85      845.634     54.99173     1448.129        47     1.695     1.127 -34.23   2
       152    131.9439    777.4390 307.8606595  +6.3598208     2766.203     4563.562     5412.654     78.20435      156.099       311.95      1.816     3.75     845.3398     54.99173     383.2982        25     1.402     1.018 -38.88   3
       153    132.0013    771.0652 307.8608505  +6.3624544     1812.539     3097.666       3365.2     77.58318     155.7266     311.7639      1.706     4.42      845.185     54.99173     237.1047        22     1.569     0.868 -49.15   2
       154    927.6976    776.6665 307.5302170  +6.3867750     5860.507     9811.172     10891.01     78.20435      156.099     312.0431      1.808     3.89     844.1721     54.99173     762.0715        38     1.583     1.135 -39.31   0
       155    976.8688    776.6085 307.5097977  +6.3884378     1282.378      2199.45     2480.422     77.70782     155.7888      311.888      1.871     5.31     843.5428     54.99173     148.6116        16     1.461     0.740 -36.45   0
       156    683.2064    774.3878 307.6318315  +6.3795547     1620.888     2488.863     2782.904     77.83224     155.8509      311.888      1.732     4.03     847.4576     54.99173     227.7651        18     1.320     0.898 -26.85   0
       157    569.9999    773.4695 307.6788766  +6.3761484     2207.528     3415.793     3258.182     77.70782     155.5401     311.7639      1.637     4.15     847.0964     54.99173     288.8443        17     1.388     0.740 -46.41   0
       158    418.0145    772.8547 307.7420153  +6.3713131     950.4314     1708.201     2032.906     77.58318      155.975     311.7018      2.190     6.50     846.5259     54.99173     141.3802        12     1.322     0.991  61.59   0
       159    982.2364    768.0344 307.5078551  +6.3921571     1628.511      2561.49     2404.076     77.95648     155.7888     311.7328      1.613     4.88     843.4003     54.99173     212.8887        21     1.522     0.963 -49.42   0
       160    951.3465    768.1166 307.5206813  +6.3910937     2842.495     4753.606     5052.146     78.20435      156.037     312.1051      1.802     4.32     843.7559     54.99173     351.2449        27     1.612     1.015 -25.78   0
       161    674.3152    767.7264 307.6357473  +6.3820081     1379.485     2406.126      2161.74       78.328     156.3468     312.0121      1.735     5.96     847.2138     54.99173     158.9905        18     1.467     0.836 -34.20   0
       162    821.3497    766.3666 307.5747287  +6.3874805     890.4575      1595.12     1792.131     78.08052      156.037      311.919      1.861     5.28     845.4914     54.99173     141.2753         9     1.288     0.611 -39.32   0
       163    246.9142    762.9945 307.8134020  +6.3696462      1751.85      3243.05     4290.792     77.70782     155.7266     311.7018      2.175     5.14     846.8702     54.99173     233.7748        21     1.605     0.918 -37.79   0
       164    896.7946    764.1927 307.5434685  +6.3908951     663.8811     889.3146     725.5454     77.58318     155.8509     311.8259      1.418     2.77     844.5613     54.99173     110.0635         6     0.746     0.547 -40.56   0
       165    267.2427    758.8036 307.8051010  +6.3720589     688.9692     1274.741     1567.217     77.58318     155.7266     311.6707      2.027     4.27     847.0085     54.99173     122.5782         7     1.086     0.627 -30.12   0
       166    162.0272    758.1196 307.8488178  +6.3688085     738.2449     1201.684      1040.48     78.08052     155.8509     312.0121      1.622     4.97     845.5467     54.99173     110.7379         7     1.092     0.639 -62.26   0
       167    940.0947    757.9427 307.5256944  +6.3949196     888.9479     1349.675     1320.754     78.08052      156.037     312.1361      1.678     4.08      843.738     54.99173     147.8548        11     1.240     0.728 -27.54   0
       168    913.3495    757.1853 307.5368274  +6.3943407     876.7966     1261.276     1288.705     77.58318      156.037     311.7328      1.706     4.71     844.1292     54.99173      136.547        12     1.226     0.752 -53.03   0
       169    966.2581    755.9216 307.5148959  +6.3966262     2314.121     3902.465     4040.165       78.328      156.037      311.919      1.818     3.91     843.4526     54.99173     323.2715        24     1.483     0.962 -28.02   0
       170    685.5090    755.4396 307.6315103  +6.3874557     903.5456     1618.293     2301.771     78.20436      155.975     312.0121      2.106     4.41     846.6857     54.99173     131.0634        11     1.055     0.808 -39.09   0
       171    476.9084    750.2908 307.7183153  +6.3826029     657.5721     992.6631     614.9271     78.20435     156.5324     312.0741      1.705     5.57     846.2223     54.99173     116.6061         9     1.428     0.612 -48.45   0
       172   1008.1612    749.3187 307.4977135  +6.4007489     1425.383     2266.453     2156.234     78.20435      156.099      311.919      1.770     5.44     843.0009     54.99173     174.8143        15     1.325     0.810 -31.07   0
       173    921.9327    768.6892 307.5328780  +6.3898767     2678.784     4573.304     5183.749       78.328      156.223      311.919      1.866     4.19      844.163     54.99173     376.0789        26     1.503     1.043 -39.72   0
       174    634.3321    748.9449 307.6529822  +6.3884266     809.6077     1225.983     1492.929     78.20435      155.913      311.919      1.509     3.68     846.4418     54.99173     120.5466         5     0.874     0.467 -85.21   0
       175    809.0449    747.7448 307.5804625  +6.3947590     1047.013     1661.077     1626.956     78.20435      156.037      311.981      1.726     6.22     845.2855     54.99173     145.1647        15     1.447     0.791 -28.10   0
       176    895.3779    745.3066 307.5446887  +6.3986463     1084.628     2020.072     2592.638     78.20436     155.8509     311.7949      2.059     5.24     844.2249     54.99173     147.5626        15     1.234     0.935  -6.66   0
       177    870.1747    739.9624 307.5553348  +6.4000124     806.8332     1526.761     1495.714     77.83224     155.8509     311.7949      2.146     5.58     844.5399     54.99173     123.6953         8     1.507     0.583 -34.61   0
       178    852.5230    736.4075 307.5627848  +6.4008914      1506.67     2443.738     2817.862     77.83225     155.5401     311.7949      1.713     4.56     844.6683     54.99173     182.4807        17     1.295     0.895 -32.94   0
       179     51.3812    735.5840 307.8955261  +6.3743942     2442.139     3958.721     4113.687     77.95648     155.7888      311.888      1.781     4.47     842.9307     54.99173     336.9609        22     1.547     0.880 -36.70   0
       180    115.0065    733.5804 307.8691715  +6.3773607     781.0308     1821.575     1629.795     77.83224     155.7888     311.7949      2.264     6.66     843.8829     54.99173     126.2023        11     1.402     0.887 -67.34   2
       181    706.5851    728.0983 307.6236737  +6.3994496     411.4114     753.3621     736.7594     78.20435     155.7888     311.7639      2.063     3.48     845.7678     54.99173     85.52728         5     0.802     0.435 -69.97   0
       182    664.1327    723.9812 307.6414428  +6.3997307     5717.708     9215.218     9828.834     77.83224      155.975      311.888      1.701     4.21     845.6981     54.99173      812.991        34     1.594     1.039 -36.46   0
       183    610.9881    723.2758 307.6635381  +6.3982450     1295.711     2433.705     2607.364     77.83224     155.7266     311.8259      1.999     5.29     845.7625     54.99173     174.7614        18     1.524     0.837 -29.35   0
       184    532.8791    723.9869 307.6959538  +6.3953379     631.5071     1037.531     1138.362     77.83224     155.7888     311.7639      1.629     3.71      845.436     54.99173     107.6771         5     0.654     0.606  -1.50   0
       185    522.1480    723.6001 307.7004235  +6.3951384     843.6494     1120.033     1025.183     77.45835     155.5401     311.5154      1.538     4.85     845.4797     54.99173     123.5629        10     1.089     0.726 -22.77   0
       186    127.1190    719.8198 307.8646052  +6.3834495     3434.359     5337.133     5453.895     77.83224     155.7266      311.919      1.633     4.16     843.6915     54.99173     453.8507        26     1.508     0.914 -43.87   0
       187    638.1334    719.6137 307.6523872  +6.4006649     1780.994     2795.858     3201.856     77.70782     155.8509      311.919      1.684     3.86     845.6693     54.99173     285.1919        21     1.512     0.837 -43.30   0
       188    249.7666    719.6379 307.8136771  +6.3876439     527.3679     779.2751     417.1743     77.95648     155.8509     311.7639      1.458     4.11     844.9138     54.99173     145.4451         7     1.231     0.670 -63.58   0
       189   1001.3501    719.1669 307.5015498  +6.4129722     2075.008     3716.978      3825.42     78.08052      156.037      311.919      1.896     4.85     842.2151     54.99173     272.5413        24     1.658     0.926 -35.62   0
       190    313.7977    719.7590 307.7870812  +6.3897425     717.0581     1041.468      1387.17     77.58318     155.7888     311.7328      1.573     3.97     845.1648     54.99173     112.5569         7     0.886     0.571 -31.73   0
       191    781.1013    716.0836 307.5931282  +6.4068995     18664.19     29848.46     31167.88     78.20435     156.4706     312.0741      1.686     3.89      845.147     54.99173      2630.42        54     1.670     1.124 -40.54   0
       192    911.0007    715.8350 307.5391859  +6.4113366     3145.448     5391.672     5889.158     77.33332     155.8509     311.7949      1.810     4.06     843.7495     54.99173     462.8771        31     1.636     1.059 -38.69   0
       193    480.2408    716.4058 307.7180695  +6.3967058     1353.718     2142.026     2051.543     77.45835     155.7267     311.7018      1.659     5.07      845.504     54.99173     182.0604        15     1.504     0.666 -46.82   0
       194    326.3686    715.7740 307.7819946  +6.3918096     592.6796     911.3882     466.1585     77.70782     155.7888     311.8259      1.438     5.29      844.908     54.99173      80.4151         8     1.183     0.668  86.19   0
       195    508.7144    716.0185 307.7062572  +6.3978192     1082.611     1648.376     1665.911     77.83224     155.7888      311.919      1.469     3.50     845.4055     54.99173     202.6212        11     1.191     0.654 -23.83   0
       196    282.6074    715.4281 307.8001802  +6.3904843     630.9085     1013.678     1052.925     77.70782     155.8509     311.7949      1.686     5.21     844.8061     54.99173     92.34558         8     1.222     0.627 -42.99   0
       197    254.5443    709.7232 307.8120267  +6.3918981     5851.365     9133.098     9674.434     78.20435      156.037       311.95      1.677     4.11     844.3137     54.99173     782.7246        30     1.555     0.953 -40.23   0
       198    661.6262    708.8727 307.6429904  +6.4058854     6496.337     10472.79     11083.15     77.83224      155.913      311.888      1.688     3.93     845.4088     54.99173     846.6676        34     1.595     0.997 -43.53   0
       199    644.3073    710.0131 307.6501450  +6.4048355     870.3506     1109.375     1745.202     77.95648     155.7888     311.7949      1.474     3.97     845.4833     54.99173     147.1427        11     1.171     0.774 -51.76   0
       200    356.2686    708.6582 307.7698164  +6.3957505     672.2725     1078.677     1308.133       78.328      155.975      311.919      1.750     4.69     844.4386     54.99173     80.96191         8     0.953     0.654 -21.05   0
       201    921.6808    701.4924 307.5352299  +6.4176150     1051.984     1683.735     1608.558     77.95648     156.2849     312.0431      1.700     6.36     843.5412     54.99173     163.2304        13     1.307     0.870 -44.54   0
       202    733.4242    697.2162 307.6135617  +6.4130979       3455.4      5566.39     6253.003     77.95648      155.913      311.919      1.767     4.29     845.1251     54.99173     434.6976        28     1.532     0.993 -50.27   0
       203    688.7314    697.7371 307.6321063  +6.4113894      1000.43     1658.582     2037.599     78.20435      156.037     312.0431      1.729     4.96     845.1458     54.99173     162.1316        13     1.338     0.762 -43.73   0
       204    999.6260    693.9124 307.5031099  +6.4233429     7798.355     13323.12     14140.51       78.328     155.8509     311.8569      1.835     4.07     841.1728     54.99173     999.7975        45     1.757     1.147 -35.06   0
       205    938.0099    694.4543 307.5286832  +6.4210656     2291.406     3499.386     3504.738     77.58318      155.975     311.7018      1.664     4.02     843.1346     54.99173     271.7418        19     1.293     0.926 -48.01   0
       206    988.0864    695.1080 307.5078627  +6.4224647     488.2328     608.2727     137.1181     78.08052     156.4706     312.0741      1.299     4.40     841.5881     54.99173     95.18707         5     0.855     0.644  39.66   0
       207     18.4533    693.5252 307.9106195  +6.3906524     1823.738     3351.655     3792.569     78.20436      156.037       311.95      2.022     5.88     842.2927     54.99173     223.6392        26     1.768     1.175 -16.14   0
       208    552.2545    692.1528 307.6889756  +6.4091310     579.9941      928.077     1017.265     78.20435      156.037     312.0121      1.385     4.31     844.9091     54.99173     92.01147         7     0.878     0.603 -54.55   0
       209     76.9948    688.7078 307.8864703  +6.3946105     24226.97     38976.89     41091.77     77.83224     155.7267     311.7328      1.714     3.93     842.4828     54.99173     3328.713        59     1.707     1.134 -38.71   0
       210    538.3812    689.6486 307.6948215  +6.4097007     2018.828     2993.629     3211.151     77.70782      156.099     311.7639      1.660     4.12      844.856     54.99173     322.9548        16     1.323     0.743 -36.55   0
       211    506.9420    687.0588 307.7079658  +6.4097175     1281.138      2060.04     2222.987     78.20435      155.975     312.0121      1.600     4.45     844.9597     54.99173     181.9746        12     1.347     0.616 -49.56   0
       212    928.2371    685.8917 307.5330285  +6.4242755     846.9422     1314.614     1467.672       78.328      155.975     312.0121      1.838     5.06     843.4161     54.99173     131.5236         9     1.231     0.588 -47.49   0
       213    547.6558    683.4947 307.6911762  +6.4125521     917.3801     1366.104     1308.685     78.08052      156.037     312.1981      1.669     5.94     844.7297     54.99173     118.7832        12     1.355     0.732 -39.18   0
       214    722.9208    680.9829 307.6184680  +6.4194499     3219.776     5113.498     5305.848     77.83224     155.7888      311.919      1.622     3.96     844.7933     54.99173     430.2772        25     1.485     0.917 -43.32   0
       215    745.0012    679.2465 307.6093555  +6.4209045     3821.984     6098.828     6296.345     77.58318     155.7266     311.5465      1.680     4.08     844.7322     54.99173     522.9608        29     1.568     0.936 -40.19   0
       216    576.4706    677.1911 307.6794203  +6.4161191     3123.972     4850.953       4927.7     77.70782     155.6645     311.8569      1.653     4.14     844.8669     54.99173     420.2208        27     1.659     0.922 -34.55   0
       217    412.8472    677.4830 307.7473669  +6.4105195     1393.725     2421.522     2856.168     78.20435      156.037      311.981      1.865     5.25     842.5628     54.99173     176.7147        15     1.316     0.767 -40.93   0
       218   1017.9016    675.4487 307.4961362  +6.4315756     4499.714     7634.312     8435.887     78.20435      155.975     305.3344      1.842     4.23     839.6044     54.99173     538.1356        33     1.640     1.065 -37.48  16
       219    320.6392    676.2003 307.7857054  +6.4079575     1302.215     2070.951     1862.026     77.20808     155.8509     311.7018      1.635     4.88     842.3403     54.99173     168.9372        14     1.292     0.757 -39.38   0
       220    237.0513    676.5717 307.8204078  +6.4049991     1634.553     2501.422     2144.237     77.83224      156.161      311.888      1.569     4.46     842.1329     54.99173     218.1356        15     1.317     0.747 -38.12   0
       221    983.3718    674.2640 307.5105176  +6.4309144     7261.551     11954.88     12988.81     77.83224      156.037      311.919      1.791     3.90     841.0551     54.99173     946.6868        40     1.670     1.105 -33.56   0
       222    703.4889    672.8913 307.6268099  +6.4221418     863.6807     1053.926     833.6741     78.20435     156.5324     312.0741      1.331     3.41     844.6274     54.99173     162.2087         8     0.975     0.586 -44.74   0
       223    141.6979    667.6591 307.8603089  +6.4054764     22755.62     36501.39     38773.72     77.95648      155.975     312.1051      1.724     4.01     842.1795     54.99173     3037.417        60     1.714     1.144 -37.87   0
       224     94.4346    671.1379 307.8798202  +6.4024514     847.8489     1372.573     1765.247     78.08052      156.099       311.95      1.745     4.94     842.1647     54.99173     128.1077         9     1.259     0.550 -42.33   0
       225    428.6010    668.4376 307.7411281  +6.4147823     2630.986     4382.611     4822.132     77.33332     155.8509     311.7639      1.830     4.22       842.76     54.99173     376.5585        23     1.483     0.905 -40.25   0
       226    810.1591    668.2753 307.5826605  +6.4276104     1079.757     1866.148     2152.966     78.08051      156.037     312.0121      1.721     3.37     844.3308     54.99173     166.9923        10     1.004     0.667 -48.24   0
       227    645.8357    668.9728 307.6508866  +6.4218327     482.6179     578.4604     143.6214     77.70782     155.7888     311.7639      1.348     3.78     844.6561     54.99173     81.17963         5     0.807     0.509 -32.65   0
       228    361.1314    662.3425 307.7693546  +6.4150375       816.87     1348.181     1133.609       78.328      155.975      311.919      1.744     3.49     841.8879     54.99173     120.8599         7     1.026     0.532 -61.29   0
       229    978.3752    657.2666 307.5131610  +6.4377665     6085.085     10896.31     11915.99     77.83224      155.975      311.888      1.925     4.03     840.6705     54.99173     744.8241        43     1.617     1.343 -21.27   0
       230     22.8359    656.4463 307.9100507  +6.4061095     1077.916     1631.064     2420.685     77.95648      156.037      311.888      1.984     4.40     842.2596     54.99173     171.2993        11     1.244     0.641 -30.39   0
       231    571.7286    652.4744 307.6822194  +6.4261663     45933.08     71967.48     76583.28     78.45145      156.161     312.0121      1.721     4.03     843.8258     54.99173     6044.955        80     1.750     1.183 -39.34   0
       232    936.4406    654.2031 307.5306810  +6.4376337     750.9654     1101.075     984.1614     77.45835     155.7267     311.7328      1.492     4.34     842.1421     54.99173      108.772         7     0.846     0.656  12.84   0
       233    531.2309    652.8555 307.6990266  +6.4246535      699.112     1019.127     839.6207     78.08051      156.099       311.95      1.306     4.64     843.7545     54.99173     126.4976         8     1.107     0.565 -69.50   0
       234    214.7529    654.0159 307.8304282  +6.4135637     659.6918     862.5388     1366.604     77.70782      155.913     311.7328      1.618     3.74      841.454     54.99173     112.6964         6     0.903     0.510 -52.55   0
       235    179.3921    649.1161 307.8452791  +6.4143992     2701.534     4442.395     4750.661     77.83224     155.7266     311.8259      1.762     4.01     841.6046     54.99173     359.4604        25     1.517     0.933 -40.91   0
       236    983.3792    648.2390 307.5113844  +6.4416609     699.4641     1179.027     994.4503     77.83224     155.8509     311.7328      1.827     5.24     840.1717     54.99173     128.5251         7     1.196     0.834 -51.23   0
       237    502.3424    649.3450 307.7111428  +6.4251359     698.9243     819.7612     244.4671       78.328      156.099     312.0121      1.437     2.90     843.6232     54.99173     122.0823         6     0.804     0.553 -42.60   0
       238     72.0860    643.3430 307.8900390  +6.4131763     1152.709     2019.849     2261.624     78.20435      156.037     312.1361      1.746     5.58     841.8096     54.99173     185.2313        18     1.656     0.899 -46.19   0
       239    469.0102    636.2605 307.7254263  +6.4294223     59175.93     95038.68     101008.3     77.58318      155.913     311.7018      1.708     3.95     842.7915     54.99173     8292.998        84     1.747     1.201 -39.54   0
       240     12.5040    637.8267 307.9149699  +6.4134497     1663.938      2693.71     2639.327       78.328     155.7888     311.8569      1.733     4.02     842.4336     54.99173     272.8122        20     1.405     0.913 -45.54   0
       241    655.0812    633.3937 307.6482399  +6.4368328     933.8635     1331.468     1612.649     77.83224     155.6023     311.7639      1.702     4.19     843.1774     54.99173     126.8965        12     1.326     0.622 -42.95   0
       242    143.2019    631.3642 307.8609077  +6.4205130     1471.206     2380.973     1975.229     77.33332     155.8509     311.7949      1.704     4.88     841.2919     54.99173     195.8207        17     1.356     0.870 -47.82   0
       243    422.6500    629.1245 307.7449212  +6.4308155     866.0724     1419.128     1447.189     78.20435      156.099      311.981      1.600     5.13     841.9262     54.99173     121.4416        10     1.377     0.540 -56.84   0
       244    614.9520    628.0139 307.6650878  +6.4377122     802.1451      1121.11     1381.815     77.58318      155.975     311.7018      1.577     4.98     842.8166     54.99173     124.4473        10     1.211     0.645 -38.06   0
       245    314.4281    625.5762 307.7899885  +6.4286520     2129.031     3392.214      3591.37     77.70782      155.913     311.8259      1.716     4.33     840.8126     54.99173     300.0701        21     1.455     0.904 -47.89   0
       246     16.0708    626.5847 307.9138680  +6.4182115     752.7244     1099.186     931.3668     77.70782      155.975      311.888      1.490     5.38     842.4591     54.99173     98.50616         7     1.326     0.616 -54.31   0
       247    466.9462    623.7117 307.7267052  +6.4345346     836.9485     1505.102     2307.141     78.20435      155.913     312.1051      1.993     5.81     842.2477     54.99173     114.3173        11     1.314     0.722 -28.77   0
       248    741.0757    619.7349 307.6129800  +6.4453465     4990.769     7995.291      7725.22       78.328      156.037       311.95      1.695     4.06     842.7724     54.99173     688.9338        31     1.526     1.007 -41.31   0
       249    794.6270    615.0782 307.5908932  +6.4490577     13016.16     20608.67     21837.32     78.08051      155.975       311.95      1.680     3.93     842.5905     54.99173     1660.274        42     1.598     1.043 -40.52   0
       250   1011.8442    615.5598 307.5006534  +6.4561031     839.4547     1365.966     1219.103     77.95648      156.037     311.8569      1.747     4.30     838.3373     54.99173     121.3535         9     1.187     0.675  -7.34   0
       251    536.4289    615.2155 307.6981315  +6.4403694     1156.006     2149.096     2364.632     77.83224     155.7888      311.888      1.833     5.84     842.1442     54.99173      168.334        14     1.485     0.647 -31.84   0
       252     39.5495    614.2455 307.9045334  +6.4240961     631.8066     909.8826     637.2708       78.328      155.913     312.0431      1.461     4.06     842.0575     54.99173     116.6802         6     1.127     0.418 -58.43   0
       253    618.5976    613.0889 307.6640743  +6.4439969     2716.006     4418.909     4330.266     77.58318     155.6645     311.7018      1.666     3.89     842.1042     54.99173     369.5687        25     1.507     0.941 -37.55   0
       254    935.8060    609.1717 307.5324506  +6.4562068     963.9023     1536.162      1959.33     77.70782     155.8509     311.7949      1.855     5.49     839.9501     54.99173     127.4102        12     1.491     0.570 -44.19   0
       255    194.9250    608.0576 307.8402114  +6.4318740     662.9543     1031.721     1142.644     78.20435      155.975       311.95      1.821     5.72     840.5103     54.99173     100.5366         8     1.307     0.706 -84.26   0
       256    377.0835    606.6674 307.7646017  +6.4385608     923.4853     1601.799     1564.393       78.328     156.2849     312.0121      1.879     4.59     840.7772     54.99173     147.2492        12     1.303     0.844 -56.14   0
       257    230.8472    606.6376 307.8253397  +6.4336666         1427     2418.484     3021.827     78.08051      156.037     311.8569      1.841     3.88     840.3191     54.99173     184.9849        15     1.195     0.849 -32.12   0
       258    360.9949    606.2269 307.7712987  +6.4382032     488.9686     620.8989     1074.257     77.70782     155.8509     311.8259      1.522     3.83     840.4556     54.99173     79.10248         5     0.827     0.509 -59.57   0
       259    870.5823    598.2678 307.5599070  +6.4585340     2593.277     4069.322     3981.562     77.70782      155.975      311.888      1.653     4.58      841.499     54.99173     328.2787        20     1.420     0.855 -31.94   0
       260    829.5010    595.7478 307.5770551  +6.4582037     2511.704     3929.885     4395.634     78.08052      156.037     312.1981      1.703     4.09     841.8062     54.99173     346.7125        20     1.368     0.869 -34.42   0
       261    800.4252    591.6336 307.5892700  +6.4589319     2263.861     3840.856     4552.881     77.58318     155.7888     311.7639      1.874     4.49      841.866     54.99173     292.2747        22     1.484     0.966 -33.88   3
       262    809.9834    586.9505 307.5854567  +6.4611847     147264.5     235954.5     250685.5     77.70782      156.099     311.6707      1.690     3.92     841.6418     54.99173     20713.77       118     1.779     1.243 -37.67   2
       263    257.3837    590.6729 307.8148558  +6.4411493     7203.073     11646.41     12139.45     77.70782      155.913      311.919      1.740     4.13     840.2125     54.99173     1003.219        39     1.690     1.034 -37.96   0
       264    861.8691    588.4877 307.5638535  +6.4622816     466.9052     679.1641     213.5326     78.20435     156.2849     312.0121      1.190     3.86     841.2753     54.99173     103.2423         5     1.274     0.335 -47.35   0
       265    191.5705    585.2170 307.8423742  +6.4411921      54777.9     89266.59     96633.11     77.83224     155.7888      311.919      1.754     3.97     840.2622     54.99173     7412.959        96     1.824     1.261 -39.43   0
       266    115.6370    581.4248 307.8740397  +6.4402063     6007.781     9695.092     10605.21     77.83225     155.8509     311.7328      1.762     4.05     840.4583     54.99173     845.9299        39     1.676     1.041 -34.99   0
       267    980.9935    578.8061 307.5146964  +6.4702515     1269.878     1834.634     1267.997     77.58318     155.8509     311.7949      1.497     4.70     838.5961     54.99173     181.3402        13     1.283     0.683 -62.43   0
       268   1001.5105    577.6835 307.5062116  +6.4713986     662.9476     1088.816     1329.926     77.95648     156.2849     312.0741      1.683     4.02     838.2634     54.99173     105.4991         6     1.119     0.414 -35.49   0
       269    229.7839    576.8311 307.8267853  +6.4459380     676.4368     1121.824      1711.62     77.83224     155.7888      311.919      2.183     3.96     840.1626     54.99173     105.5614         6     1.153     0.389 -59.76   0
       270    846.5272    574.2578 307.5707025  +6.4676454     4185.871     6522.039     7131.151       78.328      156.037       311.95      1.697     4.14     840.8502     54.99173      575.685        27     1.533     0.932 -43.83   0
       271    365.0311    572.3743 307.7707610  +6.4523165     15769.01      25626.3     27346.15     77.70782     155.7888     311.8259      1.721     4.07     840.1059     54.99173      2082.46        50     1.662     1.124 -40.11   0
       272    455.6091    572.2322 307.7331440  +6.4554110     716.0242     1258.925     1867.335     77.70782     155.7888     311.8259      1.701     4.36     840.5853     54.99173     118.5776         7     1.090     0.496 -43.68   0
       273    167.0416    571.1613 307.8530356  +6.4461716     1687.975     2959.059     3808.331     77.95648      156.037     311.8569      1.998     4.33     840.0694     54.99173     234.2174        17     1.357     0.766 -53.29   0
       274    800.4537    567.5114 307.5900660  +6.4688933      5511.82     8813.441      9266.78     78.20436      155.913     312.1051      1.766     4.01     841.1283     54.99173     764.0475        37     1.667     1.041 -43.80   0
       275    531.3760    567.2426 307.7018412  +6.4600087     5943.039      9576.84      10033.3     77.83224      155.913     311.7949      1.756     3.95     840.5449     54.99173     856.1498        35     1.686     0.967 -39.89   0
       276    241.8488    568.8500 307.8220430  +6.4496385     974.9616     1318.189     1771.721     78.20435      155.913      311.919      1.568     5.11      840.098     54.99173     136.4718        10     1.166     0.634 -30.02   0
       277    171.9633    569.0753 307.8510617  +6.4471983     650.0284     1032.093     2179.255     78.08052      156.099     312.0121      1.713     3.39     840.0443     54.99173     99.42261         5     0.792     0.504  63.41   0
       278    104.5283    568.1486 307.8791012  +6.4453145     752.0822      1132.65     1244.314     78.08052      156.037     312.0121      1.664     5.13     840.3708     54.99173     138.6152         8     1.490     0.499 -39.46   0
       279    389.9598    563.6600 307.7606999  +6.4567504      1291.41     2280.929     2192.998     78.20435      156.037     312.0431      1.801     4.90     840.1702     54.99173     172.9227        16     1.408     0.832 -15.80   0
       280    178.3614    560.4410 307.8486953  +6.4509783     6369.084     10339.97     11260.71     77.95648      156.099     311.8569      1.765     4.03     839.9245     54.99173     893.8395        37     1.602     1.077 -41.71   0
       281    576.0475    560.3365 307.6835182  +6.4643553     2264.272     3758.731     4571.104     78.08051      155.913     312.0431      1.796     4.95     840.3283     54.99173     325.8449        23     1.646     0.811 -36.25   0
       282    817.2705    559.7463 307.5833408  +6.4726610     1399.747     2168.772     2473.145     78.08052      155.975      311.919      1.619     4.17     840.6832     54.99173     244.6351        17     1.384     0.848 -40.26   0
       283    273.5713    556.8958 307.8092697  +6.4556392     81372.47     130172.7     138539.8       78.328     155.7888       311.95      1.720     3.93     839.9492     54.99173     11268.69        93     1.773     1.222 -39.21   0
       284     50.0395    559.1789 307.9020349  +6.4471857     4560.916       7695.9     8096.838     77.83224     155.8509     311.7639      1.745     4.02     841.6104     54.99173     630.0812        31     1.559     1.044 -43.35   0
       285    563.2283    554.3990 307.6890422  +6.4663780     707.4269     1275.567     1787.298     77.70782     155.7888     311.7949      1.624     4.27     840.1415     54.99173     142.5995         7     1.389     0.374 -23.79   0
       286    257.3726    551.9904 307.8161630  +6.4571210     1501.037     2156.478     1767.848     77.83224     155.8509     311.8569      1.532     3.52     839.9587     54.99173     221.1569        14     1.085     0.838 -48.92   0
       287    796.7067    549.2833 307.5922330  +6.4762948     15151.96     23894.85     25090.31     77.95648     156.4087     312.1051      1.701     3.91     840.5443     54.99173     2022.297        47     1.613     1.091 -40.53   0
       288    973.3776    550.4147 307.5188091  +6.4817210     1448.698     2365.643     2556.206     77.95648     155.8509      311.888      1.798     4.44     838.3745     54.99173     184.0467        16     1.270     0.898 -31.93   0
       289    500.3371    547.7051 307.7153898  +6.4670366     37226.52     64873.71     70269.09     78.08052      156.161     312.0121      1.888     4.18     839.9398     54.99173     4554.403        81     1.865     1.314 -31.92   0
       290    650.6176    546.2601 307.6530163  +6.4726620     898.9432     1675.157     2034.801     77.83224      155.975     311.7328      2.035     6.47     840.1359     54.99173     112.6683        14     1.549     0.758 -38.52   0
       291    260.6746    544.7950 307.8150338  +6.4602028     546.0649     898.2032    -284.2975     77.83224     155.5401      311.888      1.683     3.92      839.901     54.99173     102.5541         5     1.093     0.495 -32.02   0
       292    212.8707    544.0506 307.8349143  +6.4589051     1704.115     2812.365     3412.469     78.20435      155.975     312.0121      1.761     5.04     839.8846     54.99173     231.8065        21     1.636     0.806 -38.72   0
       293     98.5333    544.0840 307.8824027  +6.4550491     640.8516     1014.841     842.8441     78.45145     156.2849     312.0431      1.699     5.06     840.1612     54.99173     111.1469         9     1.337     0.542 -52.30   0
       294     48.3513    544.3863 307.9032351  +6.4532366     1141.602     1916.067     1508.564     77.58318      155.975     311.6707      1.681     4.32      841.585     54.99173       183.08        13     1.268     0.761 -33.66   0
       295    670.6195    542.8376 307.6448228  +6.4747439     1249.879     2047.172     2469.077     77.83224     155.7888     311.7328      1.758     4.92     840.1592     54.99173     198.7978        12     1.385     0.624 -45.52   0
       296    660.2098    542.7173 307.6491508  +6.4744455     2917.101     4777.762     5145.499     77.83224     155.6645     311.8259      1.674     4.00     840.0961     54.99173     445.9828        23     1.495     0.858 -45.14   0
       297    722.2009    541.8737 307.6234294  +6.4768658     1204.565     2051.658     2074.901     77.45835     155.4779     311.8259      1.800     4.60     840.2753     54.99173     189.4233        16     1.390     0.780 -44.43   0
       298    398.1036    538.3234 307.7581694  +6.4674850     1575.793     2601.041      2311.66     77.83224      156.223     312.0431      1.713     4.19     839.4174     54.99173      227.919        18     1.370     0.935 -43.72   0
       299     79.1894    540.2629 307.8905660  +6.4559764     624.5676       1058.7     1148.937     77.70782     155.8509     311.7949      2.394     5.22     840.6238     54.99173     111.1283         7     1.052     0.731 -28.35   0
       300    329.4896    536.6995 307.7867236  +6.4658547     3578.125     5836.803     6143.869     78.20435     156.4706       311.95      1.760     4.69     839.2847     54.99173     462.1364        28     1.561     0.987 -39.05   0
       301    144.7052    535.2238 307.8635243  +6.4602595     24149.13      38665.9     41263.89       78.328     155.7888     311.8569      1.734     3.94     839.5364     54.99173     3182.204        58     1.723     1.122 -38.77   0
       302    872.7390    535.4749 307.5611128  +6.4845341     1428.956     2207.245       2315.7     78.45145      156.037      311.981      1.592     4.42     839.0845     54.99173     216.4536        17     1.397     0.778 -39.80   0
       303    509.4380    536.0702 307.7120005  +6.4721455     1921.226     3115.217     3434.966     78.08051      156.037     312.0431      1.668     4.04     839.5103     54.99173     296.0754        20     1.488     0.855 -41.89   0
       304    109.9179    533.4312 307.8780335  +6.4598304     2518.822      4045.42     4388.066     78.08051     155.8509       311.95      1.765     4.11     839.8634     54.99173     318.9072        19     1.395     0.850 -48.86   0
       305    346.4684    531.9271 307.7798319  +6.4683947     1011.952     1403.541      1374.19       78.328      156.161      311.981      1.404     3.96     838.9634     54.99173     151.9141         9     1.006     0.618 -37.97   0
       306    970.3759    529.7610 307.5207466  +6.4901491      4489.81     7417.148     7421.208     77.83224     155.7888     311.7949      1.761     4.18      837.755     54.99173     611.5256        31     1.537     1.057 -34.98   0
       307    543.6227    522.2211 307.6982662  +6.4790084     1197.267     1933.097     2097.732     77.95648     155.8509       311.95      1.753     4.86     839.1702     54.99173     222.0643        16     1.556     0.697 -45.97   0
       308      8.9726    519.5698 307.9204283  +6.4621582     23620.99     38042.69      41026.6     77.70782     155.7888     311.7639      1.746     3.92     842.1049     54.99173     3166.484        61     1.775     1.125 -38.76  16
       309    441.6682    516.3976 307.7408112  +6.4779984     39936.73      63584.9     67056.42     77.58318     155.6645     311.7949      1.723     3.92     838.4141     54.99173     5390.938        67     1.717     1.132 -38.20   0
       310    649.7162    516.1252 307.6544016  +6.4850748     11405.17     18034.19     19383.05       78.328     156.3468     312.0431      1.691     3.90     839.2473     54.99173     1602.575        40     1.639     1.010 -42.71   0
       311    417.2942    519.1653 307.7508424  +6.4760387     591.2316     960.9475     955.8016       78.328      155.913     312.0741      1.859     5.04     838.4785     54.99173     81.29468         6     1.098     0.653  -2.48   0
       312    289.8972    516.4973 307.8038488  +6.4728677     1023.608     1595.516     1155.323     78.20435     156.5324     311.8259      1.667     6.08     838.0075     54.99173     148.4504        16     1.444     0.790 -42.46   0
       313    206.8707    513.9631 307.8384201  +6.4711266     17173.01     29744.45     32126.24     78.08052      156.099     312.0431      1.855     4.09     838.4697     54.99173     2163.566        57     1.710     1.278 -37.30   0
       314    172.6015    515.1021 307.8526157  +6.4695051     1388.298     1996.632     1663.911     77.70782     155.7888     311.6707      1.564     4.31     838.8098     54.99173     192.3589        15     1.267     0.818 -40.98   0
       315    983.7725    514.2715 307.5156996  +6.4969915      1003.65     1687.027     1879.852     77.95648      155.975      311.919      1.850     5.22     836.9807     54.99173     123.9282        10     1.110     0.694 -67.71   0
       316    823.7688    514.1064 307.5821699  +6.4917233      761.312       1325.5     1268.047       78.328     155.8509      311.981      1.696     5.18     839.0947     54.99173     115.3685         9     1.455     0.520 -45.65   0
       317    912.5355    513.4478 307.5453188  +6.4949568     804.8869     1246.278     1356.378     78.08052      155.913     312.0431      1.815     4.85     837.8257     54.99173     106.5957         7     1.003     0.664 -37.08   0
       318    571.6639    512.7482 307.6869365  +6.4838583      2577.78     4180.509     4085.014     78.20435      155.975       311.95      1.757     4.35     838.9728     54.99173     379.5778        22     1.575     0.819 -42.30   0
       319    945.4355    510.0174 307.5317669  +6.4974703     4235.602     6888.362     7604.731     77.70782     155.8509     311.7639      1.745     3.95     837.2744     54.99173     598.7019        31     1.553     1.044 -39.74   0
       320    618.4706    508.4416 307.6676383  +6.4872025     6049.789     9352.333     9386.553     78.08052      156.037     312.0431      1.684     3.82     838.9509     54.99173     897.4169        36     1.629     1.005 -35.66   0
       321    105.9620    509.0556 307.8804987  +6.4697620     984.1454     1534.683     1560.375     78.20435      156.099     312.0121      1.488     5.19     839.4921     54.99173     144.6992        12     1.350     0.657 -30.80   0
       322    518.7706    506.9329 307.7091027  +6.4844890     532.8554      920.765     870.5613     77.95648      156.037       311.95      1.475     3.92     838.4973     54.99173     90.88403         5     0.870     0.507  37.38   0
       323    968.0117    502.2675 307.5226480  +6.5014229     3033.872     4937.099     4947.874     77.70782      155.913      311.888      1.705     4.20     836.6984     54.99173     399.3381        26     1.614     0.950 -41.96   0
       324    530.7293    499.6537 307.7043797  +6.4878950     6982.258     11076.89     12028.14     78.08052      155.975      311.919      1.714     4.06      838.377     54.99173     941.8036        32     1.536     0.982 -43.31   0
       325    406.6615    500.9502 307.7558714  +6.4832035     578.7614     879.8671     1522.583     78.20435      155.975     312.0431      1.567     4.79      837.475     54.99173     89.40692         7     1.293     0.504 -42.51   0
       326    886.8842    495.3239 307.5565807  +6.5015849      3024.23     5129.039     6426.448       78.328     156.3468     312.0431      2.070     4.48     837.7455     54.99173     420.6683        30     1.774     1.413  11.51   0
       327    376.6270    499.9297 307.7683814  +6.4826179     2432.416     3967.712     4462.533     77.83224      155.913      311.919      1.698     4.12     837.1838     54.99173      341.521        22     1.601     0.826 -40.65   0
       328    235.5748    494.5832 307.8271504  +6.4800925     563.1797     828.9608     718.0818     77.95648      155.913      311.919      1.665     3.71     837.1631     54.99173      98.1319         5     0.954     0.489 -45.16   0
       329    934.0554    489.2350 307.5371894  +6.5056723      1181.02     1901.366     2088.205     78.08051      156.037     312.0121      1.815     5.26     836.6993     54.99173     167.4648        16     1.584     0.772 -40.16   0
       330    894.6413    490.0025 307.5535365  +6.5040410      2089.77     3431.014     4398.623     77.58318     155.7888     311.7018      1.878     4.48     837.4513     54.99173     265.0272        20     1.380     0.904 -39.45   0
       331    113.9692    488.8644 307.8778538  +6.4783680     666.9442     1064.571     384.3262     77.95648      156.099      311.919      1.691     4.71      839.027     54.99173     120.3969         8     1.149     0.705 -46.47   0
       332    744.7599    487.6511 307.6158761  +6.5000087     536.1622     714.5097     934.9222     78.20435      156.037       311.95      1.458     3.46     838.4413     54.99173     91.70142         5     1.132     0.305 -53.85   0
       333    272.3399    487.6723 307.8121120  +6.4841803     537.1382     661.9128      740.676       78.328      156.037     312.0121      1.326     3.48     836.4252     54.99173     114.7652         5     0.766     0.457 -78.34   0
       334    718.6040    485.8905 307.6268002  +6.4998618     2707.607     4065.094     4449.386     77.70782     155.7266     311.7018      1.571     3.89     838.3677     54.99173     344.8738        20     1.459     0.814 -38.62   0
       335    389.3676    484.0803 307.7636223  +6.4895893     3500.544     5680.322     5834.743     78.08051      155.975       311.95      1.730     3.91     836.3864     54.99173     460.2431        29     1.475     1.068 -35.90   0
       336     80.4398    484.7906 307.8919180  +6.4789226     1699.064     2658.358     2480.902     77.58318     155.8509     311.7328      1.641     4.62     839.6069     54.99173     242.1178        19     1.385     0.927 -43.58   0
       337    429.4711    484.3739 307.7469542  +6.4908124     926.3466     1513.045     1648.027     77.83225      155.913      311.919      1.643     5.12     836.7616     54.99173     132.4264         9     1.140     0.649 -31.78   0
       338    617.1727    480.6767 307.6691092  +6.4986235      9245.21     14948.21     16256.78     78.08052      155.975       311.95      1.732     4.07     838.2546     54.99173     1356.647        43     1.665     1.051 -41.62   0
       339    780.1721    476.8423 307.6015280  +6.5056545     14921.31     24195.83     27543.95     77.83224      156.037     311.8569      1.811     4.56     838.0816     54.99173         2077        63     2.245     1.074 -46.09   0
       340    299.7860    477.3730 307.8010583  +6.4893540      2401.26     3732.784     3401.638     77.83224     155.8509      311.919      1.623     4.66     835.7241     54.99173     338.9222        17     1.441     0.753 -36.43   0
       341    423.1187    477.1631 307.7498353  +6.4935769     684.5947     913.0173     1001.386     78.20435      156.099       311.95      1.460     4.85     836.4433     54.99173     93.74078         7     0.889     0.749 -41.71   0
       342    808.7969    474.1534 307.5897272  +6.5077206     1204.359     2016.032     1818.807     77.58318     155.7888     311.6396      1.764     5.81     837.9476     54.99173     156.5466        14     1.333     0.865 -51.67   0
       343    382.6313    474.1854 307.7667533  +6.4934491     1544.134     2551.498     2991.594     77.83224     155.7888      311.919      1.686     4.50     835.9858     54.99173     198.7877        17     1.421     0.798 -39.80   0
       344    965.3122    472.1951 307.5247750  +6.5137503     1671.778     2647.522     2623.344     77.70782     155.7266     311.7018      1.694     4.44     835.6069     54.99173     228.9742        19     1.435     0.905 -37.32   0
       345    371.5485    470.3613 307.7714855  +6.4946565      610.028     1146.785     1924.392     77.95648      156.037       311.95      1.999     4.75     835.7906     54.99173     93.72632         6     1.308     0.488 -50.42   0
       346    117.2104    469.0114 307.8771771  +6.4866741      4224.74      7070.64      7553.62     77.95648     155.8509       311.95      1.783     3.99     838.4692     54.99173      571.371        30     1.605     0.978 -37.25   0
       347   1019.0647    466.9556 307.5026207  +6.5177049     3739.226     6760.305     7054.162     78.20435      155.975      295.346      1.891     4.01     834.1216     54.99173     538.1724        34     1.581     1.224 -22.56  16
       348    755.5448    468.0327 307.6120535  +6.5084696      2154.55      3362.64     3108.168     78.08051      155.975       311.95      1.625     3.94     837.8193     54.99173     284.2922        22     1.399     0.962 -35.77   0
       349    275.2020    466.2386 307.8116449  +6.4931264     1372.263     1957.462     2265.335     77.33332     155.7888     311.7639      1.492     3.13     835.5326     54.99173      236.374        14     1.070     0.840 -43.85   0
       350    353.2968    463.8762 307.7792852  +6.4967221     2963.583     4793.002     4983.953     77.83224      156.223     312.0121      1.708     3.99      835.506     54.99173     463.9335        28     1.617     0.969 -32.94   0
       351    709.3838    461.5562 307.6314461  +6.5096016     1553.879     2604.912         2452     77.83225      155.913     311.7639      1.758     3.95     837.5219     54.99173     235.9807        17     1.329     0.853 -45.18   0
       352    983.1915    460.6389 307.5177341  +6.5191179     512.3637     829.1152     795.3619     77.58318     155.7888     311.7018      1.505     3.44     834.7028     54.99173     71.16833         5     0.774     0.442 -17.17   0
       353    241.1335    459.6032 307.8260197  +6.4947224     809.5848      1094.44     992.0478     77.58318     155.7266     311.7949      1.409     3.53     835.5936     54.99173     144.2032         9     1.019     0.753 -36.75   0
       354    550.6710    454.1695 307.6976237  +6.5073433      962.476     1602.634     1772.605     78.08052      156.037       311.95      1.895     3.46     836.3775     54.99173     153.7596        10     1.006     0.723 -50.02   0
       355    472.9890    452.8813 307.7299359  +6.5052739     1141.937     1822.271     1595.933     77.83224     155.7888     311.8259      1.616     5.84     835.7424     54.99173     150.9441        12     1.375     0.698 -37.79   0
       356    835.4868    452.0634 307.5793798  +6.5177328     1344.232      2164.54     2030.028     78.20435      156.161     312.0121      1.644     5.87     837.2233     54.99173     175.2102        15     1.386     0.850 -46.76   0
       357    820.8335    450.7949 307.5855095  +6.5177675      1727.94     2848.617     3342.583     77.45835     155.8509     311.7639      1.818     4.36     837.2493     54.99173      249.635        20     1.501     0.844 -40.32   0
       358    718.3951    448.9419 307.6281256  +6.5151113     13902.74     21927.84     23415.65     77.58318      155.913     311.7018      1.658     3.90     837.1255     54.99173     1955.035        46     1.633     1.066 -39.54   0
       359    620.4515    451.1599 307.6687377  +6.5109210     778.3018     1127.357     1452.479     78.20435      156.037      311.981      1.700     5.71     836.4325     54.99173     98.29089        10     1.339     0.687 -50.84   0
       360    639.4802    444.7670 307.6610476  +6.5141971     2493.409      4040.64     4262.451     78.08052      156.037      311.981      1.718     4.08     836.2657     54.99173       376.62        25     1.620     0.867 -37.97   0
       361    711.9987    443.9538 307.6309500  +6.5169572     665.3669     1011.508     1729.077     77.58318     155.7266     311.5465      1.734     4.17     836.9067     54.99173     90.93622         7     0.902     0.550 -44.98   0
       362    614.4001    441.9945 307.6715591  +6.5145030     5027.508     8353.318     8628.954     77.58318     155.7267     311.7949      1.789     4.12     835.8188     54.99173     630.4739        29     1.609     0.971 -34.77   3
       363    610.8919    439.3270 307.6731059  +6.5154871     13528.89     22167.83     23834.44     78.08051      156.161     312.0121      1.732     4.06     835.5944     54.99173     1737.646        48     1.684     1.095 -40.53   3
       364    943.6225    438.8755 307.5348997  +6.5267855     3361.972     5444.671     5396.194     77.83224      155.913      311.919      1.692     4.25     835.2368     54.99173     442.6217        29     1.654     0.985 -44.39   0
       365    382.7326    434.7567 307.7680375  +6.5097328     26998.34     43202.63     45876.15     78.20435      155.975     312.0121      1.712     3.95     835.0513     54.99173     3532.979        60     1.711     1.125 -38.88   0
       366    899.4952    434.5713 307.5533751  +6.5270912     1538.624     2494.656     2868.643       78.328     155.7888      311.919      1.705     4.00      836.218     54.99173     257.2087        17     1.340     0.862 -41.09   0
       367    420.3540    436.1481 307.7523628  +6.5104194     594.6041     715.0914     586.4261       78.328      155.975     312.0431      1.396     4.27     835.1766     54.99173     115.0143         7     1.233     0.422 -24.39   0
       368    129.0763    434.0904 307.8734259  +6.5014917      2194.27     3520.555     3564.073     78.20435     156.2849     312.0121      1.643     4.50     837.2725     54.99173     285.1067        20     1.524     0.799 -38.01   0
       369    593.9472    431.1298 307.6804201  +6.5183049     557.4548     1000.251     1134.582     78.08052      155.913      311.919      2.254     4.77     835.0419     54.99173     98.44452         7     1.269     0.509  58.75   0
       370    912.5878    429.1884 307.5481163  +6.5297505     4589.017     7319.511      7550.53     78.08052     155.7888      311.919      1.718     4.05     835.9081     54.99173     624.1568        33     1.623     1.016 -37.75   0
       371     61.9800    429.7370 307.9014432  +6.5010330     1482.463      2559.02     2406.994     77.83224      156.037     311.8569      1.724     4.08     838.5582     54.99173     239.0386        18     1.360     0.935 -52.55   0
       372    896.0974    430.4451 307.5549248  +6.5286816     586.0729     953.9672     1268.405     78.20435      155.913     312.1361      1.836     4.75      836.163     54.99173     83.68127         7     1.025     0.624  20.94   1
       373    240.3015    425.3189 307.8275202  +6.5088504     13030.65     21148.19      22448.5     78.08052     156.4706     312.0741      1.759     3.91     834.3787     54.99173     1745.032        48     1.667     1.127 -40.94   0
       374    968.1157    426.8669 307.5251263  +6.5325605     622.5287      1027.34     1107.253     78.45145     156.2849     312.0431      1.924     4.37     833.7982     54.99173     99.04456         6     1.158     0.469 -28.98   0
       375     75.8265    419.5511 307.8960354  +6.5057044     850.7992     1176.628     985.4477     77.83224      156.037      311.919      1.505     4.62     837.8369     54.99173     110.0877         9     1.044     0.656 -66.95   0
       376   1012.5797    418.7968 307.5069245  +6.5373745     477.0299       790.41     1175.349     77.83224     155.6645     311.7639      1.777     3.69     831.1338     54.99173     96.21637         5     1.020     0.635 -26.69   0
       377    963.3648    417.7757 307.5274040  +6.5361560     831.0984      1466.59     1955.425     77.70782     155.8509     311.7639      1.883     5.03     833.7137     54.99173     137.5693        10     1.369     0.522 -46.53   0
       378    735.3414    418.8826 307.6220936  +6.5280894     796.3729     1139.206     1205.716       78.328      156.037     312.0431      1.519     5.27     836.3625     54.99173     100.8071        10     1.052     0.744 -51.59   0
       379    353.4325    414.9957 307.7808735  +6.5169095      1203.57     1932.802     1755.739     77.45835      155.913     311.7639      1.711     4.69     834.4922     54.99173       165.21        14     1.328     0.721 -51.21   0
       380    186.4733    415.0508 307.8502260  +6.5112820     755.9003      1360.94     1692.264     78.20435      156.099     312.0121      2.227     5.95      835.499     54.99173     121.1979         8     1.351     0.737 -66.69   0
       381    140.5745    413.9695 307.8693283  +6.5101861     4569.292     7562.104     7784.413     77.70782     155.8509     311.8259      1.769     4.10     836.5702     54.99173     594.7694        31     1.575     1.008 -45.20   0
       382    245.1275    413.1104 307.8259268  +6.5140533     1250.376     1933.368     1578.184     78.20435     156.2849      311.981      1.561     4.70     834.0036     54.99173     189.7267        14     1.285     0.770 -39.08   0
       383    438.1936    412.5842 307.7457445  +6.5207470     602.1519     1134.335     1082.129     77.83224     155.7888     311.8259      1.747     3.53     834.2227     54.99173     83.62903         5     0.799     0.450 -17.75   0
       384    826.2473    410.8452 307.5845985  +6.5344440     629.2141     1056.082     954.8223     78.20435      155.913     312.0121      1.662     4.00     836.0406     54.99173     111.5092         6     1.376     0.332 -24.07   0
       385    162.7117    409.6033 307.8602800  +6.5127329      2331.27     3945.141      3911.66     77.70782     155.7267     311.6707      1.792     4.80     836.1655     54.99173     302.0774        22     1.565     0.845 -52.55   0
       386    558.2789    408.6201 307.6959929  +6.5264056     968.0996     1365.897     1582.406     77.83224     155.7267       311.95      1.575     5.41     833.8073     54.99173     146.2195        11     1.255     0.657 -44.80   0
       387    386.0341    404.7300 307.7676761  +6.5222415     1996.481     3057.725     2817.721     78.08051      156.037     312.0431      1.612     4.01      833.853     54.99173     244.4376        19     1.360     0.884 -40.51   0
       388    273.7304    405.7495 307.8142931  +6.5180529     636.7903     1069.071     951.1249     78.08052      155.975     312.0121      1.861     5.33     833.7086     54.99173      80.9151         8     0.959     0.836  11.96   0
       389    974.5689    404.0146 307.5232097  +6.5422116     900.8115     1602.411     1892.824     77.83224     155.7888      311.919      2.142     5.43     832.7212     54.99173     122.7064        11     1.351     0.615 -52.69   0
       390      5.1442    404.7048 307.9258966  +6.5094560     558.9285     586.9226     384.7415     78.08051      156.037     287.3748      1.357     4.70     839.4897     54.99173     88.92181         7     1.363     0.459 -46.73  16
       391     36.3182    398.8341 307.9131456  +6.5129291     2909.732     5180.059     5759.446     78.20435      155.975       311.95      1.958     5.60     838.3275     54.99173     395.5004        30     1.891     0.935 -44.45   0
       392    439.9623    398.0764 307.7454975  +6.5267965     6691.107     10810.83     11428.09     78.08052      156.099      311.981      1.698     4.09     833.2892     54.99173     941.5469        35     1.590     1.025 -39.34   0
       393    772.6440    397.2374 307.6073226  +6.5382730     1941.073     3240.711     3518.723     77.95648      156.037     311.8569      1.943     4.89     835.3575     54.99173      267.157        24     1.676     0.890 -37.43   3
       394    780.5353    395.5311 307.6041015  +6.5392411     12144.33     18655.36     19581.88     78.20436      156.099     312.0121      1.687     3.92     835.3234     54.99173     1781.716        41     1.628     1.009 -36.34   2
       395    343.7231    394.1052 307.7856099  +6.5252095     871.0226     1388.443     1418.112     77.95648      156.161     312.0431      1.838     6.61     833.1492     54.99173     119.5272        14     1.460     0.840 -33.40   0
       396   1023.4567    391.0073 307.5033348  +6.5492116     2188.969     2824.198     2962.873     69.83733       126.82     237.9713      1.267     2.78     830.6332     54.99173     453.5739        12     1.081     0.648 -81.34  24
       397    188.6189    386.2222 307.8503064  +6.5232573     761.7894     1076.546     701.2867     77.95648      155.975      311.919      1.477     4.69     834.5963     54.99173     135.2379         9     1.149     0.780 -37.54   0
       398    905.9736    386.1210 307.5523053  +6.5473131     640.9379     585.2454     378.5933     78.08052      155.975       311.95      1.364     4.61     834.2113     54.99173     91.27295         5     0.958     0.631 -31.34   0
       399    394.8875    384.7073 307.7646718  +6.5308058     499.0887     764.0553     854.0386     78.20435     156.4706     312.0741      1.749     4.56     832.5747     54.99173     90.59961         5     1.264     0.467 -29.80   0
       400    916.5884    381.9732 307.5480343  +6.5493798     823.1782      1546.74       1573.2     77.83224     155.8509      311.919      2.161     5.90     833.8248     54.99173     112.6689        11     1.356     0.723 -43.54   0
       401    488.1293    381.8569 307.7260334  +6.5351075     3041.677     4932.835     5412.021       78.328      156.037       311.95      1.735     3.93     832.2209     54.99173     459.8046        24     1.477     0.905 -45.56   0
       402    460.2317    382.2969 307.7376078  +6.5339912     2040.062     3391.977     3473.801       78.328     155.8509     312.0741      1.724     4.69     832.2427     54.99173     283.7341        18     1.540     0.770 -44.93   0
       403    845.9084    378.4431 307.5775157  +6.5484794     30935.16     50428.57     53577.73     78.20435      156.037     312.0741      1.758     3.95     834.5154     54.99173     3856.405        66     1.757     1.186 -48.15   0
       404    338.6639    374.1257 307.7883840  +6.5332894     745.2805     1286.207     1217.284       78.328      156.037       311.95      1.584     4.66     831.9684     54.99173     107.1786         8     1.105     0.558 -63.05   0
       405     63.3819    375.5193 307.9026906  +6.5234662     549.8182     849.0139     952.4532     77.83225     155.7267      311.888      1.687     4.10     836.7908     54.99173     86.02936         5     0.965     0.497  -3.86   0
       406    617.7333    370.8144 307.6725634  +6.5440053     2524.783     4068.587     4389.551     77.70782      155.913      311.919      1.685     3.80     832.3148     54.99173     372.8154        23     1.499     0.891 -47.32   0
       407     25.9812    370.9290 307.9183816  +6.5241030      1187.49     1800.927     1446.915     77.83224      155.913      311.919      1.625     4.13      837.409     54.99173     158.1487        12     1.111     0.718 -73.26   0
       408    149.1613    369.3812 307.8672649  +6.5288849     572.2908     774.9975     957.8452     77.83224     155.8509     311.7639      1.622     3.49     834.9579     54.99173     103.2027         5     0.972     0.361 -85.66   0
       409    702.3536    364.4052 307.6376242  +6.5494813     74255.56     117451.7     124284.5     77.58318     155.8509     311.6707      1.725     4.03      832.981     54.99173     10766.74        88     1.735     1.181 -38.94   0
       410    860.7405    365.8328 307.5717761  +6.5541814      1265.05     2091.054     2626.035     78.08051      156.099       311.95      1.619     5.60     833.9631     54.99173     174.8414        14     1.536     0.627 -26.30   0
       411     81.9338    363.7358 307.8953818  +6.5289555     1179.711     1877.981      2372.99     78.20435      156.037      311.981      1.791     6.01     836.0151     54.99173     145.7288        16     1.446     0.819 -39.28   0
       412    943.2415    361.8151 307.5376359  +6.5585921     722.5046     1104.923     893.4272     77.70782     155.8509     311.7328      1.552     4.41     832.2958     54.99173     116.7458         8     1.100     0.503 -37.75   0
       413    565.0280    361.0033 307.6947882  +6.5462929      2491.39     4105.476     4043.692     77.70782     155.7888     311.8259      1.701     4.02     831.7094     54.99173      344.666        23     1.574     0.849 -40.77   0
       414    102.0011    359.9135 307.8871748  +6.5312086     5613.775     9127.017     9295.562     77.45835     155.6023     311.7018      1.661     3.96     835.5275     54.99173     765.5823        34     1.600     1.005 -41.57   0
       415    763.2661    359.3586 307.6124880  +6.5536003       493.21     686.6112     1569.815     78.20435      155.975     312.0431      1.772     4.44     833.4536     54.99173     81.13153         5     0.962     0.583 -50.42   0
       416    548.0294    357.2539 307.7019759  +6.5472720     6804.262     10783.71     11523.84     77.95648      156.099      311.919      1.700     3.86     831.4954     54.99173     910.9219        36     1.618     1.019 -38.99   0
       417    410.9675    352.5136 307.7590747  +6.5446377     24245.35     38827.92     41636.42     78.20435     155.8509      311.981      1.733     4.18     830.5294     54.99173     3227.437        62     1.727     1.155 -38.75   0
       418    277.0166    354.9510 307.8146388  +6.5391378     2483.599     4022.783      4363.25     77.70782      156.099     311.7018      1.721     4.29     831.8226     54.99173     314.9171        21     1.431     0.890 -47.37   0
       419    589.5451    351.4016 307.6849254  +6.5510779     721.0637     1114.936     1093.824     77.58318     155.7888     311.6396      1.767     5.22     831.3434     54.99173     103.7047        10     1.092     0.767 -36.39   0
       420    518.5926    351.2515 307.7144066  +6.5487648     1185.973     1778.692      2110.29     77.70782     155.8509     311.6086      1.634     4.66     830.8815     54.99173     160.8521        14     1.294     0.797 -46.50   0
       421    677.4854    350.5015 307.6484218  +6.5543910     475.7576      462.186     541.3876     78.20436     156.4706     312.0431      1.379     4.45     831.8838     54.99173      91.8222         5     1.351     0.417 -44.55   0
       422    390.5393    351.0003 307.7676120  +6.5445777     1017.046      1536.04     2265.493     77.45835     155.7888     311.6707      1.679     4.48     830.4449     54.99173     165.4833         8     1.014     0.563 -47.91   0
       423    490.3860    347.8411 307.7262391  +6.5492283     1056.594     1799.004     1762.238     77.70782     155.8509     311.7328      1.756     4.94       830.37     54.99173     174.5818        14     1.485     0.700 -39.99   0
       424    806.0629    344.7947 307.5951963  +6.5610432     824.6567     1427.646     1603.238     77.58318     155.8509     311.7639      1.915     5.78     833.0654     54.99173     110.3624        12     1.222     0.788 -46.67   0
       425    642.0552    344.9365 307.6633277  +6.5555041     549.7687     812.6708     840.9719       78.328      155.975      311.981      1.378     3.61     831.4233     54.99173     90.80273         5     0.981     0.383 -59.45   0
       426    499.9873    342.9129 307.7224160  +6.5515848     8130.673     12903.19     13857.07     77.83224     155.7888      311.888      1.665     3.92      830.216     54.99173     1182.588        36     1.619     0.990 -37.22   0
       427    388.0783    344.5285 307.7688521  +6.5471674     753.1067     1030.903     1856.757     78.45145     156.2849       311.95      1.615     5.36     830.1992     54.99173     102.4248         9     1.202     0.673 -58.97   0
       428    769.1646    341.6620 307.6106306  +6.5611045     2896.805     4625.262         4923     78.20435      156.037       311.95      1.692     4.22     832.7838     54.99173     396.5774        25     1.638     0.855 -32.97   0
       429    924.4685    341.6256 307.5461107  +6.5663027     847.6536     1363.372     1967.458     77.83225      155.913      311.888      1.559     4.75     831.9626     54.99173     162.2208        10     1.377     0.518 -30.31   0
       430    717.0053    341.0211 307.6323215  +6.5596265      765.469     1297.238     1509.922     77.83224     155.7888     311.7949      1.843     5.42      832.238     54.99173     101.2071        10     1.189     0.697 -42.52   0
       431    326.7493    339.4597 307.7945004  +6.5472032     1029.246     1730.299     1470.025     78.20435      155.975      311.981      1.667     5.69     830.5567     54.99173     137.1416        12     1.352     0.674 -46.53   0
       432    161.8603    333.4456 307.8632014  +6.5441494     1080.583      1553.86     1670.544     78.08051      155.975     312.0741      1.601     4.02     834.0203     54.99173     149.7176        13     1.176     0.768 -33.09   0
       433    389.9649    327.0854 307.7686552  +6.5544329     6875.958     11217.75     11944.58     78.20435      155.913      311.981      1.707     4.13     829.4391     54.99173     993.5547        34     1.630     0.987 -38.51   0
       434    245.9595    327.6834 307.8284591  +6.5493538     2007.309     3363.731     4081.938     78.20435      156.037      311.919      1.797     4.07     831.9749     54.99173     262.2439        19     1.407     0.867 -33.14   0
       435    743.7330    326.7439 307.6216962  +6.5664148     840.2393     1448.083     1461.177       78.328      155.975       311.95      1.717     5.26      832.118     54.99173     117.7236         9     1.249     0.625 -38.50   0
       436    757.8364    322.9697 307.6159634  +6.5684443     50428.33     80045.26     84677.14     77.83224     155.7888     311.8259      1.671     3.92     832.0355     54.99173     6889.862        71     1.703     1.132 -38.07   0
       437    429.6136    322.4296 307.7523403  +6.5576845     2154.149     3404.696     3077.624     77.83225     155.8509      311.888      1.742     4.37     828.9412     54.99173     316.5939        23     1.583     0.862 -49.50   0
       438    992.6911    320.0075 307.5184902  +6.5775034     1425.538      2282.66     2312.646     77.83224     155.7267     311.7949      1.693     4.53     830.1915     54.99173      190.903        16     1.486     0.715 -40.92   0
       439    575.4390    319.9818 307.6918407  +6.5635793     1159.256      1844.23      1412.73     77.83224     155.8509     311.7639      1.623     4.41     829.9019     54.99173     173.0374        13     1.315     0.681 -48.57   0
       440    933.7006    319.1454 307.5430274  +6.5758929     2188.989     3679.038     3744.161     77.95648      156.037     312.2601      1.744     4.42     831.3601     54.99173      291.411        20     1.484     0.839 -38.16   0
       441    466.7389    318.6978 307.7370425  +6.5604695     1049.566     1695.613     2654.891     77.95648      156.037     312.0741      1.726     5.57      828.738     54.99173     154.8907        12     1.405     0.623 -48.63   0
       442    295.9669    318.2001 307.8080040  +6.5549483     701.9528     1032.803     880.9695     77.20808     155.7888     311.7328      1.455     5.11     830.7065     54.99173     127.4813         7     1.006     0.735  84.12   0
       443    837.3719    312.3806 307.5832746  +6.5754725     1095.585      1748.09     2115.567     77.83224     155.8509      311.919      1.763     4.53      831.895     54.99173     171.2234        13     1.194     0.742 -39.95   0
       444    416.1664    317.8860 307.7580796  +6.5591098     1904.541     3287.033     3085.303     78.20435      155.913      311.981      1.794     4.43     828.7655     54.99173     229.9193        22     1.390     1.020 -45.91   0
       445    192.6037    309.3192 307.8512433  +6.5551441     2242.604     3466.498     3856.064     77.70782     155.6023     311.7018      1.681     4.09     832.9205     54.99173     295.8456        21     1.506     0.817 -48.86   0
       446    446.7468    309.5032 307.7456572  +6.5635961     1174.122     1927.103     2298.035     78.08052      156.037     312.2291      1.917     4.09     828.2976     54.99173     161.1435        14     1.250     0.785 -30.30   0
       447    756.3161    307.5279 307.6171127  +6.5747696      5811.88     9088.267     9788.823       78.328     156.3468     312.0121      1.705     3.89     831.4821     54.99173     869.4216        34     1.588     0.991 -39.95   0
       448    228.0637    307.3870 307.8365773  +6.5571331     895.2526     1294.611      772.812     77.70782     155.8509     311.7949      1.533     5.02     831.8448     54.99173      126.295        11     1.038     0.835 -12.07   0
       449    772.7022    305.4964 307.6103730  +6.5761558     2532.945     3991.209     4430.867     78.20435     156.5942     311.8259      1.672     4.25      831.434     54.99173     348.8029        21     1.521     0.832 -33.29   0
       450     88.7208    306.5605 307.8944917  +6.5527910     1078.634     1873.032     2140.371     78.08052      156.099       311.95      1.791     5.53      834.621     54.99173      140.961        14     1.347     0.879 -40.98   0
       451    362.2856    300.0181 307.7810650  +6.5646808       1526.8     3459.138     3964.695     77.83224     155.7888      311.919      2.403     7.58       828.79     54.99173     189.1822        29     1.975     1.130 -18.78   0
       452     75.8266    300.5686 307.9000504  +6.5548312     1252.706      1817.44     1535.505     77.70782     155.7888     311.8259      1.578     5.59      834.629     54.99173     167.4718        13     1.357     0.650 -43.58   0
       453    650.3694    298.0438 307.6614471  +6.5751445     459.8831     782.7698     964.0422     77.83224      156.037     311.8569      1.504     4.35     829.9438     54.99173     84.39581         5     1.123     0.480 -87.13   0
       454   1010.9299    296.3842 307.5117025  +6.5878655     5278.558     8468.878     9133.933     77.70782      155.975      311.888      1.711     4.06     828.9578     54.99173     693.3688        31     1.550     0.971 -37.17   0
       455    489.0194    296.1727 307.7285434  +6.5705166     1810.394     2991.751      3082.26     77.83224     155.8509      311.888      1.770     4.86     827.5615     54.99173     244.9322        17     1.482     0.770 -41.72   0
       456    251.5073    291.8259 307.8273624  +6.5643455     5475.765     8802.912     9480.971       78.328     155.7888     311.8259      1.714     4.11     831.0562     54.99173     749.2986        35     1.671     0.979 -42.15   0
       457    816.2510    290.3834 307.5927865  +6.5838504      708.332     983.6958     1161.831     77.70782      156.099     311.7018      1.741     5.51     831.0206     54.99173     100.5815         9     1.340     0.640 -54.69   0
       458    942.6061    287.1617 307.5403976  +6.5893964     534.1812     938.7834     720.5327     77.33332     155.7888     311.7328      1.624     3.38     830.4308     54.99173     85.82806         5     0.770     0.431 -68.81   0
       459    771.0756    285.2544 307.6117273  +6.5844596     836.7596     1302.443      1439.82     78.08051      156.037     312.0121      1.657     4.77     830.6838     54.99173     135.1395         9     1.261     0.544 -34.86   0
       460    228.0943    284.2993 307.8373426  +6.5666670     624.6011     1072.711     720.3193     78.20435     156.5324     311.8259      1.820     4.85     831.3558     54.99173     87.07104         8     1.023     0.650 -59.31   0
       461    385.7175    282.5334 307.7719186  +6.5726860     1455.356     2851.748     3066.653     78.45145     156.2849     312.0431      1.999     4.56     827.8517     54.99173     207.0317        21     1.528     0.990 -50.56   0
       462    972.5311    281.8616 307.5281418  +6.5925824     899.7014     1582.487     1422.141     78.20435      156.037     312.0121      1.823     4.95     829.4032     54.99173     141.1362        15     1.400     0.893 -46.05   0
       463    308.0321    278.5481 307.8043269  +6.5717254     1019.114     1723.781     1713.983     78.08051      156.099      311.888      1.898     5.99     829.6916     54.99173     155.0193        13     1.571     0.642 -34.72   0
       464    155.3849    278.2191 307.8677537  +6.5667344     1742.337     2831.981     2876.738     77.95648     155.7888      311.888      1.689     4.41     833.4371     54.99173     256.5297        17     1.511     0.707 -39.42   0
       465    908.9744    273.4625 307.5548292  +6.5939313     1448.981     2683.606     2933.462     77.83224      155.975      311.888      2.041     4.12     830.0527     54.99173     233.3283        17     1.331     0.890 -36.95   0
       466    564.9366    274.1138 307.6977443  +6.5821669     2056.343     3221.362     2902.634       78.328      156.161     312.0121      1.612     3.67     827.7525     54.99173     306.6108        21     1.400     0.864 -41.30   0
       467    728.7083    271.5949 307.6297874  +6.5886843     4878.849      7623.12     8067.163     77.83224     155.7267     311.7328      1.678     4.03     829.9855     54.99173     667.8224        31     1.571     0.948 -42.61   0
       468    669.3864    271.6620 307.6544316  +6.5866736     1978.817     3239.494     3447.365     77.70782     155.8509     311.7949      1.727     4.45     829.0434     54.99173     280.2042        18     1.416     0.816 -45.07   0
       469    966.5261    271.2526 307.5309917  +6.5967629     639.2835     1020.001      978.545     78.20435      156.099     312.0121      1.735     3.51     829.0148     54.99173     124.4731         7     0.936     0.539 -29.96   0
       470    384.0112    266.2012 307.7731771  +6.5793724     618.5842     1023.663      923.475     77.83224     155.7266     311.7949      1.563     2.94     827.6641     54.99173      113.132         5     0.786     0.489 -60.11   0
       471    924.7557    263.8678 307.5485935  +6.5984194     955.6879     1568.657     1674.355     78.20435      155.975     312.0121      1.704     4.81     829.4242     54.99173      129.867        11     1.370     0.717 -51.41   0
       472    228.0740    256.8499 307.8382761  +6.5780000     2233.673     3643.017     3695.516     78.20435      156.099     312.0121      1.702     4.21      831.159     54.99173     329.9844        22     1.498     0.882 -34.60   0
       473    871.2560    255.8038 307.5710915  +6.5999645      1555.83     2277.222     2756.146     77.58318     155.8509     311.6707      1.627     4.98     829.2872     54.99173     224.3919        16     1.459     0.778 -39.94   0
       474    761.1865    255.4936 307.6168334  +6.5964178     1716.594     2598.279     2609.243     77.95648     155.7888     311.8259      1.640     4.88     829.5319     54.99173     229.8428        16     1.380     0.756 -43.03   0
       475    250.6130    250.0271 307.8291422  +6.5815741     476.1446     648.5723     500.7377     77.95648     155.8509      311.919      1.648     5.84     830.6232     54.99173     69.51831         6     1.301     0.737 -57.56   0
       476    788.2209    245.9501 307.6059211  +6.6012613     12356.67      20080.4     22213.49     77.70782      156.099     311.8569      1.722     3.92     829.2202     54.99173     1831.792        55     1.784     1.159 -34.96   0
       477    462.1342    246.7911 307.7413730  +6.5900056        21617     35114.26     37957.36     77.70782     155.8509     311.8569      1.721     3.95     826.4479     54.99173     3116.591        59     1.720     1.149 -36.99   2
       478    467.9677    241.4995 307.7391274  +6.5923860     1403.669     2436.203     3042.937     78.20435      155.913     312.1361      2.056     4.90     826.2582     54.99173     172.1078        17     1.391     0.883 -46.36   3
       479    726.8937    241.4092 307.6315536  +6.6010876     640.5004     1112.227     1239.193     77.83224     155.6645     311.7949      1.700     3.42     828.8086     54.99173     98.97906         5     0.806     0.420 -21.82   0
       480    150.4346    239.9516 307.8711008  +6.5823683     2024.234     3521.265     4307.763     77.95648      156.037      311.919      1.860     4.64     832.3384     54.99173     274.6689        19     1.468     0.840 -48.22   0
       481    177.4088    238.1370 307.8599556  +6.5840242     680.2757     823.9774     897.4438     77.70782     155.8509     311.7949      1.224     5.00     831.7366     54.99173     108.0879         8     1.213     0.583 -55.12   0
       482    125.0023    238.9079 307.8817018  +6.5819442     1007.686     1550.058     1502.136     77.70782     155.7266     311.7018      1.574     4.16      833.035     54.99173     182.8719        10     1.286     0.520 -37.24   0
       483    924.6343    236.3131 307.5495661  +6.6097931     1504.924     2187.291     2474.991     78.20435      155.913      311.981      1.647     4.04     827.7278     54.99173     219.4694        17     1.349     0.775 -42.72   0
       484    586.2107    232.6039 307.6902997  +6.6000186     4456.945     7270.614     7726.357     77.83224     155.7267      311.888      1.738     3.73     826.8627     54.99173     689.0717        30     1.557     0.988 -36.57   0
       485    548.7905    232.6394 307.7058456  +6.5987514     1845.743     2938.673     2738.025     77.58318     155.8509     311.7328      1.664     4.32     826.2027     54.99173     249.6209        18     1.368     0.831 -44.20   0
       486    306.8708    233.0957 307.8063399  +6.5904536     970.5236      1581.25     1407.234     78.08051      156.099       311.95      1.622     4.12      828.993     54.99173     150.5895         9     1.176     0.493 -31.12   0
       487    390.7085    231.5827 307.7715594  +6.5938909     1421.901     2224.896     1682.137     77.95648     155.7888      311.888      1.614     4.19     827.1536     54.99173     191.9592        14     1.423     0.662 -38.87   0
       488    947.0700    229.6602 307.5404670  +6.6132883     2502.159     4107.831     3999.911       78.328      156.037     312.0121      1.717     3.90     827.1796     54.99173     343.2184        23     1.518     0.887 -38.54   0
       489    893.2205    229.1874 307.5628568  +6.6116876     10562.89     16802.22     17773.76     77.95648     155.7266      311.888      1.682     3.82     827.5723     54.99173     1476.544        43     1.611     1.069 -38.11   0
       490    567.9841    229.3352 307.6979822  +6.6007582     770.2976     1140.105     1577.158     77.70782      155.913      311.888      1.474     4.83     826.4158     54.99173     140.6957         9     1.349     0.490 -35.71   0
       491    321.1366    229.4583 307.8005355  +6.5924342     773.0275     1060.032     1209.199       78.328      155.975     312.0121      1.426     4.08     828.4656     54.99173      119.783         9     1.066     0.629 -33.92   0
       492    979.9012    226.9997 307.5269149  +6.6154813     8888.264     14526.67     14964.23     77.70782     155.6645     311.6086      1.684     4.02     826.7676     54.99173     1205.633        42     1.599     1.103 -42.99   0
       493     19.3475    225.7360 307.9260400  +6.5838282     24049.22     38843.91     41679.18     78.20435      155.975       311.95      1.748     3.94      834.278     54.99173     3415.494        59     1.731     1.147 -37.26   0
       494    691.3334    226.8747 307.6468157  +6.6059004     2806.731     4282.262     4858.417       78.328      156.161       311.95      1.664     3.83     827.6157     54.99173     411.4675        23     1.493     0.853 -44.32   0
       495    265.4364    227.0748 307.8237570  +6.5915487      1019.16     1625.881     1429.291     78.08051      156.099     312.0121      1.625     3.61     830.0657     54.99173     162.9107        13     1.205     0.815 -64.01   0
       496    500.0031    221.6659 307.7264843  +6.6016486     1898.719     3117.506     3194.546     77.45835     155.7267     311.7639      1.730     4.19     825.7206     54.99173     295.7039        19     1.451     0.841 -39.83   0
       497    884.1927    217.5360 307.5669979  +6.6161973     1829.012     3079.534     3162.583     77.70782     155.7266     311.8259      1.827     4.34     827.0936     54.99173     268.0411        19     1.564     0.760 -47.98   0
       498    831.9955    218.4217 307.5886558  +6.6140897     1891.495     2945.607     2875.094     77.83224     155.7888     311.7639      1.606     4.21       827.62     54.99173     272.2159        19     1.483     0.808 -30.38   0
       499    512.0222    217.7450 307.7216224  +6.6036701     2415.595     3749.321     3792.281     77.70782      156.037     311.7949      1.619     4.12     825.6762     54.99173      355.497        20     1.412     0.839 -42.91   0
       500    743.4312    215.0384 307.6255668  +6.6125289     37723.45     59303.05     63077.86     77.83224     155.7888     311.8259      1.687     3.97     827.9163     54.99173     5203.685        73     1.727     1.161 -39.84   0
       501    346.4462    214.5774 307.7905213  +6.5994278     5748.937     11697.39     13152.58     77.83225      156.037     311.8569      2.209     6.10     827.5587     54.99173     637.0206        50     2.118     1.175 -62.67   0
       502    977.1882    213.7706 307.5284846  +6.6208533     2604.378     4224.112     4259.574     77.70782     155.8509     311.8569      1.671     4.15     826.3107     54.99173      408.148        21     1.420     0.904 -40.61   0
       503    911.3336    212.1472 307.5559014  +6.6193278     7131.561        11281     12031.75     78.20435      155.975      311.919      1.709     3.96     826.6274     54.99173     1000.157        35     1.617     0.972 -43.31   0
       504    454.7133    211.3176 307.7456490  +6.6044040     4714.077     7589.953     8225.402     77.95648      156.223     312.0431      1.758     3.91     825.9257     54.99173     647.7224        31     1.618     0.963 -45.23   0
       505   1015.2396    212.5919 307.5127137  +6.6226081     1511.123     2434.675     2337.612     77.58318     155.7888     311.7018      1.657     4.49     826.0645     54.99173     217.1924        16     1.472     0.752 -27.97  16
       506    112.1936    202.5584 307.8882495  +6.5965219     4605.657     7448.578     8032.514     77.58318     155.7266     311.7018      1.736     3.93     832.6532     54.99173     637.9273        30     1.527     1.012 -44.67   0
       507    282.5013    199.2578 307.8176043  +6.6036071     32240.68     51569.06     54732.83     77.95648      156.037     312.1671      1.736     3.93     829.5941     54.99173     4222.892        68     1.723     1.180 -40.02   0
       508    257.8568    200.4109 307.8278044  +6.6023036     6072.012     10051.82     10994.25     77.58318      155.975     311.6707      1.788     4.06      830.114     54.99173     798.0629        36     1.534     1.131 -38.37   0
       509    931.7356    201.5822 307.5477780  +6.6243707      876.033     1341.857      1634.98     77.83224      155.975     311.7949      1.869     5.49     826.0846     54.99173     146.6919        10     1.394     0.609 -47.56   0
       510    609.3193    200.4338 307.6817787  +6.6140750     602.6108     1043.278     1331.889     78.08052      155.975     312.0121      1.479     3.39     826.3265     54.99173     90.18115         5     1.029     0.324 -22.58   0
       511    711.6573    198.4263 307.6393257  +6.6183263     890.4675     1439.162     1640.081     77.83225      156.099     311.8259      1.621     4.70     826.8439     54.99173     150.0541         9     1.222     0.524 -46.28   0
       512    406.5566    194.7379 307.7662147  +6.6096355     47441.64      76033.2     80263.95     78.20435      155.975     312.0741      1.748     4.07     826.4325     54.99173       6354.7        73     1.745     1.173 -38.91   0
       513    162.4267    196.0036 307.8676008  +6.6009172     3594.634     5963.778     6719.028     77.70782     155.7888     311.8259      1.790     4.37     831.0342     54.99173     509.5637        31     1.742     1.039 -26.69   0
       514    423.7839    195.2954 307.7590383  +6.6099829     1503.383     2381.099     2028.376     77.95648     155.8509     311.8569      1.692     4.32      826.147     54.99173     196.2933        19     1.438     0.918 -30.61   0
       515    745.8635    190.9599 307.6253635  +6.6225523     31761.27     49848.56     52650.25     78.20435      155.975     312.0431      1.655     3.88     826.7162     54.99173     4283.837        65     1.708     1.120 -43.51   0
       516    310.5918    192.4457 307.8061629  +6.6073628     17155.19     27790.55     29832.94     77.70782      155.913     311.6396      1.778     4.10     828.7324     54.99173     2309.429        54     1.743     1.123 -39.14   2
       517    318.0573    192.5112 307.8030589  +6.6075863     1973.141     3538.031     4912.067     78.20435      155.975     312.1051      2.414     6.54     828.4977     54.99173     246.4875        27     1.946     1.099 -58.29   2
       518    577.3447    193.8622 307.6952845  +6.6157185     584.7876     765.8197     734.4422       78.328      156.037      311.981      1.446     3.36     825.7131     54.99173      95.8634         5     0.772     0.423 -70.38   0
       519    693.8650    192.9202 307.6469030  +6.6200050      1021.13     1577.181     1315.171     78.45145      156.099       311.95      1.708     3.26     826.4719     54.99173     170.9434         8     0.942     0.584 -59.18   0
       520    794.2059    191.4275 307.6052617  +6.6239741     1134.583     1667.938     1921.081     77.70782     155.8509     311.7949      1.716     5.72     826.3634     54.99173     148.3327        12     1.610     0.573 -43.04   0
       521     62.6446    188.1172 307.9093224  +6.6008177     8653.946     14113.03     15098.16     78.20435      156.037      311.981      1.759     3.98     833.3623     54.99173     1137.061        44     1.723     1.086 -43.60   0
       522     33.6944    190.7131 307.9212623  +6.5987716     639.7806     933.2247     1020.028     78.20435     156.4706     312.0431      1.557     3.51     833.9662     54.99173     112.5349         5     1.066     0.490 -56.63   0
       523     96.4705    186.2954 307.8953306  +6.6027078     1516.897     2192.173     1926.694     78.08052      156.099       311.95      1.557     4.41     832.6378     54.99173     205.3729        15     1.368     0.714 -53.17   0
       524   1004.3547    185.6041 307.5181390  +6.6333889     1205.575     1679.646     2184.188     77.58318     155.7267     311.6707      1.651     5.52     825.2514     54.99173     164.2754        12     1.245     0.691 -47.50   0
       525    729.8887    179.4160 307.6323882  +6.6267851     628.9335     1153.444     1127.749     77.95648     155.7888     311.8259      1.716     3.18     826.1718     54.99173     103.2369         5     0.741     0.444 -21.14   0
       526    579.6738    175.5813 307.6949308  +6.6233446     788.6243     1122.523     1171.181     77.70782      155.975      311.888      1.708     5.55      825.334     54.99173     106.1805        10     1.172     0.742 -45.65   0
       527   1005.2167    171.9087 307.5182388  +6.6390727     2032.734     3226.501     3650.848     77.95648     155.8509      311.888      1.630     3.98     824.7969     54.99173     280.5479        21     1.349     0.987 -44.47   0
       528    588.5089    169.3876 307.6914679  +6.6261977     1052.506     1429.583     1702.768     77.95648     155.7888     311.7949      1.565     4.22     825.2875     54.99173     177.2457        11     1.080     0.769 -35.60   0
       529    281.3606    165.5280 307.8192144  +6.6174957     29117.78     46536.05     49982.57     78.08052      156.037     312.0431      1.750     4.02     829.6027     54.99173     3977.935        70     1.827     1.176 -38.00   0
       530    596.6669    167.2827 307.6881489  +6.6273399     1985.062     3022.753     3080.687     78.45145     156.2849     312.0431      1.669     4.09     825.3434     54.99173     266.1075        18     1.383     0.832 -34.00   0
       531    340.6826    167.2289 307.7945099  +6.6187844     935.6339      1447.29     1945.573     78.08052     155.8509      311.919      1.804     4.91     827.7264     54.99173     131.0446        13     1.314     0.741 -48.09   0
       532     26.5764    164.1646 307.9251161  +6.6094935     4120.828     7095.401     8018.935     77.70782     155.7888     311.7639      1.894     4.41     834.0074     54.99173     552.0732        35     1.789     1.132 -50.50   0
       533    713.0764    162.1273 307.6399536  +6.6333618     7597.468     12332.13     13209.59     78.45145     156.2849      311.981      1.723     3.99     825.3895     54.99173     1022.268        38     1.609     1.049 -43.10   0
       534    190.2853    163.4897 307.8571228  +6.6152782     864.1843      1130.92     1373.797     77.95648     156.3468     312.1051      1.599     5.67     830.5143     54.99173     133.2825         9     1.353     0.669 -38.01   0
       535    267.0132    160.4409 307.8253469  +6.6191144     842.8309     1333.219     1323.891     77.70782     155.8509     311.7328      1.743     5.19     829.8131     54.99173     128.7648        11     1.232     0.823 -48.65   0
       536    123.7825    159.2301 307.8848967  +6.6148014     4600.344     7428.444     7640.655     77.83224     155.8509      311.919      1.681     3.91     831.2253     54.99173     636.8279        29     1.574     0.942 -39.02   0
       537    652.0115    155.9119 307.6655349  +6.6338865     775.3929     1299.268     1073.285     77.83224     155.7888     311.8569      1.959     4.78     825.1619     54.99173       134.98        10     1.231     0.685 -58.24   0
       538    585.8406    157.0437 307.6929911  +6.6312053     656.2936     1023.526     883.4066     77.95648      156.037      311.888      1.402     3.91     824.9265     54.99173     109.9967         6     1.022     0.428 -50.03   0
       539    462.8003    156.4636 307.7441336  +6.6273242     1273.274     1861.263     2113.305     77.45835     155.7888     311.7328      1.631     3.18     824.7255     54.99173     184.5035        12     0.970     0.812 -62.13   0
       540    394.4380    155.3077 307.7725765  +6.6255098     3634.746     6690.845      6971.15       78.328      155.975     312.0431      1.950     4.29     826.1767     54.99173     458.1505        35     1.604     1.202 -52.00   0
       541    358.9336    154.1362 307.7873676  +6.6248027     3042.428     4867.924     4884.657     78.20435      156.037      311.981      1.630     4.00     827.2783     54.99173     432.4754        26     1.498     0.956 -35.66   0
       542    113.2015    154.0429 307.8894678  +6.6165873     1595.458     2651.813     3038.316     77.58318     155.7266     311.6396      1.816     5.25     831.2952     54.99173     224.1583        18     1.456     0.842 -46.36   0
       543    675.2449    152.0365 307.6560114  +6.6362636     713.8729     1344.003      1827.57     77.95648      156.037      311.888      2.223     6.47     825.0073     54.99173     93.75873        11     1.474     0.796 -55.45   0
       544   1005.7808    148.5525 307.5187856  +6.6487355     1237.825     1885.316     1661.076     77.70782      156.037     311.7949      1.722     5.72     823.8231     54.99173     153.1336        15     1.467     0.726 -48.61   0
       545    210.7142    143.0505 307.8493242  +6.6244038      5256.54     8449.267     8701.002     78.20435      155.913     312.0431      1.710     4.07     830.2879     54.99173     681.9308        33     1.666     0.984 -39.04   0
       546    672.5297    142.0105 307.6574760  +6.6403126     5902.048     9472.307        10281     77.70782     155.7266     311.8259      1.715     3.92     824.6384     54.99173     834.8215        33     1.535     1.013 -45.44   0
       547     93.4090    142.9612 307.8980650  +6.6204970     2118.448     3226.092     3538.586     77.58318     155.8509     311.7018      1.665     4.08     831.4411     54.99173     274.7477        19     1.395     0.864 -32.08   0
       548    820.7524    141.2673 307.5959124  +6.6455720     877.6246     1356.303     1608.538     78.20435      155.975     312.0121      1.666     5.03      823.597     54.99173     136.3813        10     1.286     0.556 -50.80   0
       549    624.8119    139.1957 307.6773977  +6.6398788     8852.142     14513.65     16222.11     77.83224     155.7266     311.8569      1.764     4.05     824.5263     54.99173      1201.95        41     1.651     1.059 -34.46   3
       550    628.2929    130.6841 307.6762370  +6.6435097     50417.84     80465.06     85564.75     77.95648     156.4706     312.1051      1.727     3.90     824.2272     54.99173     7415.968        78     1.751     1.172 -40.58   2
       551    259.8384    139.4303 307.8290358  +6.6275486     682.8105     1165.339     1089.488     77.83224     155.7888     311.8569      1.906     4.32     829.7804     54.99173     109.8445         7     1.139     0.466 -47.47   0
       552     23.3040    138.3591 307.9273471  +6.6200381     980.3976     1647.149     1448.763     78.20435      155.975     312.1361      1.786     6.12     833.8979     54.99173     131.6088        14     1.476     0.713 -62.19   0
       553    562.6114    138.7594 307.7032571  +6.6379774     671.9843     998.1811     1363.374     77.58318     155.8509     311.7328      1.591     5.55     824.1444     54.99173     109.8521         7     1.112     0.781 -53.95   0
       554    351.9532    134.8568 307.7909169  +6.6325289     3438.511     5720.506     6386.212     78.20435      156.037     312.0741      1.875     4.53      827.878     54.99173     452.5619        33     1.905     0.974 -41.60   0
       555    533.7401    134.3259 307.7154022  +6.6388413     1745.044     2886.574     2601.478       78.328      156.037      311.981      1.749     4.64     823.8854     54.99173     228.3162        21     1.543     0.875 -41.81   0
       556    997.8126    133.9634 307.5225845  +6.6544940     697.2524     1095.397     581.8964     77.70782     155.8509     311.7018      1.527     4.44     823.0496     54.99173     103.6931         6     1.248     0.450 -37.08   0
       557    307.2894    124.3685 307.8098277  +6.6353606     3364.668     5590.509      6150.94       78.328     155.8509       311.95      1.776     4.20     828.8131     54.99173     469.7267        31     1.662     0.985 -36.80   0
       558    707.5878    118.6557 307.6436924  +6.6511280     860.9775     1231.695     1140.662     77.58318      155.975     311.6707      1.618     5.21     823.3663     54.99173     126.3727        10     1.312     0.584 -38.63   0
       559    678.7669    117.8623 307.6556947  +6.6504920     1354.735     2048.126     1818.022     77.95648      156.099      311.919      1.585     4.32     823.6688     54.99173     199.1967        14     1.294     0.718 -61.09   0
       560      5.0098    107.3943 307.9359939  +6.6322071     723340.1      1639330      1807850     77.70782     155.8509     285.6862      2.265     7.90     834.4477     54.99173     60548.05       365     2.353     1.720 -47.04  28
       561    692.6995    114.6131 307.6500145  +6.6522995     2926.778      4539.21     4838.847     77.95648     155.7888     311.7328      1.675     3.89      823.371     54.99173     377.7415        22     1.437     0.854 -38.48   0
       562     65.1609    112.8913 307.9108166  +6.6319621     387.0718     609.1265    -121.0127       78.328      155.975     312.0121      1.793     3.88     831.7628     54.99173     76.92395         5     0.970     0.444 -43.53   0
       563    434.4398    105.5674 307.7576292  +6.6473886     3881.113     6349.726     6841.369     77.83225     155.8509     311.8259      1.802     4.25     824.3702     54.99173     556.7471        30     1.620     0.963 -41.74   0
       564    907.0758    100.9992 307.5613916  +6.6650798     3509.407      6031.24     6523.457     77.45835     155.4779     311.7949      1.822     4.10     821.5629     54.99173     516.7326        30     1.578     1.044 -52.21   0
       565    889.0746    101.9159 307.5688410  +6.6641008     1956.616     3161.111     3310.709       78.328     156.3468     312.0431      1.689     4.60     821.7841     54.99173     248.7343        18     1.498     0.765 -46.91   0
       566    599.2968     99.6580 307.6893272  +6.6553503     1810.936     2457.929     2263.515     78.08052      156.037     312.1361      1.549     3.79     823.0623     54.99173     271.8617        15     1.237     0.776 -39.98   0
       567    244.6551     99.1138 307.8367030  +6.6436850     728.3478      1266.25     1627.968     78.20435      155.975     312.1361      2.236     6.01     829.8434     54.99173     111.3416        10     1.514     0.671 -26.82   0
       568    398.0370     97.5976 307.7730231  +6.6494588     1948.687     2902.709     2910.327     77.33331     155.8509     311.7949      1.570     4.12     825.8079     54.99173     276.3693        18     1.332     0.884 -40.65   0
       569    145.7067     94.2853 307.8779787  +6.6423535     3100.136     4979.007     5338.208     78.08052     156.4706     312.0741      1.686     4.08     828.2837     54.99173     435.6841        26     1.544     0.966 -39.90   0
       570    294.0449     92.8146 307.8163937  +6.6479444     1237.433     2175.606      2675.63     77.58318     155.8509     311.7639      1.982     4.35     828.8142     54.99173     174.6298        17     1.362     0.868 -41.50   0
       571     27.6117     92.1396 307.9271185  +6.6392664     11727.95      19544.9     20916.26     77.58318      155.913     311.7018      1.792     3.92     832.7678     54.99173     1521.951        48     1.714     1.133 -37.56   0
       572    762.8294     91.2468 307.6216574  +6.6642913     648.1409     1003.896     1365.333     77.83224      156.161      311.888      1.505     4.52     821.5679     54.99173     100.2101         8     1.119     0.518 -53.82   0
       573    554.6136     91.8382 307.7081567  +6.6570834     853.1889     1523.872     1466.765     77.83224     155.8509     311.7018      1.696     4.92     822.7747     54.99173     135.6144        10     1.282     0.535 -23.81   0
       574    947.0162     91.3683 307.5451173  +6.6703886     434.2805     786.0317     1013.983     77.83224     155.7888      311.888      3.394     4.35     820.9006     54.99173     87.03394         5     1.622     0.332 -27.12   0
       575    829.3903     86.7964 307.5941483  +6.6683518     5810.979     9276.104     9803.213     77.70782     155.7267     311.8259      1.698     3.89     821.3981     54.99173     837.6635        33     1.575     0.994 -44.34   0
       576    774.3577     87.2194 307.6170021  +6.6663393     3016.666     4982.399     5467.134     77.70782     155.8509     311.7949      1.750     4.07     821.4097     54.99173     412.8903        24     1.490     0.881 -45.96   0
       577    586.6244    101.9677 307.6945153  +6.6539725      703.076     1173.438     776.6275     77.58318     155.8509     311.7949      1.636     4.43     823.1212     54.99173     106.9839         8     1.182     0.471 -24.93   0
       578    419.7171     87.7258 307.7643469  +6.6542618     940.3904     1564.724     1365.156     78.45145     156.3468     312.0431      1.716     5.60     824.5239     54.99173     122.4024        12     1.305     0.677 -31.00   0
       579     99.5319     87.4948 307.8973932  +6.6436044     449.9944     781.2719      276.637     78.08052      156.223     312.0121      1.648     4.27     829.2411     54.99173     87.21521         5     1.213     0.428 -56.21   0
       580    536.7046     85.2121 307.7158210  +6.6592196     1105.576     1856.381     2023.283     77.95648     155.7888     311.7639      2.028     4.53     822.5398     54.99173     167.5857        12     1.223     0.697 -54.91   0
       581     67.9636     83.9755 307.9106284  +6.6439953     3007.642     4907.455      4693.26     77.83224     155.8509     311.7328      1.707     4.13      830.355     54.99173     392.4502        28     1.544     1.007 -45.38   0
       582     52.5175     84.7738 307.9170191  +6.6431459     957.1162     1298.767     998.8997     78.08052     155.7888       311.95      1.551     4.59     831.0469     54.99173     131.4185         9     0.958     0.728 -51.75   0
       583    429.5013     83.3278 307.7604294  +6.6564057     775.3887     1222.355     1407.221     77.95648      156.161      311.981      1.666     5.07     824.2057     54.99173     117.5494         9     1.499     0.485 -42.77   0
       584     10.1304     79.6811 307.9348026  +6.6438218     2529.147     4224.146      5030.68     78.45145     156.2849     312.0121      1.927     4.29     832.2814     54.99173     336.8318        25     1.508     0.977 -53.08   0
       585    591.8689     80.4359 307.6930593  +6.6630385     1170.327      1570.98     1707.242     78.08052      156.099     312.0741      1.576     5.49     822.3625     54.99173     164.1552        12     1.339     0.680 -51.31   0
       586    769.1193     74.7063 307.6195984  +6.6713311     1920.856     3230.954     3368.497     77.95648     156.2849     312.0431      1.781     4.89     821.0784     54.99173     232.0088        22     1.604     0.854 -36.64   0
       587    409.9134     74.4723 307.7688665  +6.6594054     1051.653     1408.276     1179.707       78.328     156.2849      311.981      1.491     6.23      825.056     54.99173     141.3184        13     1.292     0.843 -49.52   0
       588     82.8204     74.9732 307.9047594  +6.6482121     798.8288     1397.637      1405.71     77.70782     155.8509      311.888      1.778     3.99     829.2201     54.99173     136.7109         9     1.161     0.602 -20.84   0
       589    106.7708     73.3909 307.8948614  +6.6496711     791.3654     1351.344      1722.34     77.70782     155.8509     311.7949      1.655     4.06     828.4597     54.99173      122.473        10     1.069     0.708 -55.02   0
       590     95.6783     68.3603 307.8996402  +6.6513751     9077.759     14901.76     16032.26     78.08052      156.037      311.981      1.763     4.01     828.4319     54.99173      1114.44        40     1.619     1.100 -41.01   0
       591    424.8079     68.1805 307.7628892  +6.6625026     2470.233     3923.351     3580.976     77.83224     155.7888     311.7949      1.656     4.36     824.2904     54.99173     316.5353        19     1.433     0.830 -37.37   0
       592    638.4615     60.4040 307.6743713  +6.6728687     17904.59     27824.73     29624.92     77.58318     155.7888     311.7018      1.693     3.84     821.6481     54.99173     2520.119        49     1.663     1.051 -40.25   0
       593    262.4703     62.5148 307.8305341  +6.6593948     1602.247      2541.37     3480.574       78.328     156.2849     312.0121      1.890     4.01     828.6957     54.99173     216.3478        14     1.161     0.779 -42.06   0
       594    538.2228     56.4228 307.7161576  +6.6711575     4952.587     8018.973      8077.77     77.95648      155.975      311.981      1.732     4.17     821.4727     54.99173     710.3035        34     1.566     1.058 -35.18   0
       595    256.7489     56.7068 307.8331072  +6.6616007     1973.836      3528.34     5070.948     78.08052     155.8509     312.1671      2.138     4.55     828.5145     54.99173     308.0812        25     1.614     1.023 -28.85   3
       596    264.3624     52.4244 307.8300880  +6.6636246     8574.879     13980.31     16054.12     77.83225     155.8509     311.7328      1.799     4.05     828.4812     54.99173     1181.063        40     1.668     1.053 -41.67   2
       597    624.8062     50.7619 307.6803694  +6.6763931     2800.164     5340.934      6692.25     77.33332     155.7888     311.7328      2.239     5.36     821.3517     54.99173     418.5751        36     1.882     1.390 -86.83   0
       598    443.7816     52.0859 307.7555466  +6.6697841        21475      35016.7     36931.76     77.83224     155.7888      311.888      1.725     3.98     823.2843     54.99173     2894.829        55     1.719     1.123 -39.36   0
       599      6.0937     54.3790 307.9373346  +6.6541327      1075.01     1659.415     1643.123     78.08051     155.8509     296.6864      1.781     4.80     829.4894     54.99173     165.1127        15     1.472     0.757 -43.84  16
       600    921.6281     52.1060 307.5569815  +6.6857536     1840.858     2902.219     2601.625       78.328     155.7888      311.888      1.644     4.21     820.0333     54.99173      235.015        18     1.387     0.800 -42.35   0
       601    324.0772     52.7196 307.8052654  +6.6655074     975.2719     1642.796     1692.064     78.45145     156.2849     312.1361      1.694     4.91     828.7953     54.99173     130.9342        12     1.334     0.755 -33.27   0
       602     29.8778     51.9485 307.9275345  +6.6559369     2211.759     3413.226     3899.916     78.20435      156.099      311.981      1.705     4.12     828.8333     54.99173     289.2618        20     1.397     0.850 -42.53   0
       603    528.9801     51.8239 307.7201528  +6.6727469     667.2417     732.7094     767.2885     77.95648     155.8509      311.919      1.426     5.37     821.3487     54.99173     94.22064         8     1.155     0.704 -39.40   0
       604    557.3105     51.3344 307.7083970  +6.6738977      684.325     839.4179     1034.651     78.20435      156.161     312.0121      1.526     3.97     821.2916     54.99173     101.3867         6     0.897     0.502 -47.31   0
       605    252.3393     48.8442 307.8352044  +6.6646990     2886.608     4676.997     5541.614     78.08051      156.037     312.1051      1.714     3.93      828.224     54.99173     392.3677        25     1.581     0.912 -42.21   0
       606    305.2909     47.6260 307.8132431  +6.6669800     1033.267     1633.826     2596.753       78.328     155.7888     311.8259      1.776     5.24      828.817     54.99173     123.5155        11     1.369     0.567 -41.40   0
       607    693.7490     41.5728 307.6520292  +6.6824931     1887.119     3035.134     2896.924     77.83224      156.161      311.919      1.737     4.34     820.7776     54.99173      252.376        22     1.512     0.913 -52.56   0
       608    942.3004     42.1001 307.5487260  +6.6905745     954.3389     1368.898     1627.276     78.20435     156.4087     311.8259      1.439     4.14     819.1494     54.99173     153.8879        11     1.267     0.626 -33.32   0
       609    205.0328     37.4330 307.8552458  +6.6678213     754.8384     945.9692     1130.407     77.70782     155.7888     311.7328      1.426     5.81     827.0439     54.99173     130.2487        10     1.352     0.703 -59.28   0
       610    259.1711     36.5682 307.8327794  +6.6699971     788.4717     1378.165     1881.481     77.70782     155.7888     311.7639      2.045     4.69     828.0446     54.99173     134.6017         9     1.301     0.698 -44.67   0
       611    181.8739     34.5072 307.8649674  +6.6682510     10099.94     16431.54     17442.78     78.08051      156.161       311.95      1.754     3.86      826.855     54.99173      1340.62        39     1.621     1.067 -45.16   0
       612    526.0894     32.6503 307.7219985  +6.6805668     2657.419      4233.21     4439.397     78.20435     155.8509     312.1051      1.688     3.76     820.6566     54.99173     407.0582        25     1.472     0.957 -45.30   0
       613    927.5441     32.1644 307.5551906  +6.6941849     3884.292     6085.522     6073.584     78.08052      156.037     312.0121      1.684     3.95     819.4606     54.99173     511.8234        25     1.472     0.901 -38.17   0
       614    728.5195     30.7435 307.6379437  +6.6881268     1899.468     2791.686     2789.019       78.328      156.037      311.981      1.614     4.02     820.2144     54.99173     277.0056        19     1.390     0.835 -47.34   0
       615    464.3526     31.0494 307.7477063  +6.6791595     1765.464     2781.066     2714.057     78.20435      155.913     312.0121      1.691     3.91     821.7281     54.99173     282.0942        17     1.387     0.752 -41.72   0
       616    992.4036     28.2852 307.5283675  +6.6979491     1992.581     3492.993      3623.66     77.70782     155.6645     311.7018      1.885     4.70     815.9251     54.99173       233.44        25     1.512     1.133 -52.34   0
       617    753.1586   1015.9593 307.5946900  +6.2821437     6782.005     11911.56     12860.45     77.95648      156.037     311.8569      1.887     4.13     851.1672     54.99173     803.3365        44     1.709     1.197 -37.35  16
       618    631.9201     24.3019 307.6783017  +6.6875564     3594.259     5730.114     5608.405     78.08051     156.4087     312.0121      1.668     4.21     820.3915     54.99173     483.9099        27     1.601     0.873 -38.96   0
       619    333.9201     23.9964 307.8021428  +6.6776973     958.7766     1587.995     1600.613     77.58318     155.5401     311.7018      1.709     5.86     828.8474     54.99173     128.0049        13     1.313     0.736 -41.36   0
       620    387.6223     22.5182 307.7798775  +6.6801094     706.3006     890.8976     842.4174     77.95648     155.7267      311.919      1.434     3.83     826.5339     54.99173     139.9747         6     1.036     0.406 -54.68   0
       621    518.8244   1018.2258 307.6919133  +6.2733738     935.2465     1678.602     1531.587     77.70782     155.8509     302.6284      1.967     5.49     852.8213     54.99173     144.5058        13     1.359     0.841 -50.42  16
       622    678.8082     19.5448 307.6589771  +6.6910889     835.2979     1256.821     1124.696     77.58318      155.913     311.7018      1.651     3.93     820.1136     54.99173     125.6931         8     1.038     0.587 -53.36   0
       623    298.9563   1015.1890 307.7833055  +6.2672610     13433.99     23097.83     25814.94     77.70782      155.913     311.7018      1.913     4.14     852.9423     54.99173      1721.28        67     2.128     1.192 -36.70  16
       624    548.6660   1016.4675 307.6795817  +6.2750985     3760.159     6575.387     7571.768     78.20436      156.037     312.0121      1.938     4.01     852.8386     54.99173     468.6645        35     1.642     1.117 -33.31  16
       625    507.9242     17.1162 307.7300691  +6.6863724     797.9628     1371.919     1386.181       78.328     156.3468     312.0741      1.709     4.96      820.106     54.99173     98.73767         9     1.174     0.593 -26.21   0
       626    423.0633   1015.6956 307.7317590  +6.2712120     958.8437      1631.53     1790.704     78.08051      156.161     312.0121      1.822     5.32     852.2882     54.99173     139.0554        12     1.369     0.806 -50.95  16
       627    285.0025     16.2107 307.8227318  +6.6792699     421.4861     680.1083     121.9268     77.83224     155.7266     311.7949      1.414     3.97     828.6553     54.99173     74.85059         5     0.854     0.527 -55.60   0
       628    814.2368   1014.9854 307.5693615  +6.2845847     880.1353     1796.642     1921.208     77.83224     155.8509     311.7639      2.209     7.78     849.4407     54.99173     129.3109        17     1.799     0.942 -38.06  16
       629    270.1695   1012.9776 307.7953321  +6.2672084     861.3671     1531.959      1611.02     77.70782     155.8509     311.8259      1.784     5.43     853.2232     54.99173     125.7187        11     1.250     0.939 -41.90   0
       630    797.1835     14.1350 307.6099671  +6.6972786     850.2751     1126.818      1505.09     77.70782      155.913      311.888      1.384     3.34     818.8944     54.99173     149.5127         9     0.927     0.656 -26.24   0
       631    914.5451   1009.3729 307.5278985  +6.2902481     6906.639     13197.25      14262.1     77.83225      156.099     311.8259      2.033     4.37     849.9464     54.99173     759.3351        51     1.828     1.331 -38.54   0
       632    545.7953   1008.7424 307.6810329  +6.2781922     7333.359     12686.13     14481.18     77.58318      155.913     311.7018      1.831     3.97     852.7592     54.99173     939.7903        42     1.657     1.157 -36.49   0
       633   1009.8396   1005.0447 307.4884738  +6.2952109     3729.354     7328.454     7837.595     77.95648      156.037      311.888      2.053     4.55     846.9738     54.99173     395.1758        39     1.623     1.382 -36.89   0
       634    888.1945   1005.6074 307.5389660  +6.2909243     9973.825     18736.28     20586.77     77.45835     155.8509     311.8259      2.000     4.31     849.6658     54.99173     1141.426        58     1.848     1.359 -30.62   0
       635    601.0485   1005.8518 307.6581878  +6.2812340     1312.652     2255.693     1934.086       78.328      155.913      311.981      1.759     4.92     852.7271     54.99173     185.4273        18     1.395     0.949 -43.92   0
       636    532.1467   1004.6068 307.6868388  +6.2794431     3586.894     6268.382     7011.161     77.70782     155.8509     311.7018      1.901     4.27     852.7043     54.99173      472.985        36     1.742     1.198 -20.76   0
       637    641.7021   1003.7704 307.6413775  +6.2834528     1255.258     2094.672     2248.681       78.328     155.7888     312.0121      1.775     4.46     852.3245     54.99173      144.085        16     1.171     1.050 -60.75   0
       638     66.7314   1003.1731 307.8801283  +6.2644245     735.3902     1183.618     1345.718     77.83224      155.913      311.888      1.753     4.42     849.2869     54.99173     103.0173         8     1.076     0.517 -37.99   0
       639    485.3620   1001.0153 307.7063850  +6.2793600     2012.967     3235.271     3694.418     77.95648     155.8509     311.7328      1.706     3.85     852.6392     54.99173     288.4032        19     1.376     0.862 -46.69   0
       640    919.8315    993.1731 307.5262450  +6.2971135     35718.75     66317.27     73245.86     77.70782     155.7888     311.7949      2.018     4.17     849.3621     54.99173     4093.522        89     1.918     1.458 -38.65   0
       641    325.6251    993.7846 307.7729524  +6.2769933      460.008      758.347     713.0792     77.95648      155.913      311.919      1.757     4.24     852.3772     54.99173     79.88074         6     0.742     0.689 -19.63   0
       642    227.0910    991.5552 307.8139392  +6.2746081     1660.853     2594.969     2803.431     78.20435      155.975     312.1051      1.683     4.58     852.6827     54.99173     204.6738        18     1.294     0.933 -38.47   0
       643    115.4547    990.1373 307.8603382  +6.2714444     468.0237     780.9341     255.6735       78.328      155.975       311.95      1.471     4.93     849.2835     54.99173      85.6391         6     1.334     0.516 -48.68   0
