#   1 NUMBER                 Running object number                                     
#   2 X_IMAGE                Object position along x                                    [pixel]
#   3 Y_IMAGE                Object position along y                                    [pixel]
#   4 ALPHA_J2000            Right ascension of barycenter (J2000)                      [deg]
#   5 DELTA_J2000            Declination of barycenter (J2000)                          [deg]
#   6 FLUX_APER              Flux vector within fixed circular aperture(s)              [count]
#   9 FLUXERR_APER           RMS error vector for aperture flux(es)                     [count]
#  12 FLUX_RADIUS            Fraction-of-light radii                                    [pixel]
#  13 FWHM_IMAGE             FWHM assuming a gaussian core                              [pixel]
#  14 BACKGROUND             Background at centroid position                            [count]
#  15 THRESHOLD              Detection threshold above background                       [count]
#  16 FLUX_MAX               Peak flux above background                                 [count]
#  17 ISOAREA_IMAGE          Isophotal area above Analysis threshold                    [pixel**2]
#  18 A_IMAGE                Profile RMS along major axis                               [pixel]
#  19 B_IMAGE                Profile RMS along minor axis                               [pixel]
#  20 THETA_IMAGE            Position angle (CCW/x)                                     [deg]
#  21 FLAGS                  Extraction flags                                          
         1    174.1269     14.6651 307.8649917  +6.6682154     11094.85     16543.73     17030.57     77.94125     155.2666     310.4406      1.560     3.61     827.1048      54.7202     1639.511        35     1.500     0.949 -38.97   0
         2    919.8426     12.2507 307.5552563  +6.6940745     4122.834     6178.549     6112.451     77.94125     155.2666     310.4406      1.566     3.80     821.3166      54.7202     617.7469        28     1.512     0.998 -49.37   0
         3    518.2111     12.8187 307.7221036  +6.6804736     2945.217     4264.025     4505.788     77.44794     154.9577      310.348      1.535     3.82     821.0554      54.7202      455.023        20     1.406     0.785 -39.07   0
         4    456.3909     11.2253 307.7478408  +6.6790691     2122.768     3157.635     3333.662     77.44794     155.0813     310.3171      1.519     3.74     822.4234      54.7202     344.5779        15     1.319     0.724 -47.62   0
         5    720.7050     10.8667 307.6380394  +6.6880256     1929.274     2767.502     2872.748     77.81821     155.4516     310.4406      1.485     4.30     820.5113      54.7202     304.3432        16     1.417     0.712 -34.66   0
         6    984.3969      8.4743 307.5285611  +6.6977768     1865.901     3093.462     2683.172     77.32412     154.7721     310.3171      1.738     4.32     819.4291      54.7202     247.3383        20     1.462     0.841 -56.04  16
         7    703.9021      5.0184 307.6452161  +6.6898810     7701.164     11425.88     11925.45     77.69498     155.1431     284.4777      1.525     3.68     820.4513      54.7202     1166.267        33     1.496     0.916 -41.21  16
         8    624.2095      4.1865 307.6783539  +6.6875707     3960.244     5736.135     6037.905     77.57156     154.0274     274.4664      1.524     3.54     820.7328      54.7202     594.7596        21     1.382     0.780 -37.90  16
         9    326.4392      3.7223 307.8020816  +6.6778272     975.8762     1333.696     1463.447     77.69498     151.3288     268.6801      1.457     3.71      828.747      54.7202     140.5846        10     1.094     0.629 -35.87  16
        10    423.6544      1.5107 307.7617671  +6.6819873     4144.302     5202.497     5083.861     69.90493     126.0419     236.5534      1.128     3.34     824.4097      54.7202     1012.831        17     1.230     0.667 -10.84  24
        11    380.0135      2.2101 307.7798746  +6.6802413     1014.947      1496.22     1500.698     76.32635     135.4234     247.3256      1.432     3.29      827.293      54.7202     153.5958        10     0.924     0.741 -57.63  24
        12     24.6208      1.4652 307.9275460  +6.6686573     4518.767     5665.808     5622.134     69.21619     125.3559     235.5385      1.130     3.00     824.5247      54.7202     1042.642        18     1.297     0.664  -6.35  24
        13    291.3838    995.3561 307.7833793  +6.2672379     14259.67     23220.36     25309.47     77.44794     155.1431     310.2245      1.820     4.03     853.8432      54.7202     1742.733        57     1.919     1.123 -38.40   0
        14    712.9263   1021.3508 307.6075158  +6.2705553     6598.821      11260.8      12220.5     77.81821     150.8849     267.8944      1.820     4.04     853.1213      54.7202     771.3853        39     1.609     1.166 -28.89  24
        15    580.3752   1023.4447 307.6624718  +6.2652791      36006.6     46590.62     48594.18     69.76772     126.5729     236.9985      1.251     3.67     855.4998      54.7202     7574.921        40     1.492     0.802  -2.50  24
        16    568.9263   1020.4685 307.6673240  +6.2661266     3787.333     6555.366     7384.934     77.94124       155.39     278.7617      1.854     4.15     855.5126      54.7202     479.8826        34     1.629     1.091 -36.89  24
        17    427.8303   1021.6252 307.7258577  +6.2609462     3561.947     5882.533      6724.98     77.32412     148.1938      263.967      1.769     4.41     855.7511      54.7202     446.1975        28     1.652     0.925 -35.50  24
        18    209.6468   1023.5099 307.8163654  +6.2528830     1405.659     1924.925     1780.832     69.63025      125.585     236.3102      1.421     3.83     853.5923      54.7202     246.0509        10     1.201     0.573  -9.81  24
        19    541.1306    996.6649 307.6796587  +6.2750287     4028.492     6678.732     7724.246     77.81821     155.3283     310.4715      1.834     4.20     855.1473      54.7202     487.5716        30     1.470     1.099 -33.58   0
        20    806.7893    995.5593 307.5694099  +6.2843247     1099.393      1876.67     1082.316      77.2001     155.0813     310.1627      1.824     6.03     851.2422      54.7202     111.3949        18     1.341     1.038 -12.14   0
        21    415.6621    995.7847 307.7317740  +6.2712093      875.229     1403.564     971.4258     77.32412     155.2049     310.2553      1.703     6.03     855.0594      54.7202     108.7977        13     1.368     0.749 -21.36   0
        22    907.0316    989.4442 307.5279983  +6.2901790     7244.742     13743.26     15133.74     77.44794     155.3283     310.3171      2.024     4.37     850.7017      54.7202     853.3407        47     1.683     1.372 -51.02   0
        23    262.9332    992.7394 307.7952775  +6.2673680     863.8449     1233.476     745.4555     77.94125     155.2049     310.4406      1.510     5.26     853.3701      54.7202     114.8937        10     1.257     0.621 -50.95   0
        24    538.4158    988.8074 307.6810485  +6.2781824     7867.674     12728.44     14011.33     77.44794     155.0195     310.2862      1.754     3.97     854.9436      54.7202     914.8804        34     1.514     1.070 -41.73   0
        25    880.6671    985.6353 307.5390705  +6.2908763     10389.91     19178.17      20671.8     77.69498     155.3283     310.5023      1.981     4.35     850.9119      54.7202     1180.385        55     1.821     1.341 -30.57   0
        26   1002.3398    985.0251 307.4885778  +6.2951661     3997.811     7750.277     8102.744     77.44794     155.2666     310.3171      2.065     4.27     846.9252      54.7202     451.0613        42     1.727     1.331 -37.68   0
        27    593.2554    985.9772 307.6583770  +6.2811776     1203.349     2146.166     2449.851     77.44794     155.2666     310.2553      2.058     5.91     854.2649      54.7202     150.3528        17     1.435     0.933 -42.00   0
        28    524.7167    984.7382 307.6868715  +6.2794061     3890.903     6341.896     6817.642     77.94125     155.2666     310.4406      1.784     4.00     854.8398      54.7202     467.8921        27     1.492     0.993 -31.78   0
        29     59.2045    983.4029 307.8801616  +6.2644097     888.2004     1278.655     1479.847      77.2001      154.834     310.2862      1.554     4.74     847.8556      54.7202     134.0929        10     1.160     0.759 -69.74   0
        30    634.7268    983.6978 307.6412367  +6.2834996     1333.292     2350.703     2560.901     77.44794       155.39     310.4406      1.884     4.50     853.7792      54.7202     160.8812        17     1.312     0.904 -10.18   0
        31    477.7835    981.4415 307.7064655  +6.2792029     2134.548     3427.956     3490.355     77.32412     155.0813     310.2245      1.734     4.76     854.7253      54.7202     274.0669        22     1.497     0.930 -31.35   0
        32    790.5716    981.2108 307.5766212  +6.2897100     347.5615     413.2032     813.8386     77.32412     155.0813     310.2862      1.289     4.29     851.3929      54.7202     63.32379         5     0.919     0.569  40.76   0
        33    387.0804    979.7863 307.7441748  +6.2768610     553.5422     918.9738     785.9316     77.44794     155.0195     310.2553      1.493     3.92       854.34      54.7202     99.71576         5     0.876     0.502 -51.91   0
        34    912.4407    973.0952 307.5262973  +6.2971089     36650.86     67200.23     72617.11     77.81821     155.2049      310.564      1.974     4.28     850.2843      54.7202     3986.527        84     1.868     1.432 -39.84   0
        35    219.7026    971.5521 307.8139340  +6.2746710      1858.38     2998.451     2804.007     77.81821     155.2049     310.5949      1.716     4.81     851.4976      54.7202     225.4593        19     1.483     0.851 -37.83   0
        36    106.6199    970.6276 307.8609080  +6.2712710     593.5193     1007.976      981.735     77.44794     155.0813     310.3788      1.924     4.43     848.4562      54.7202     108.3499         5     1.022     0.741 -77.28   0
        37    618.5504    969.7709 307.6484176  +6.2887112     846.5063      1199.61     976.2552     77.44794     155.3283      310.348      1.601     5.15     853.4896      54.7202      115.259        11     1.061     0.839 -53.84   0
        38    758.4865    964.9930 307.5904825  +6.2953396     5989.539     10391.12     11459.15     77.32412     154.9577     310.1936      1.874     4.33     851.7919      54.7202     679.2986        41     1.788     1.166 -56.00   0
        39    810.4388    966.7602 307.5688553  +6.2963367     2077.663     3716.589     3557.475     77.57156     155.3283     310.3171      1.891     4.38      851.204      54.7202     223.5146        23     1.426     1.018 -29.64   0
        40    545.5477    964.3787 307.6789045  +6.2885062     957.5491     1452.053     1676.924     77.32412     155.2666     310.2553      1.694     4.55     854.2952      54.7202     134.4539        11     1.172     0.726 -39.27   0
        41    227.9144    964.1107 307.8107747  +6.2780178     1439.808     2281.455     2320.203     77.57156     155.5748      310.564      1.594     4.09     851.2755      54.7202     200.1116        15     1.312     0.726 -29.50   0
        42    192.4119    963.1476 307.8255450  +6.2772287     708.9939     1377.379     1454.036      77.2001     155.2049     310.1627      2.068     5.45     850.2908      54.7202     92.33777         8     1.134     0.738 -54.49   0
        43     52.8539    962.1800 307.8835109  +6.2729593     2540.958     4287.248     4707.025     77.32412     155.2666     310.2553      1.784     4.07       847.43      54.7202     385.0348        27     1.606     0.972 -29.53   0
        44    946.8548    959.9463 307.5124479  +6.3036801     5595.135     10552.44     11357.27     78.06408     155.2049     310.4406      2.016     4.66     848.9006      54.7202     616.2866        44     1.706     1.332 -32.58   0
        45    203.0003    955.6418 307.8214013  +6.2806816      541.806     764.3424     550.9876     77.07589     154.9577       310.07      1.562     4.60     850.2845      54.7202      78.8028         6     1.177     0.510 -51.26   0
        46    629.5544    953.5767 307.6443903  +6.2957638     718.1482     1061.383     1311.422     77.44794     155.2666     310.3171      1.529     4.39     852.9608      54.7202     95.23291         7     0.865     0.689  20.34   0
        47    920.3905    951.5355 307.5237151  +6.3062745     1840.963     3380.388     3196.208     77.32412     155.0813     310.2862      1.906     4.85     849.6299      54.7202     215.7728        24     1.502     1.081 -54.35   0
        48    253.3890    947.8173 307.8007459  +6.2855961      4270.55     6715.327     6927.603     77.57156     154.9577      310.348      1.726     3.70      851.021      54.7202     541.8077        31     1.585     1.005 -34.19   0
        49    780.4490    947.8910 307.5819351  +6.3031309     1265.899     2171.494     1982.441     77.81821     155.0813     310.5949      1.779     5.77     851.4775      54.7202     171.8353        16     1.378     0.949 -21.51   0
        50    641.2573    947.6161 307.6397309  +6.2986144     4284.761     7017.599     7314.255      77.2001     155.2049     310.1936      1.746     4.03     852.7563      54.7202     515.6627        31     1.513     1.069 -35.94   0
        51     22.0549    945.3720 307.8968610  +6.2788675     2015.775     3378.804     4016.027     77.57156     155.3283     310.3171      1.830     4.27     846.9968      54.7202      265.029        24     1.532     1.018 -52.01   0
        52    463.7170    946.0120 307.7134906  +6.2933620     1145.748     1940.276     2134.002     77.44794     155.0195     310.2862      1.742     5.16     853.7952      54.7202     184.9707        14     1.546     0.740 -25.47   0
        53    872.7328    944.0195 307.5437514  +6.3077955     648.3676     1327.474     1171.729     77.44794     155.2666      310.348      2.077     5.79     850.5395      54.7202     94.79358         8     1.487     0.635 -11.46   0
        54    566.0065    940.0353 307.6712250  +6.2992387     1558.601     2434.417     1971.245     77.07589     155.0195     310.2245      1.596     4.06     853.3382      54.7202     219.2341        18     1.425     0.824 -39.81   0
        55    289.7728    940.8480 307.7858753  +6.2896891      773.833     1189.847      1461.85     77.44794     155.3283     310.3788      1.537     4.19     851.6544      54.7202      127.333        10     1.117     0.629 -45.15   0
        56    995.9982    939.2842 307.4927331  +6.3138417     596.7366     1282.394      1644.85     77.07589     154.8959     310.1318      2.263     6.59     846.4866      54.7202     105.6469         8     1.254     0.971 -68.79   0
        57    604.9398    936.6261 307.6551755  +6.3019429     1164.522     1608.297     1651.595     77.44794     155.2666     310.3171      1.481     4.83     852.5693      54.7202     169.4704        12     1.224     0.764 -45.20   0
        58     54.6111    936.9714 307.8836285  +6.2834259     585.2586     1041.767     1289.052     77.32412     155.0813     310.2862      2.072     4.65     847.0713      54.7202      89.6781         7     1.013     0.605 -32.15   0
        59     48.8510    936.5175 307.8860349  +6.2834204     524.8298     918.9869     1486.934     77.81821     155.2666     310.5023      1.825     3.49      847.053      54.7202     89.41583         5     1.317     0.268 -54.43   0
        60    284.9503    934.3625 307.7880947  +6.2922057     1460.571     2507.749      2803.91     77.57156     155.1431     310.2862      1.849     5.46     851.2371      54.7202     183.0735        15     1.349     0.796 -39.06   0
        61    552.7128    932.3104 307.6770022  +6.3019853     550.2411     1026.406     1013.097     77.57156      155.698      310.564      2.120     3.72     853.3535      54.7202     128.1415         5     0.978     0.407 -45.34   0
        62    889.4195    926.8094 307.5373971  +6.3154554     6144.813     10704.08     10652.17     77.44794     155.0195     310.2862      1.876     4.19     849.8853      54.7202     657.8231        41     1.592     1.269 -41.65   0
        63    751.9515    929.9979 307.5943633  +6.3095713     908.1035     1258.145     1340.406      77.2001     154.8959     310.0391      1.560     5.05     851.6885      54.7202      134.745         9     0.912     0.790 -43.77   0
        64    128.0088    928.3483 307.8534487  +6.2894424     663.8978     967.4549     1521.883     77.32412     155.1431     310.1627      1.464     5.64     847.8862      54.7202     121.2403         9     1.230     0.730 -35.55   0
        65    425.1383    924.0232 307.7302426  +6.3011541     2059.704     3313.329     3219.359     77.44794     155.2049      310.348      1.631     4.15     853.1274      54.7202     293.2614        18     1.348     0.849 -41.76   0
        66    326.9374    922.4738 307.7710625  +6.2985164     9510.452     14968.05     15272.63     78.06408     155.2666     310.4406      1.671     3.78     851.8147      54.7202     1248.519        41     1.565     1.114 -39.36   0
        67    247.0084    921.4503 307.8042790  +6.2962692     7122.406      11162.3     11512.85     77.32412     155.1431     310.1318      1.649     3.87     849.8694      54.7202     943.5201        33     1.561     0.968 -34.05   0
        68    759.2786    915.5557 307.5918032  +6.3157778     725.6101     1074.974     1337.037     77.69498     155.2666     310.4715      1.661     5.02     851.4783      54.7202     102.3524         8     1.109     0.741 -28.69   0
        69    575.2739    915.5780 307.6681951  +6.3096453     1219.177     1826.241     1892.068     77.44794     155.0813     310.3788      1.646     3.87     852.6111      54.7202     196.2638        14     1.249     0.776 -39.60   0
        70    905.2599    911.9835 307.5313146  +6.3221028     948.8763     1460.353     1577.745     77.32412     155.2049     310.1936      1.769     5.07     849.1977      54.7202     146.5646        13     1.356     0.733 -40.33   0
        71    862.2495    910.8637 307.5492088  +6.3211369     609.1505     1106.216     1224.619     77.69498     155.2049     310.5023      2.069     5.09     850.2338      54.7202     104.0888         6     1.175     0.622 -25.63   0
        72    403.7547    910.4608 307.7395742  +6.3060403      591.153     1075.478     1189.383     77.69498     155.2049     310.5023      2.156     6.42     852.3492      54.7202     82.06525        11     1.703     0.680 -35.63   0
        73    741.7401    904.8197 307.5994430  +6.3196274     1526.317      2686.71     3187.827     77.44794     155.1431     310.3171      1.797     4.11      851.669      54.7202     218.6817        20     1.345     0.999 -42.19   0
        74    565.1548    905.7644 307.6727243  +6.3133601     622.6555     997.7629     1060.788     77.57156     155.2049      310.348      1.822     4.55     852.5153      54.7202     78.70044         8     1.117     0.526 -55.01   0
        75    605.5167    901.7560 307.6561013  +6.3163594     700.8412     1229.097     1200.337     77.81821     155.2666     310.4406      1.961     5.80     852.0564      54.7202     105.0737        10     1.256     0.755 -45.09   0
        76    617.5212    901.2372 307.6511348  +6.3169733     678.5797     930.3384     745.4772     77.69498     155.3283     310.4406      1.366     5.10     851.9991      54.7202     107.0755         8     1.050     0.700 -56.28   0
        77    972.8699    900.4860 307.5036272  +6.3290939     1062.674     1570.067     2212.497     77.94124     155.5132     310.4715      1.647     4.45     846.9295      54.7202     141.1671        11     1.042     0.884  -5.00   0
        78    526.5515    900.4775 307.6889279  +6.3142568     1070.967     1464.048     1605.399     77.69498     155.3283     310.4097      1.715     4.74     852.5275      54.7202     126.7647        13     1.164     0.772 -39.10   0
        79    660.2034    898.3265 307.6335116  +6.3195959     2443.743     4029.176     4720.334     77.32412      154.834     310.2862      1.813     4.30     851.8563      54.7202     299.3682        22     1.468     0.902 -36.74   0
        80   1010.0735    897.7781 307.4882710  +6.3314460        534.1      851.321     873.0722     77.44794     155.0813     310.3788      1.511     3.87     845.6562      54.7202     85.10724         5     0.823     0.521  51.01   0
        81     56.5818    894.8699 307.8842251  +6.3008742     2729.669     4304.069      4600.01     77.32412     155.1431     310.3788      1.717     3.69     846.4667      54.7202     353.2184        24     1.510     0.942 -47.06   0
        82    949.9218    896.1832 307.5132982  +6.3301090     675.2046     1186.601     1224.951     77.44794     155.0195     310.3171      1.759     5.81      847.673      54.7202      91.5011         8     1.225     0.777 -31.94   0
        83    557.3676    895.3450 307.6763057  +6.3174027     519.9355     466.9746      246.378     77.69498     155.2666     310.3788      1.307     4.88     852.3093      54.7202     91.02264         6     0.955     0.707 -70.40   0
        84     74.0628    894.0353 307.8769961  +6.3018039     1920.798     3030.958     3282.312     77.69498     155.2666     310.4097      1.634     5.24     846.5488      54.7202     276.9561        17     1.400     0.830 -39.88   0
        85    200.2549    893.5508 307.8246244  +6.3062254     2363.301     3637.287     3639.775     77.81821     155.2666     310.5023      1.689     4.14     848.7115      54.7202     279.6812        21     1.379     0.930 -34.07   0
        86    821.1683    894.1509 307.5668221  +6.3266727     741.1489     1227.799     1658.299     77.57156     155.2666     310.3788      1.789     4.36     850.1429      54.7202     117.2608         7     0.976     0.645  -6.61   0
        87    938.5303    893.1887 307.5181275  +6.3309674     595.6841     1094.414     833.5543     77.32412     155.0813     310.2862      2.007     2.62     848.0106      54.7202     120.3397         5     0.721     0.481 -75.54   0
        88    339.0860    889.8555 307.7671121  +6.3123894     860.2819     1230.887     1533.048     77.81821     155.2666     310.5949      1.616     5.92     850.9684      54.7202      135.699        11     1.405     0.703 -39.81   0
        89    654.6793    887.5122 307.6361663  +6.3238771     6668.836     10879.16      11795.6     77.57156     155.5132      310.564      1.740     3.90     851.7498      54.7202     849.9157        38     1.587     1.104 -36.69   0
        90    234.0861    889.9341 307.8107008  +6.3088495     780.8607     1188.877     929.0562     77.81821     155.4516     310.5023      1.808     4.90     849.4437      54.7202     122.7681         9     1.189     0.573 -23.73   0
        91    791.9991    888.3107 307.5791274  +6.3281147     722.9644     1209.073     1135.034     77.07589     154.7721     310.1936      1.651     5.49     850.3427      54.7202     116.8187         9     1.121     0.758 -25.06   0
        92     14.6150    886.1522 307.9019402  +6.3030681     1115.967     1771.344     1564.554      77.2001     155.2049     310.1936      1.641     4.66      846.048      54.7202     181.9037        12     1.129     0.858 -48.05   0
        93    892.3507    883.7411 307.5376154  +6.3333351     2462.724     4137.686     4262.041     77.81821     155.2666     310.5023      1.727     4.19     849.0335      54.7202     298.2693        25     1.461     1.036 -32.18   0
        94     27.7503    884.2121 307.8965524  +6.3043090      1140.75     1685.355     1478.124      77.2001     155.2049     310.1318      1.606     4.63     846.1006      54.7202      145.094        15     1.191     0.929 -42.50   0
        95    337.6744    880.6868 307.7680054  +6.3161278     16486.99     25439.48     27366.77     77.94125     155.5748     310.5023      1.698     3.70     850.6553      54.7202     2174.556        51     1.623     1.102 -40.84   0
        96     72.1812    881.8472 307.8781868  +6.3067730     1357.834     2170.415     2003.712     77.32412     155.2666     310.2553      1.655     4.47     846.3958      54.7202     187.8688        17     1.301     0.944 -39.32   0
        97    208.2813    880.0984 307.8217436  +6.3120478     1266.973     2233.188     2096.017     77.69498      155.698     310.5332      1.808     4.72     848.7755      54.7202     178.1707        16     1.456     0.856 -34.78   0
        98    388.3204    879.5175 307.7470182  +6.3183010     655.3583     854.8626     678.4045     77.94125     155.5132      310.564      1.568     4.95     850.9098      54.7202     132.3608         8     1.089     0.637 -33.69   0
        99    415.4478    871.6223 307.7360202  +6.3224660     1146.709     1731.228     1515.401     77.44794     155.2666     310.3171      1.675     5.12     850.7013      54.7202     134.4599        12     1.150     0.854  -6.63   0
       100    100.8595    871.4258 307.8666312  +6.3120355     1588.426     2329.835     2498.633     77.44794     155.2666     310.3171      1.584     3.81     846.5385      54.7202     242.7262        14     1.314     0.652 -33.16   0
       101    669.8602    866.7666 307.6305565  +6.3329478     613.4001     1147.309     1462.355     77.69498     155.3283     310.3788      2.408     3.49     851.4136      54.7202     133.5674         5     0.799     0.504 -31.74   2
       102    495.4689    867.9887 307.7029193  +6.3266348     638.6128     1157.411     1394.159     77.32412     155.0813     310.3171      2.076     4.66     851.5615      54.7202     115.9082         7     1.114     0.552 -61.12   0
       103    882.8646    865.3300 307.5421675  +6.3406219     1871.076     3136.848     3147.073     77.81821     155.3283     310.4406      1.792     4.15     848.8624      54.7202      261.358        21     1.362     1.007 -31.25   0
       104     84.3560    865.0069 307.8736982  +6.3141333     2348.107     3561.741     3784.319     77.32412     155.0195     310.1318      1.649     3.86     846.3181      54.7202     328.0406        21     1.386     0.870 -43.13   0
       105    853.4474    864.9840 307.5543928  +6.3397877     1853.847     2768.601     2903.749     77.32412     155.2049     310.1936      1.613     3.95     849.2515      54.7202      232.668        20     1.378     0.900 -30.07   0
       106    816.9578    864.2672 307.5695669  +6.3388714     2852.998     4868.948     5399.071     77.81821     155.2049     310.5023      1.854     4.38      849.404      54.7202     368.0677        26     1.561     0.982 -37.23   0
       107    552.7739    855.8236 307.6795344  +6.3335673     330167.2     511090.3     538346.8     77.32412     155.1431     310.3171      1.650     3.76      851.187      54.7202     43631.17       176     1.742     1.295 -41.54   0
       108    332.1967    862.8805 307.7708762  +6.3232967     769.0348     876.9857     1440.168      77.2001      154.834     310.1627      1.425     4.91      850.061      54.7202      131.707         8     1.096     0.624 -36.20   0
       109    447.5224    862.7344 307.7230013  +6.3272055     494.9834     761.5758      1028.19     77.94125     155.2666     310.4097      1.716     3.89     850.8381      54.7202     92.11542         5     1.034     0.420  -8.26   0
       110    397.0147    858.4496 307.7441142  +6.3272896      7705.62     11882.13     12897.94      77.2001     155.2049     310.1627      1.643     3.80     850.0921      54.7202     1021.399        36     1.530     1.035 -30.64   0
       111    640.5585    858.5712 307.6429959  +6.3353563     1289.234     2073.981     2174.529     77.44794     155.1431     310.3171      1.790     4.64     851.3729      54.7202     181.1647        14     1.264     0.898 -36.08   0
       112    453.2488    859.1523 307.7207437  +6.3288754     493.3612     603.4238     844.4818     77.81821     155.1431     310.4715      1.379     4.73     850.7645      54.7202     74.64691         6     1.141     0.557 -21.97   0
       113    340.1963    856.9064 307.7677553  +6.3260303     12730.65     19507.78     20633.09     77.57156     154.9577     310.1627      1.617     3.81     849.8858      54.7202      1739.37        41     1.579     0.994 -36.29   0
       114    891.0761    851.8960 307.5392058  +6.3464413      4653.65     7804.564     8719.806     77.44794       155.39     310.5023      1.835     4.17     848.5345      54.7202     531.9495        36     1.639     1.094 -35.74   0
       115    658.6340    853.0331 307.6356762  +6.3382446     3474.671     5600.801     6595.096     77.44794     155.0195     310.1936      1.781     3.92     851.0604      54.7202     469.3417        25     1.421     1.007 -31.09   0
       116    730.0460    850.0202 307.6061273  +6.3418645     642.6812     876.4329     731.5533     77.44794     155.2049     310.2862      1.456     4.67     851.1229      54.7202     118.5132         7     1.224     0.533 -56.88   0
       117   1023.3179    846.4415 307.4844807  +6.3530816      2762.72     3703.785     3717.157     71.93158     128.5261     239.2118      1.395     4.20     844.9193      54.7202     424.3749        17     1.388     0.712 -83.70  24
       118    633.4800    847.2623 307.6463126  +6.3397900      3398.01     5205.293     5769.725     77.94125     155.3283     310.4406      1.694     4.16     851.0774      54.7202      471.827        27     1.496     0.977 -40.41   0
       119    625.6068    842.9569 307.6497254  +6.3413054     1621.594     4003.043     5192.664     77.32412     155.0195     310.1627      2.722     9.73     851.0223      54.7202     287.2867        34     2.783     0.972 -56.07   0
       120    822.0305    846.2247 307.5680625  +6.3464895     1710.679     2577.131     2584.565     77.32412     155.1431     310.2553      1.636     4.14     849.2529      54.7202     204.0761        17     1.315     0.855 -19.71   0
       121    176.8288    846.9800 307.8359129  +6.3246698     561.7376     782.1029     945.0838     77.44794     155.0813     310.3788      1.468     4.10     847.3068      54.7202     95.93994         5     0.914     0.654 -61.29   0
       122    948.2162    845.0187 307.5157105  +6.3511777     760.2578     1260.787     1347.456     77.57156     155.0195     310.3788      1.727     5.62     847.1152      54.7202     99.46429         9     0.957     0.931 -70.12   0
       123    909.8739    839.6676 307.5318085  +6.3521144     3060.296      5241.86     5549.799     77.94125       155.39     310.4097      1.885     4.48     847.9805      54.7202     326.5502        32     1.624     1.231 -34.47   0
       124    320.2192    840.7168 307.7765918  +6.3320476     1233.146     1738.039     1543.423     77.44794     154.9577     310.4097      1.546     4.24     849.5338      54.7202     179.3077        12     1.203     0.710 -44.23   0
       125    368.0836    835.8048 307.7568842  +6.3356736     2682.058     3987.637     4367.063     77.32412     154.8959     310.1627      1.511     3.94     849.2802      54.7202     370.6414        19     1.390     0.789 -34.80   0
       126    504.4185    825.4424 307.7006271  +6.3444996     3127.397     4540.653     4655.547     77.32412     155.0813     310.2245      1.582     3.75     849.7564      54.7202     459.9387        22     1.470     0.810 -45.91   0
       127    848.9536    824.5601 307.5576064  +6.3563290     929.2054      1252.75     1417.186     77.69498     155.2666     310.2862      1.402     3.85     848.8656      54.7202     161.4034         7     0.925     0.639  -1.30   0
       128    551.1603    821.6323 307.6813478  +6.3476305     5975.382     9214.314     10349.04     77.44794     155.0813     310.2862      1.660     3.68     849.9595      54.7202     808.7439        35     1.556     1.006 -31.99   2
       129    558.4057    820.9108 307.6783637  +6.3481698     1276.482     2012.146     2733.302     77.32412     154.9577     310.1936      1.849     4.79     850.0057      54.7202     184.9352        14     1.322     0.718 -26.52   3
       130    569.7031    822.9687 307.6736043  +6.3476965     791.1362     1194.893     997.3179     77.94124     155.0813     310.5332      1.571     3.50     850.2112      54.7202      100.174         7     0.745     0.662  86.90   0
       131    262.5869    822.1359 307.8011423  +6.3377940     687.3043     904.6675     817.0724     77.32412     155.0813     310.2862      1.575     5.72     848.8627      54.7202     119.0955         9     1.385     0.664 -41.73   0
       132    468.8978    820.6600 307.7155350  +6.3452899     1382.638      2386.99     2838.293     77.57156     155.2666      310.564      1.783     4.39     849.3705      54.7202     229.5009        15     1.423     0.685 -35.22   0
       133    886.7062    819.6982 307.5420934  +6.3595903     1259.371     2005.735     1759.543     77.81821      155.821      310.348      1.684     4.69     848.1829      54.7202     193.4216        18     1.355     0.942 -38.90   0
       134    110.6379    819.7092 307.8643087  +6.3337149     1289.167     2065.252     2182.261     77.94125     155.2049     310.4715      1.648     4.78     845.4781      54.7202     186.9036        14     1.376     0.689 -30.04   0
       135    686.9089    818.5453 307.6250886  +6.3534250     839.2153       1213.2     1338.442     77.69498     155.1431      310.564      1.614     3.59     849.8568      54.7202     131.4128         8     0.921     0.727 -41.57   0
       136    521.8648    815.5261 307.6937153  +6.3491754     19943.75     30151.16     31307.07     77.94125     155.2666     310.4406      1.643     3.87     849.5016      54.7202     2676.695        51     1.608     1.067 -38.20   0
       137    363.0305    816.9855 307.7596127  +6.3432750     763.6977     1094.556     874.8447     77.44794     155.0195     310.3788      1.462     5.56     848.6624      54.7202     114.0088         9     1.115     0.781  -8.86   0
       138    935.4619    813.8039 307.5220460  +6.3636427     3507.634     5917.272     6589.069      77.2001     154.9577     310.1627      1.836     3.98     847.0016      54.7202     428.4751        28     1.486     1.088 -47.03   0
       139     55.4519    811.5573 307.8874940  +6.3352333     497.9032     748.1398     1117.606     77.81821     155.2666     310.4715      1.651     5.11     844.3167      54.7202     82.96521         5     1.065     0.693 -25.25   0
       140    407.8341    810.7738 307.7412189  +6.3473349     573.5894     880.5924     1406.966     77.32412     155.0813     310.2245      1.810     5.21     848.7469      54.7202     87.29077         7     1.249     0.614 -47.71   0
       141    161.8172    806.4550 307.8435056  +6.3408994     528.4511      521.454     212.8409     77.32412     155.2049     310.1936      1.459     4.21     846.5096      54.7202     84.51141         6     1.097     0.461 -60.78   0
       142     32.2920    806.1865 307.8972897  +6.3366752     1503.402     2289.103      1821.61     77.57156     155.0195     310.2245      1.566     4.47     843.7735      54.7202     215.4166        17     1.447     0.779 -33.70   0
       143    314.5628    804.1972 307.7801644  +6.3469367     3294.683     5220.047       5121.2     76.95147     155.0813     310.2553      1.609     3.94     848.7054      54.7202     507.8986        22     1.432     0.854 -32.58   0
       144    780.0200    799.9752 307.5870482  +6.3641890      53476.9     83953.54     88602.13     77.44794     155.0813     310.3788      1.654     3.77     849.2444      54.7202     6938.258        80     1.651     1.218 -39.71   0
       145     14.4097    802.3977 307.9048413  +6.3376405     2083.254     3525.788      3361.82      77.2001     154.9577     310.2553      1.768     4.17      843.357      54.7202     312.9512        24     1.542     1.033 -24.37   0
       146    719.3604    801.4037 307.6121870  +6.3615821     673.9836     1084.647      1592.48     77.07589     155.0195     310.1936      1.684     4.38     849.3942      54.7202     127.5403         8     1.184     0.613 -33.05   0
       147    236.7463    776.5717 307.8133993  +6.3557427     753047.5      1716694      1914702     77.57156     155.3283      310.348      2.319     6.57     846.1597      54.7202     62224.96       611     2.798     2.166 -73.13   4
       148    905.3046    795.1841 307.5351881  +6.3703295     8093.721     13266.38     14350.43     77.57156     155.0813     310.2862      1.757     3.93     847.3588      54.7202     991.9228        44     1.596     1.187 -31.56   0
       149    708.2868    794.6407 307.6170106  +6.3640061      21569.4      33130.2     35952.38     77.81821     155.2666     310.4715      1.683     3.74     849.2411      54.7202     2787.258        56     1.651     1.125 -38.19   3
       150    701.9708    791.1157 307.6197508  +6.3652514     88115.47     134698.5     142199.8     77.81821     155.0195     310.3171      1.620     3.66     849.1448      54.7202     12188.72        92     1.680     1.191 -40.97   3
       151    346.8420    792.0704 307.7671689  +6.3530214     20810.96     31903.96     33582.91     77.69498     155.2666     310.5023      1.615     3.71     847.6135      54.7202     3012.729        53     1.632     1.059 -37.07   0
       152    408.7126    789.8763 307.7415541  +6.3559923     22312.86     33730.83     35529.09     77.81821     155.5748     310.5332      1.611     3.67     847.9355      54.7202     3071.848        51     1.596     1.046 -39.08   0
       153    395.9374    792.2054 307.7467803  +6.3546044     1494.202      2272.39     1877.214      77.2001     155.0195     310.2245      1.582     4.00     847.9181      54.7202     227.3799        18     1.341     0.853 -38.77   0
       154    945.8498    788.7532 307.5185673  +6.3743306     1961.388     3463.738     3280.422     77.81821     155.1431     310.5023      1.843     5.16     846.1953      54.7202      227.817        22     1.408     1.105 -54.15   0
       155    902.2663    786.5763 307.5367365  +6.3737827     6505.884     10648.77     11295.95     77.44794     155.2666     310.3788      1.789     3.83      847.232      54.7202     762.3051        38     1.563     1.140 -40.69   0
       156    642.7172    785.7455 307.6445328  +6.3654967     6545.925     10072.42      10902.4     77.81821     155.2666     310.5332      1.666     3.72     849.2449      54.7202     877.7832        34     1.490     1.008 -36.80   0
       157    875.1083    787.1188 307.5479949  +6.3726568     653.1606     915.1309     1136.766     77.57156     155.5132     310.5023      1.496     4.40     847.8757      54.7202     91.80743         8     0.855     0.659 -48.97   0
       158    132.3983    786.2394 307.8563985  +6.3482617     570.1102     610.1425     678.1168     76.95147     155.0195     310.1627      1.397     4.52     845.0761      54.7202     85.29065         5     0.824     0.706 -38.53   0
       159    431.4070    783.9028 307.7323315  +6.3592158     1681.024     2609.587     2662.165     77.57156     154.8959     310.1936      1.644     4.14     847.7825      54.7202     255.3016        19     1.490     0.808 -33.70   0
       160    156.4050    783.0258 307.8465393  +6.3503916     780.4727     1146.017     742.9448     77.32412     155.0813     310.2862      1.554     4.77     845.4833      54.7202     121.4481         9     1.186     0.544 -30.80   0
       161    870.5903    777.5918 307.5501885  +6.3764404     653.3423     811.4307     797.9697     77.32412     155.0813      310.348      1.338     4.27     847.7592      54.7202     125.1604         7     0.879     0.806  32.59   0
       162    595.8505    777.5407 307.6642666  +6.3673239     1021.721     1587.565     1817.094     77.81821     155.2666     310.4406      1.791     4.26     849.1517      54.7202     153.6567        13     1.261     0.764 -33.36   0
       163    677.8651    775.8373 307.6302701  +6.3707575     2384.051     3599.638     3313.701     77.69498     155.2049     310.5023      1.627     4.40     848.7714      54.7202     300.9852        19     1.350     0.922 -32.59   0
       164    146.7754    776.7339 307.8507486  +6.3526672     1003.968     1561.751     1910.211     77.44794     155.2666      310.348      1.693     3.86     845.0359      54.7202     161.0418         9     1.235     0.494 -36.76   0
       165    122.0805    776.5495 307.8610077  +6.3519171     1077.767     1647.385     1860.357     77.81821     155.3283     310.4406      1.740     5.00     844.5573      54.7202     149.6445        15     1.392     0.764 -25.92   0
       166    411.6318    772.5570 307.7409221  +6.3632405     54495.45      81919.6     86044.91     77.32412     155.2666     310.2862      1.646     3.81     847.1707      54.7202     7725.001        76     1.668     1.121 -37.69   0
       167    954.6920    773.9147 307.5153901  +6.3807507     611.5041     903.8687     776.7465     77.57156      155.698     310.5332      1.593     4.93     845.5598      54.7202     89.75781         7     0.968     0.710  84.91   0
       168    529.3239    771.5703 307.6920887  +6.3675725     7420.061     10760.92     10985.34     77.69498     155.3283     310.4715      1.563     3.63     847.9601      54.7202      1020.78        30     1.413     0.950 -37.86   0
       169    446.3144    770.1946 307.7266009  +6.3653729     4487.145     6628.508     7027.566     77.32412     154.9577     310.1627      1.615     3.95     847.2755      54.7202     653.0873        28     1.563     0.893 -32.58   0
       170    774.6471    768.1157 307.5903423  +6.3771648     11566.15     18110.12     18753.02     77.81821     155.2666     310.4715      1.687     3.82     848.3978      54.7202     1479.229        41     1.555     1.090 -35.75   0
       171    422.9485    799.0507 307.7353361  +6.3526794     849.8857     1313.801     1131.616     77.94125     155.1431     310.3788      1.631     4.49      848.419      54.7202     121.8522         8     1.082     0.529 -37.89   0
       172      4.0021    764.1338 307.9104488  +6.3530897     1106.471     1799.471     1871.838      77.2001     153.0288      272.223      1.739     5.63      843.171      54.7202     161.6259        13     1.335     0.694 -27.34  16
       173    442.6190    763.5411 307.7283580  +6.3679967     2420.706     3630.597     4385.166     77.44794     155.1431     310.2553      1.692     3.99     847.0156      54.7202     331.4204        21     1.411     0.878 -24.76   0
       174    796.3423    762.2571 307.5815294  +6.3803049     1341.877     1986.085     2498.272     77.94125     155.3283     310.4715      1.682     5.18     847.8967      54.7202     180.1538        12     1.198     0.651 -40.98   0
       175    132.2815    760.2656 307.8573194  +6.3589815     11888.69     18034.53     19625.01     78.06408     155.4516     310.4406      1.666     3.75     844.1304      54.7202       1660.5        43     1.621     1.015 -36.00   0
       176    140.3936    760.4034 307.8539467  +6.3591960     3148.428     4961.654     5379.388      77.2001     154.9577     310.3171      1.734     3.96       844.23      54.7202     437.2588        23     1.391     0.922 -37.90   0
       177    969.2371    756.5902 307.5099276  +6.3883865     1402.349     2446.052      3021.61     77.32412     155.0813     310.1627      2.116     5.74     844.7227      54.7202     173.7747        19     1.551     0.914 -45.97   0
       178    920.2137    756.6166 307.5302827  +6.3867485      6220.61      9743.37     10257.23     77.57156     154.9577     310.3788      1.715     3.87     846.0426      54.7202     737.5054        35     1.572     1.064 -37.09   0
       179    124.3932    757.5729 307.8606849  +6.3598293     2787.644     4330.691      5018.74     77.32412     155.1431     310.2553      1.680     3.81     843.9644      54.7202     427.7919        20     1.329     0.892 -30.43   0
       180    562.4330    753.5911 307.6789428  +6.3760991     2433.542     3446.312     3484.936     77.32412     155.0813     310.2862      1.559     3.73     847.7687      54.7202     331.2413        19     1.327     0.871 -43.82   0
       181    675.4741    754.4382 307.6319777  +6.3795133     1758.433       2616.5     2882.827     77.69498     155.3283     310.5023      1.643     3.90      848.382      54.7202     234.7071        18     1.289     0.888 -27.78   0
       182    410.5917    753.3069 307.7419987  +6.3711538     1084.711     1642.954     1865.715     77.44794     154.9577     310.2553      1.663     5.13       846.22      54.7202     174.0977        10     1.149     0.648 -39.18   0
       183    124.6475    751.0856 307.8607972  +6.3625163     1925.873     3034.091       3073.8     77.81821     155.2049     310.4406      1.580     3.72     843.7407      54.7202     273.1599        19     1.377     0.819 -35.68   0
       184    974.6434    748.0444 307.5079673  +6.3920944     1759.095      2806.48     3283.648     77.81821     155.2666     310.3171      1.774     4.01     844.3111      54.7202      245.405        18     1.301     0.952 -32.96   0
       185    943.7493    748.0725 307.5207947  +6.3910576     2890.317     4615.642     4218.467     77.81821     155.3283     310.4715      1.720     3.91      845.171      54.7202     333.3134        25     1.396     1.068 -41.04   0
       186    914.3514    748.6594 307.5329821  +6.3898394      2881.82     4433.707     4319.024     77.81821     155.2666     310.5023      1.650     3.93     845.9913      54.7202      362.067        22     1.400     0.914 -34.95   0
       187    666.7437    747.7023 307.6358277  +6.3820039     1486.587     2282.432     2400.446     77.69498     155.2666     310.6566      1.756     4.11     848.2838      54.7202     234.6897        15     1.389     0.704 -46.59   0
       188    813.7377    746.2314 307.5748410  +6.3874999     1151.723     1708.931      1770.88     77.57156     155.3283     310.4097      1.580     4.32     847.2396      54.7202     181.6765        13     1.267     0.776 -22.61   0
       189    889.5278    743.5439 307.5434602  +6.3911273     758.1685      977.155      973.399     77.69498     155.2049     310.4097      1.408     4.72     846.4756      54.7202     111.4008         9     1.097     0.635 -36.17   0
       190    239.1907    743.1108 307.8135070  +6.3696395     1878.604     2859.265     3602.549     77.57156     154.9577     310.2553      1.619     4.25     843.8008      54.7202      298.071        15     1.408     0.669 -32.65   0
       191    932.1887    738.1312 307.5259263  +6.3947785     1100.856     1701.811     1507.199     77.32412     155.0813     310.3171      1.595     3.20      845.246      54.7202     185.9835        12     1.009     0.829 -13.47   0
       192    259.3653    738.5646 307.8052830  +6.3721907     740.9532     1278.512     1371.485     77.57156     155.0195     310.1936      2.000     3.07     843.6555      54.7202     140.2862         6     0.827     0.717   5.24   0
       193    154.8360    737.6866 307.8487131  +6.3690583     703.5152     1330.154     1364.121     77.81821     155.1431     310.4406      1.931     4.83     843.4169      54.7202     100.3704         9     1.195     0.553 -19.11   0
       194    958.7760    735.9387 307.5149592  +6.3965662     2416.577     4039.129     4455.833     77.44794     155.2049      310.348      1.823     4.13      844.443      54.7202     315.1754        27     1.559     0.990 -31.54   0
       195    906.0941    736.7780 307.5368068  +6.3944710     970.4928     1225.442     1218.074     77.81821     155.0813     310.2862      1.379     4.18     845.8952      54.7202     130.6193        11     1.111     0.779 -28.74   0
       196    678.1887    734.8722 307.6315041  +6.3876822     1118.618     1693.036     2307.808     77.32412     154.8959     310.2553      1.774     3.85     848.0264      54.7202     168.1723        12     1.149     0.800 -30.26   0
       197   1000.4378    729.4180 307.4978768  +6.4006407     1728.599     2773.497     2686.378     77.44794     155.1431     310.1936      1.711     4.41     843.2972      54.7202     222.5055        20     1.399     0.945 -41.62   0
       198    468.9236    730.6078 307.7185385  +6.3824716     733.6047     893.8375     853.7502     77.44794     154.7721     310.2553      1.473     5.52     846.0405      54.7202     103.9779         9     1.154     0.745 -16.31   0
       199    399.6685    730.1134 307.7473110  +6.3803653     677.8334     772.8942     906.9174     77.81821     155.5132     310.4715      1.512     3.96     845.0006      54.7202     124.9319         5     0.890     0.505 -40.08   0
       200    626.3485    728.9964 307.6532259  +6.3883826     650.9745     1228.616     1287.591      77.2001     155.0195     310.0082      2.086     4.11     847.7152      54.7202     105.3843         7     1.122     0.429 -34.06   0
       201    801.9317    727.6495 307.5803632  +6.3947797      1211.45     1879.166     1764.131     77.69498     155.2049     310.4406      1.563     3.87      846.733      54.7202     165.1881        13     1.073     0.850 -17.74   0
       202    888.2369    725.0822 307.5446116  +6.3987071     1394.238     2355.009     2528.416     77.81821     155.2666     310.4097      1.775     3.94     846.0217      54.7202     188.0547        18     1.298     0.974 -44.64   0
       203    862.3700    720.3080 307.5555118  +6.3998192     1010.184     1720.545     1851.206     77.94125     155.0195     310.4097      1.951     4.98     846.4777      54.7202     162.0041        13     1.114     0.976 -28.04   0
       204    649.3883    719.5734 307.6439740  +6.3930402     585.1354     847.3123     841.2608     77.44794     155.0813     310.3788      1.577     5.74     847.3387      54.7202     107.2309         7     1.379     0.673  12.79   0
       205    845.2581    716.5195 307.5627436  +6.4008149     1557.537     2432.992     2685.878     77.81821     155.2666     310.4097      1.734     4.29     846.4162      54.7202     216.5183        20     1.423     0.912 -25.57   0
       206     43.9613    715.6537 307.8954883  +6.3744439     2553.345      3683.05     3774.689     77.81821     155.3283     310.4406      1.573     3.83     842.8223      54.7202     329.0737        19     1.291     0.849 -35.08   0
       207    107.7538    714.0284 307.8690563  +6.3772506     798.7402     1843.391     1644.302     77.32412     155.3283      310.348      2.283     7.50     842.7095      54.7202      102.325        16     1.631     0.965  88.34   0
       208    457.1431    713.8645 307.7239906  +6.3889916     489.9948     862.5804     768.3107     77.94124     155.2049     310.4715      1.643     4.28     845.3063      54.7202     82.12463         6     1.140     0.458 -63.39   0
       209    699.1426    707.5963 307.6237144  +6.3996413     557.8356     717.7596     704.5807      77.2001     155.1431     310.1318      1.082     3.36     847.0191      54.7202     102.9558         5     0.773     0.423 -22.62   0
       210    656.6967    704.0156 307.6414592  +6.3997071     6418.095     9530.942     9736.751     77.69498     155.0195     310.2553      1.564     3.60     846.6636      54.7202     949.4265        31     1.450     0.963 -32.63   0
       211    603.5488    703.5446 307.6635439  +6.3981320     1485.878     2152.364     2309.241     77.81821     155.2666     310.4406      1.606     4.42     846.4644      54.7202      211.343        13     1.232     0.748 -30.74   0
       212    524.9376    703.8049 307.6961771  +6.3954054     716.0621     1066.233      1269.06      77.2001     155.0195     310.2245      1.391     4.11      845.646      54.7202     147.7101         8     1.243     0.639 -53.98   0
       213    514.3963    703.6033 307.7005609  +6.3951373     845.3588     1200.296     1239.664      77.2001      154.834     310.2553      1.635     4.86      845.546      54.7202     110.9352        11     1.114     0.734 -43.86   0
       214    993.5936    699.1799 307.5017257  +6.4128988     2551.986     4178.995       4533.8     77.44794     155.0195     310.2553      1.754     4.08     843.3505      54.7202      304.774        25     1.506     0.973 -38.33   0
       215    630.7021    699.7077 307.6523971  +6.4006204     2183.371     3431.238     4033.674     77.81821     155.7595     310.3788      1.735     3.88     846.4034      54.7202     271.4915        17     1.296     0.860 -28.80   0
       216    119.5735    699.9839 307.8646205  +6.3834447     3780.355     5613.711     5802.467     77.44794     155.0813      310.348      1.565     3.67     842.3538      54.7202     565.2615        24     1.446     0.863 -35.63   0
       217    306.2827    699.6974 307.7871058  +6.3898055     666.6671     1160.746      1381.82     77.81821     155.6364     310.5023      1.699     4.52     842.5519      54.7202     134.2905         9     1.344     0.700 -37.42   0
       218    241.9529    699.3349 307.8138289  +6.3878057     739.3467     1035.604     1361.677     77.69498     155.2049     310.5023      1.551     4.63     842.1061      54.7202     106.8049         9     1.075     0.722 -39.95   0
       219    773.5833    696.1107 307.5931870  +6.4068594     20420.67     30566.58     31975.08     77.57156     155.0195     310.3171      1.598     3.65     846.2894      54.7202     2846.186        47     1.512     1.079 -37.88   0
       220    903.5745    695.8295 307.5392178  +6.4112945     3672.826     5598.729     5874.326     77.32412     155.0813     310.3171      1.638     3.77     844.7969      54.7202     447.0293        23     1.380     0.903 -34.70   0
       221    501.4236    696.2764 307.7061928  +6.3977300     1053.174     1484.582     1705.312     77.44794     155.1431     310.4097      1.565     4.42     845.1574      54.7202      156.316        11     1.186     0.849 -39.30   0
       222    472.4030    696.4011 307.7182389  +6.3967108     1361.655     2026.452     1913.104      77.2001      154.834     310.1936      1.567     4.18     844.8611      54.7202     219.4573        12     1.187     0.675 -43.42   0
       223    318.3329    695.8347 307.7822318  +6.3918028     703.6369     978.9445     565.1528     77.69498     155.3283     310.5023      1.470     3.96     842.5928      54.7202     130.4415         8     1.069     0.487 -35.26   0
       224    275.0540    695.8854 307.8002004  +6.3903361     720.5156     908.0458     791.8417     77.81821     155.2049     310.5949      1.318     4.07     842.1157      54.7202     116.3143         7     0.928     0.509 -44.38   0
       225    247.0637    689.8925 307.8120236  +6.3918750     6325.489       9629.9     10108.17     77.81821     155.4516     310.5023      1.566     3.70     841.8149      54.7202     930.0946        31     1.505     0.944 -39.98   0
       226    654.1069    688.9534 307.6430378  +6.4058398     7208.972     10833.99     11903.56     77.69498     155.2049      310.564      1.554     3.61     846.0057      54.7202     1042.217        31     1.434     0.971 -34.94   0
       227    636.4583    690.3232 307.6503205  +6.4046867     943.9283     1617.706     2334.434     77.94125     155.2666     310.3788      2.066     5.22     845.9714      54.7202     160.6142        12     1.381     0.765 -23.39   0
       228    349.6162    688.8000 307.7694781  +6.3957520     829.5028     1138.788     1057.899     77.32412     154.7721     310.1009      1.435     4.08     842.8835      54.7202     155.6038         8     1.005     0.620 -29.23   0
       229    914.3184    681.3054 307.5352405  +6.4176481     1185.019     1888.315     2139.797     77.57156     155.5132     310.5332      1.791     4.57     844.1167      54.7202     143.6181        11     1.055     0.776 -26.70   0
       230    725.7959    677.4753 307.6136527  +6.4129645      3777.63     5848.887     6308.809     77.44794     154.7721      310.348      1.678     3.83     845.8717      54.7202     454.9962        27     1.395     1.015 -44.23   0
       231    680.9908    677.8776 307.6322445  +6.4113077     1072.711     1675.504      1619.86     77.44794     154.7721     310.2862      1.616     3.91     845.6751      54.7202     164.2115        10     0.983     0.771 -47.94   0
       232    992.1826    673.9479 307.5031519  +6.4232700     8243.791     13564.13      14666.7     77.32412     155.3283     310.1936      1.750     3.92     843.2774      54.7202      988.375        42     1.578     1.174 -39.32   0
       233    930.5547    674.4670 307.5287262  +6.4210105     2374.893     3624.151     4268.512     77.81821     155.2049     310.4715      1.757     4.09     843.5221      54.7202     303.3822        20     1.358     0.943 -33.31   0
       234     11.5680    674.0613 307.9103366  +6.3905309     1879.749     3046.343     3590.896     77.57156     155.3283     310.3788      1.797     4.66     842.2233      54.7202     239.1873        20     1.522     0.875 -30.59   0
       235    544.2684    672.5212 307.6891969  +6.4089661     751.0273     901.2151     1230.714     77.94125     155.4516     310.4406      1.464     4.08     844.8433      54.7202     126.5892         6     1.133     0.420 -32.51   0
       236    428.5497    671.6610 307.7372766  +6.4054628     663.5872     1041.234     818.1288     77.81821     155.2049     310.5023      1.397     3.89     843.5447      54.7202     114.5106         6     1.048     0.413 -35.05   0
       237     69.4237    668.9054 307.8864876  +6.3945974     26263.06      39405.3     40965.77     77.94124     155.0195     310.3171      1.604     3.69     841.9441      54.7202     3742.895        53     1.620     1.048 -36.88   0
       238    530.7815    669.8342 307.6948871  +6.4096260     2215.494     3100.653     2859.329     77.32412     155.0813     310.2553      1.439     3.94     844.6201      54.7202     315.5804        17     1.415     0.712 -38.51   0
       239    499.4684    667.2666 307.7079755  +6.4096424     1463.256     2147.322     2016.394     77.81821     155.3283     310.4715      1.514     4.51     844.2133      54.7202     210.5798        12     1.174     0.713 -47.16   0
       240    920.5320    665.9379 307.5331724  +6.4241994      997.987     1179.565     1442.919     77.81821     155.2049     310.4715      1.408     4.98     843.6017      54.7202     120.2657        10     1.101     0.637 -27.99   0
       241    539.9169    663.3701 307.6913099  +6.4125994     1011.724      1413.56     1201.783     77.81821     155.0813      310.348      1.376     4.31     844.5131      54.7202     166.8202         8     1.124     0.539 -44.86   0
       242    715.5759    661.0250 307.6184459  +6.4194166     3650.878     5502.613     5866.438     77.32412     155.0813     310.3788      1.611     3.69     845.4066      54.7202     546.1393        28     1.486     0.942 -34.36   0
       243    737.4765    659.2793 307.6094099  +6.4208659     4283.955     6167.346     6103.032     78.06408     155.5132      310.564      1.552     3.92     845.4785      54.7202     614.9328        24     1.397     0.882 -38.76   0
       244    229.3244    656.9809 307.8204937  +6.4048704     1854.125     2797.984     2642.675     77.44794     155.0195     310.3788      1.560     4.38     840.8726      54.7202     275.4202        18     1.516     0.721 -40.63   0
       245    568.8817    657.1865 307.6794893  +6.4161177     3391.127     4748.875     5205.611     77.44794     155.0195     310.2553      1.473     3.69     844.5455      54.7202     538.9548        18     1.298     0.759 -40.25   0
       246    405.3056    657.6565 307.7473976  +6.4104693      1345.31     2001.187     2428.522     77.69498     155.2666     310.6257      1.615     4.18     842.8379      54.7202     237.4905        13     1.311     0.628 -38.73   0
       247   1010.3045    655.4221 307.4962435  +6.4315203      4755.92     7574.447     7652.255     77.81821     155.0813     310.2862      1.733     3.85     842.8499      54.7202     552.7379        30     1.438     1.095 -36.36   0
       248    975.7849    654.2471 307.5106175  +6.4308603     7714.657     12140.61     12785.52      77.2001     155.0813     310.1936      1.669     3.72     843.0053      54.7202     958.4943        36     1.503     1.109 -40.87   0
       249    352.8271    657.3887 307.7691977  +6.4088282     5994.769      5846.56     6033.034     77.44794     155.0813     310.3171      0.729     1.09     842.0378      54.7202     2615.952         8     0.545     0.506 -55.14   0
       250    312.9485    656.3683 307.7857909  +6.4079177     1552.722     2127.867     2048.352     77.69498     155.3283     310.3788      1.453     4.05     841.4492      54.7202     218.7575        15     1.338     0.684 -32.70   0
       251    529.2042    655.1917 307.6960320  +6.4156191     534.0925     726.1274      735.146      77.2001     154.9577     310.2862      1.722     4.81     844.1866      54.7202     120.1235         7     1.300     0.505 -46.00   0
       252    695.8741    652.8693 307.6268996  +6.4221285     1075.842     1543.956     1472.425     77.94124       155.39     310.4406      1.513     4.98     845.1348      54.7202     163.9272        11     1.200     0.697 -31.39   0
       253     86.9927    651.3069 307.8797841  +6.4024514     805.3236     1473.044     1467.383     77.44794     154.9577     310.2553      1.702     6.12     841.5604      54.7202     120.7314        13     1.500     0.702 -54.02   0
       254    134.1829    647.8229 307.8603067  +6.4054693     24667.15     37072.44     38549.78     77.44794     155.0813      310.348      1.578     3.67     841.2508      54.7202     3636.193        50     1.601     1.004 -37.10   0
       255    421.0983    648.6710 307.7411408  +6.4147062     2774.166     4552.148     5053.796     77.69498     155.4516     310.4406      1.702     3.96     842.8182      54.7202     447.6742        19     1.450     0.762 -39.23   0
       256    802.4949    648.3527 307.5827751  +6.4275392     1346.076     1961.905     1932.014     77.69498     155.1431      310.564      1.674     4.24     844.5699      54.7202     189.4067        11     1.184     0.618 -37.75   0
       257    353.5827    642.8763 307.7693703  +6.4148452     761.1661     996.6852     1008.529     77.32412     155.0195     310.3788      1.410     4.81     841.6305      54.7202     106.4343         9     1.131     0.581 -25.53   0
       258    970.5371    637.2273 307.5133636  +6.4377134      6415.85     11109.85     12107.01     77.44794     155.2049     310.3788      1.889     3.79     842.7462      54.7202     794.3459        42     1.526     1.356 -26.12   0
       259     15.5091    636.5761 307.9099609  +6.4061393     1105.666     1609.704     1114.963     77.81821     155.0813     310.2862      1.434     4.74     841.6135      54.7202     154.8411        11     1.232     0.598 -44.10   0
       260   1023.6885    633.0123 307.4914317  +6.4412170     18795.78     23311.86     24400.72     67.10758     122.6514     233.1671      1.106     2.81     842.3163      54.7202     5520.224        28     1.487     0.569 -89.80  24
       261    564.2128    632.5333 307.6822526  +6.4261410     49895.77     73507.92      76876.3     77.32412     155.0813      310.348      1.566     3.63     843.9123      54.7202     7490.315        70     1.618     1.076 -39.22   0
       262    928.5400    633.6323 307.5309237  +6.4378039     696.9831     847.3668     926.7802     77.57156     155.3283     310.3788      1.379     2.89       842.98      54.7202     141.2113         6     0.883     0.430 -70.95   0
       263    207.4770    633.6597 307.8303482  +6.4137686     522.4395     801.3179     788.6403     77.94125     155.3283     310.4097      1.416     4.36      840.541      54.7202     75.60712         7     1.019     0.532 -29.65   0
       264    523.2218    632.8525 307.6992637  +6.4246431     700.4187     884.1344     1062.952     77.32412     155.2666     310.2553      1.441     4.60     843.5432      54.7202     114.0329         8     1.192     0.504 -36.01   0
       265    171.6873    629.2988 307.8453558  +6.4143721     2619.226     3896.508     4119.113     77.81821      155.698     310.4715      1.559     3.89     840.8179      54.7202     402.2707        20     1.409     0.782 -42.40   0
       266    494.6496    629.0692 307.7112550  +6.4252527     636.9943     732.8923     653.1159     77.81821     155.2049     310.4715      1.463     4.84     843.2697      54.7202     93.46637         8     1.208     0.550 -44.90   0
       267     64.3032    623.7995 307.8901299  +6.4130487     1393.199     2195.132     2345.644     77.32412     154.8959     310.0082      1.634     4.17     841.1846      54.7202     206.7819        15     1.402     0.743 -40.82   0
       268    461.4671    616.3603 307.7254597  +6.4293933     66568.41     96574.15     101164.9     77.69498     155.2049     310.5332      1.590     3.62     842.5678      54.7202      10318.4        78     1.620     1.096 -39.46   0
       269      5.0813    617.8803 307.9149195  +6.4135088     1734.821     2648.929     2886.785     77.94125     155.5132     285.2513      1.663     3.85     841.3586      54.7202      265.211        18     1.329     0.820 -40.07  16
       270    647.4606    613.4905 307.6483196  +6.4367760     955.6116     1297.007     1702.873     77.69498       155.39     310.5023      1.689     4.43     844.1709      54.7202     141.9375         8     1.234     0.453 -35.65   0
       271    135.9001    611.4203 307.8608164  +6.4205563     1695.856     2280.047     1713.307     77.81821     155.1431     310.2245      1.406     3.79     840.7879      54.7202     242.7123        15     1.266     0.741 -37.44   0
       272    415.2404    608.9703 307.7449032  +6.4309023      987.395     1565.826     1958.155     77.32412     155.0813     310.3171      1.611     5.46     841.6132      54.7202     130.6212        15     1.496     0.757 -35.13   0
       273    607.3210    607.9879 307.6651723  +6.4377114     883.7585     1332.289     989.9814     77.44794     154.9577     310.2862      1.814     4.90     844.0248      54.7202      160.866         9     1.299     0.523 -28.39   0
       274    306.6523    605.8161 307.7901005  +6.4285791     2249.254      3598.99     3289.013     77.32412     155.3283     310.1627      1.678     4.14      840.476      54.7202     334.9249        21     1.541     0.838 -39.41   0
       275      8.1311    607.1077 307.9140155  +6.4180586     707.4452     1045.754     1455.186     77.81821       155.39     309.5132      1.460     4.34     841.1979      54.7202     116.6017         5     0.816     0.657 -44.62   0
       276    458.9563    604.1605 307.7269108  +6.4343466     1007.368     1417.034     1738.123     77.57156     155.2666     310.3171      1.370     4.62     842.1756      54.7202     164.4392         9     1.161     0.526 -25.81   0
       277    733.4637    599.8582 307.6130604  +6.4452665     5331.722     7956.041      8567.53     77.94125     155.2049     310.4715      1.620     3.85     844.1828      54.7202     740.6511        28     1.483     0.912 -34.63   0
       278    787.0555    595.0664 307.5909650  +6.4490271     14279.73     21012.96     22503.63     77.94125     155.1431     310.4406      1.541     3.59     843.3176      54.7202     2073.919        47     1.519     1.077 -38.94   0
       279   1004.4368    595.4074 307.5006787  +6.4561051     1057.708     1869.067     2113.493     77.07589     155.0813     310.1936      2.027     5.40     841.3494      54.7202     135.8728        14     1.385     0.776 -43.56   0
       280    529.4781    595.2225 307.6979248  +6.4403884     1215.314     2022.037      1966.02     77.44794     155.0813     310.4097      1.684     4.18     842.3856      54.7202     196.6256        14     1.345     0.681 -27.21   0
       281    610.9525    593.2075 307.6641584  +6.4439349     2934.022     4241.749     4355.619     77.32412     155.0813       310.07      1.521     3.89     843.4977      54.7202     444.7382        20     1.354     0.855 -40.39   0
       282     31.8731    594.3040 307.9045876  +6.4241402     654.4403     956.6562     1107.975     77.57156       155.39     310.4097      1.497     3.90      840.983      54.7202     111.2756         6     0.954     0.458 -38.68   0
       283    927.8993    589.2610 307.5326685  +6.4561031     1186.881     1595.543      2629.73     77.57156     155.2049      310.564      1.478     4.66     842.0498      54.7202     149.8372        14     1.248     0.763 -46.23   0
       284    223.4187    586.9913 307.8252950  +6.4335697     1361.821     2010.408     2283.242     77.57156     154.9577     310.2553      1.599     5.47     839.4838      54.7202      202.751        13     1.397     0.643 -43.36   0
       285    187.1910    588.0054 307.8403046  +6.4319395     648.7137     927.7144     1671.259      77.2001     155.0195     310.2862      1.607     3.85     839.9814      54.7202     97.52771         6     0.949     0.449 -50.16   0
       286    369.4031    586.8651 307.7646782  +6.4384991     986.0929     1314.165     1004.025      77.2001     155.0195     310.2245      1.436     4.04     840.0276      54.7202     176.2214         9     1.104     0.544 -27.34   0
       287    353.8129    586.6764 307.7711586  +6.4380565     644.9451     722.9489     710.9059     77.44794     154.8959     310.2553      1.216     2.87     839.7795      54.7202      127.308         5     0.737     0.442  15.19   0
       288    863.0234    578.2422 307.5599780  +6.4584982     2829.422     4467.625      4702.69     77.44794     155.1431     310.2245      1.659     3.41     842.2487      54.7202       380.35        25     1.432     0.962 -51.16   0
       289    157.7355    578.3937 307.8528587  +6.4349226      687.571     1101.719     548.9557     77.32412     155.0195     310.2245      1.617     4.62     840.1207      54.7202     106.3046         8     1.137     0.534 -37.91   0
       290    821.6761    575.8662 307.5772283  +6.4581054     2496.625     3881.236     4173.845     77.94125     155.3283     310.4097      1.695     4.00     842.6763      54.7202     318.6211        22     1.445     0.887 -36.18   0
       291    792.7495    571.7320 307.5893791  +6.4588509      2555.31      3772.14     4951.486     77.69498     155.1431     310.3788      1.706     3.99     842.9545      54.7202     359.6221        19     1.343     0.820 -36.62   1
       292    249.8249    570.8229 307.8148723  +6.4411279     8086.928        12226      12898.9     77.32412     155.1431     310.4097      1.600     3.65     839.1705      54.7202     1140.098        34     1.509     0.942 -36.78   0
       293    802.4321    566.9602 307.5855173  +6.4611430     161406.4     238114.3       250416     77.44794     155.0813     310.3171      1.589     3.66     842.8273      54.7202     22527.04       120     1.654     1.219 -39.65   0
       294    735.3799    571.9518 307.6131966  +6.4568524     684.4805     914.2399     1299.801     77.32412     155.2666     310.2553      1.355     4.46     843.3934      54.7202     111.7391         6     0.909     0.622 -51.21   0
       295    184.0398    565.4482 307.8423705  +6.4411473     59644.59     88947.63     94627.59     77.69498     155.2666     310.3171      1.599     3.70     839.5704      54.7202     8446.375        80     1.667     1.146 -37.11   0
       296    107.9804    561.6523 307.8740821  +6.4401695     6366.289     9674.673     10144.37     77.32412     155.3283     310.2553      1.593     3.77     839.7889      54.7202     884.3336        31     1.484     0.958 -34.06   0
       297    973.2375    558.9224 307.5148509  +6.4701344     1238.184      1938.35     1751.481     77.69498     155.3283     310.4406      1.643     4.26     840.2986      54.7202     178.7514        14     1.390     0.666 -49.36   0
       298    993.9276    558.3242 307.5062782  +6.4710678     648.7078     902.2949      790.021     78.06408     155.5132     310.4406      1.566     4.80     839.8559      54.7202     110.6668         9     1.119     0.889 -49.00   0
       299    222.2287    557.2310 307.8267881  +6.4458171     777.0117     1322.359     1603.812     77.32412     155.0195     310.1936      1.526     5.14     838.9645      54.7202     146.9489        10     1.518     0.528 -54.50   0
       300    838.9256    554.3696 307.5707819  +6.4675543     4396.379     6456.291     6318.826     77.69498     155.2666     310.4715      1.561     3.76     841.9594      54.7202     610.6276        23     1.401     0.845 -40.20   0
       301    357.4358    552.5036 307.7707996  +6.4522866     18129.15     26285.47     27378.43     77.81821     155.1431     310.5949      1.582     3.63     838.5533      54.7202     2752.758        44     1.550     0.972 -37.19   0
       302    447.7531    552.3721 307.7332975  +6.4553553     970.2869     1183.229     1087.418     77.44794     155.3283     310.3788      1.241     3.43     840.0198      54.7202     157.8868        10     0.972     0.765 -65.26   0
       303    159.2534    551.4500 307.8531334  +6.4460976     2028.601     2695.074     3360.966     77.94125     155.2049     310.4715      1.691     3.82     839.5609      54.7202     305.7719        16     1.264     0.769 -35.30   0
       304    523.7980    547.3917 307.7018843  +6.4599475     6753.249     9886.202     10322.91      77.2001     154.9577     310.2245      1.551     3.51     840.5309      54.7202     1045.242        34     1.497     0.982 -38.70   0
       305    234.5167    549.2545 307.8219531  +6.4495212      1075.07     1484.565      1520.42     77.81821     155.2666      310.564      1.557     4.39     838.7177      54.7202     146.4373        10     1.127     0.636 -39.99   0
       306    792.9843    547.5543 307.5900886  +6.4688413     5902.039     8879.938     9303.097     77.32412     155.0813     310.1936      1.591     3.66     842.6691      54.7202     833.1462        31     1.496     0.949 -35.84   0
       307     96.6612    548.7422 307.8792163  +6.4451208     995.9979     1532.295     1666.964     77.94125     155.2049     310.4715      1.679     5.64     839.5194      54.7202     152.0615        12     1.333     0.782 -33.30   0
       308    382.2997    544.1424 307.7607545  +6.4565689      1542.06     2448.507     2708.728     77.57156     155.2666     310.6566      1.792     4.19      838.624      54.7202     218.4598        15     1.362     0.839 -36.98   0
       309    568.6785    540.4714 307.6834776  +6.4643005     2416.479     3728.428     4242.271     78.06408     155.5132     310.4097      1.715     4.42     840.8204      54.7202     355.4001        21     1.524     0.783 -27.47   0
       310    266.0157    537.0064 307.8092836  +6.4556310     89552.65     132745.3     139366.7     77.44794     155.0195     310.2862      1.550     3.64     837.9818      54.7202     13974.45        88     1.649     1.121 -38.14   0
       311    170.6981    540.6531 307.8487435  +6.4509382     6885.247     10056.56      10201.8     77.69498     155.2666     310.6566      1.569     4.06     839.1485      54.7202     954.1391        28     1.447     0.860 -33.80   0
       312     42.4545    539.3233 307.9020426  +6.4471943     5136.462     7850.825      7878.51     77.94125     155.2666     310.4406      1.654     3.95     840.2443      54.7202     731.5444        30     1.410     1.103 -33.35   0
       313    851.8280    540.5385 307.5658850  +6.4736937     677.0419      926.754     1236.409     77.44794     155.2666     310.4097      1.582     5.04     841.3396      54.7202     112.7562         6     1.155     0.623 -60.08   0
       314    809.7828    539.7355 307.5833731  +6.4726280     1393.668     1951.671     1868.703     77.32412     155.2049     310.3171      1.497     4.81     842.2191      54.7202     194.8339        13     1.196     0.737 -46.37   0
       315    555.7199    534.1902 307.6890693  +6.4664620     846.2125     1223.229     1489.839     77.44794     154.8959     310.3171      1.441     3.82     840.4534      54.7202     164.4714         8     1.068     0.494 -36.02   0
       316    249.6353    532.2259 307.8162463  +6.4570573     1477.997     1991.999      1895.13      77.2001     155.0813     310.2245      1.535     4.10     837.8475      54.7202     247.5675        11     1.198     0.598 -44.42   0
       317    789.1367    529.3654 307.5922936  +6.4762234     16551.47     24211.36     25222.59     77.69498     155.3283     310.4406      1.559     3.65      841.929      54.7202      2371.92        44     1.517     1.015 -40.54   0
       318    965.4445    530.6586 307.5190290  +6.4815456     1584.525     2446.388     2522.358     77.69498     155.2049      310.564      1.628     3.40     839.6978      54.7202     237.3756        13     1.046     0.797 -44.35   0
       319    492.8239    527.8062 307.7154029  +6.4670013     41306.16     66118.29     70847.61     77.32412     155.0195     310.3171      1.722     3.74     839.5101      54.7202     5905.263        80     1.740     1.249 -27.74   0
       320    643.5226    526.1513 307.6528743  +6.4727058     937.6414     1443.469     1409.234     77.69498     155.3283     310.4406      1.642     6.20     841.2565      54.7202     128.5547        13     1.434     0.754 -52.50   0
       321    253.4479    524.3922 307.8149259  +6.4604190     506.7932     785.2239     1000.938     77.32412     155.1431     310.1009      1.634     4.67     837.4206      54.7202     79.77271         7     1.377     0.449 -46.32   0
       322    205.1858    524.2103 307.8349740  +6.4588805      1933.95     2744.467     2536.837     77.57156     155.0195     310.3788      1.492     3.76     837.8953      54.7202     274.1196        19     1.369     0.833 -31.99   0
       323     40.9993    524.4021 307.9031486  +6.4533060     1184.205     1829.742      1991.79      77.2001      154.834     310.1318      1.600     3.59     839.6963      54.7202      194.142        13     1.066     0.859 -44.26   0
       324    662.9312    522.7177 307.6449288  +6.4747696     1482.301     2173.757     2257.235     78.06408     155.5132     310.4715      1.551     4.70     841.3148      54.7202     214.2562        15     1.369     0.750 -35.43   0
       325    652.6762    522.8356 307.6491837  +6.4743796     3221.379     4415.413     4686.615     77.69498     155.3283     310.4715      1.490     3.82     841.2234      54.7202      444.539        19     1.355     0.740 -40.25   0
       326     91.5903    524.1574 307.8821483  +6.4551013     536.4484     797.0881     1070.486     77.32412     155.0813     310.1936      1.523     2.34     839.0116      54.7202     110.9438         5     0.712     0.441 -67.09   0
       327    714.6383    521.7799 307.6234862  +6.4768776     1302.285     1868.466      2077.72     77.44794     155.0813     310.1936      1.466     4.14     841.5339      54.7202     171.7288        16     1.407     0.743 -41.31   0
       328    390.4450    518.4731 307.7582322  +6.4674390     1945.732     2767.575     3145.272     77.69498     155.3283     310.4715      1.612     3.97      837.654      54.7202     305.4478        18     1.390     0.758 -40.18   0
       329     69.8203    519.5753 307.8913427  +6.4562641     547.7269     1319.837     1341.516     77.44794     155.0813     310.3788      2.316     5.94     839.1857      54.7202     97.61139         8     1.662     0.598  24.02   0
       330    321.8268    516.8761 307.7867817  +6.4658071     4067.246     5977.162     5614.617     77.69498     155.2049     310.4097      1.519     3.78     836.8623      54.7202     592.1399        23     1.484     0.809 -36.62   0
       331    137.0847    515.4225 307.8635495  +6.4602305     26529.39     38992.72     40668.73     77.69498     155.0195      310.348      1.565     3.66     838.3823      54.7202     3686.198        52     1.571     1.021 -33.75   0
       332    865.2273    515.4584 307.5611568  +6.4844941     1561.469      2138.26     1684.531     77.44794     155.3283     310.3171      1.502     3.54     840.4697      54.7202     235.7096        15     1.158     0.876 -43.08   0
       333    501.8171    516.1786 307.7120574  +6.4721019     2274.216     2975.834     3674.537     77.57156     155.0195     310.3788      1.427     4.01     839.0914      54.7202     343.5292        15     1.259     0.701 -31.15   0
       334    102.3920    513.6832 307.8780148  +6.4597874     2729.657     4144.479     4146.024     77.44794     154.9577     310.2862      1.637     3.87     838.6649      54.7202     407.1166        20     1.450     0.783 -31.31   0
       335    338.5196    512.0983 307.7800097  +6.4683373     974.1223     1552.099     1796.478     77.69498     155.6364     310.5023      1.793     5.66     836.6257      54.7202     167.4095        11     1.516     0.595 -21.71   0
       336    962.7130    509.7436 307.5208603  +6.4900905     5008.372     7574.849     7311.231     77.81821     155.2666      310.564      1.608     3.66     839.3862      54.7202     657.6527        30     1.435     0.982 -33.54   0
       337    535.7711    502.6574 307.6984091  +6.4788165     1557.583     2165.206     2657.873     77.44794     155.3283      310.348      1.494     4.05     839.3723      54.7202     239.8549        14     1.334     0.658 -40.79   0
       338      2.0319    499.4971 307.9201681  +6.4622828     22633.01     27913.56     28501.34     75.44247     133.3557     244.9901      1.319     3.43     839.0295      54.7202     3760.635        37     1.282     0.950 -63.26  24
       339    434.1193    496.4865 307.7408314  +6.4779744     44274.68     64618.16     67654.86     77.57156     155.5132      310.564      1.537     3.58     837.4111      54.7202     6493.853        62     1.568     1.039 -36.47   0
       340    642.1622    496.1704 307.6544415  +6.4850391     12663.27     18290.78     19086.31     77.44794     155.0195     310.3171      1.527     3.61     840.0847      54.7202     1953.742        38     1.486     0.934 -37.62   0
       341    281.8749    496.8430 307.8040451  +6.4727434     996.4429     1565.343     1592.224     77.69498     155.3283     310.4715      1.544     4.74     835.9425      54.7202     158.6606         9     1.231     0.518 -29.76   0
       342    199.2818    494.0668 307.8384379  +6.4711284     18854.58     29618.95     31591.79     77.94125     155.5132     310.5023      1.670     3.64     836.5204      54.7202     2588.238        54     1.605     1.175 -28.03   0
       343    164.9849    494.9774 307.8526501  +6.4696052     1613.057     2483.638     2169.153     77.57156     155.0813      310.348      1.616     4.22     837.2482      54.7202     262.7382        15     1.412     0.700 -33.28   0
       344    976.3802    494.3067 307.5156985  +6.4969178     977.3442     1577.643     1902.074     77.69498     155.0813     310.2862      1.929     4.88     838.9774      54.7202     136.8212        13     1.282     0.773 -38.64   0
       345    904.3674    493.8361 307.5456224  +6.4947217     709.3321     922.7761     1489.501     77.44794     155.0195     310.1936      1.478     4.49     839.6901      54.7202      121.054         8     1.124     0.510 -33.23   0
       346    816.5220    493.7867 307.5821077  +6.4918237     882.2565     1300.875     1240.831     77.44794     154.9577     310.2553      1.396     3.62     840.2902      54.7202     148.6722         8     1.065     0.526 -53.23   0
       347    563.8716    492.7888 307.6870691  +6.4838276     2897.219     4177.203     4097.431     77.32412     154.8959     310.2553      1.506     3.37     839.4574      54.7202     461.6874        20     1.332     0.888 -38.01   0
       348    937.8895    489.9551 307.5318294  +6.4974371     4723.702     7036.061     7184.221     77.81821     155.2049     310.5332      1.577     3.78     839.3065      54.7202     642.2413        22     1.342     0.894 -40.47   0
       349    610.9368    488.4597 307.6676675  +6.4871829     6702.497     9633.938     9702.112     77.81821     155.2049     310.4715      1.502     3.72     839.4734      54.7202     998.0526        30     1.485     0.872 -38.06   0
       350     98.4230    489.3225 307.8804818  +6.4697122     1155.116     1496.339     1067.879     77.44794     155.0813     310.3788      1.440     4.18     838.1082      54.7202     192.2343        12     1.293     0.633 -28.11   0
       351    509.8071    487.8245 307.7096883  +6.4840751     662.0803     1141.104     803.6485     77.32412     155.1431     310.2862      1.889     4.00     838.1166      54.7202     116.0306         6     0.801     0.571  27.84   0
       352    960.4866    482.3311 307.5226985  +6.5013349     3429.001     4850.303     5323.948     77.94125     155.5132     310.4715      1.550     3.66     838.9456      54.7202     463.3474        24     1.409     0.915 -33.70   0
       353    399.1943    481.2276 307.7558468  +6.4831089     813.9855     1104.621     1437.803     77.32412     155.0813     310.2553      1.602     5.35     836.3082      54.7202     119.4417         9     1.185     0.682 -36.96   0
       354    523.1592    479.7120 307.7044147  +6.4878698     7765.308      11339.3     12197.66     77.81821     155.2049     310.4715      1.527     3.56     838.2584      54.7202     1180.513        30     1.486     0.885 -36.40   0
       355    369.0452    479.9422 307.7684108  +6.4826331     2811.597     4049.443     4399.174     77.81821     155.2666     310.5332      1.503     3.55     835.5304      54.7202     438.9996        24     1.467     0.862 -37.25   0
       356    738.7043    479.9811 307.6148875  +6.4949363     549.4609     727.4496     351.1171     77.69498     155.0813     310.2245      1.437     3.69     839.7522      54.7202     109.6469         5     1.258     0.312 -40.13   0
       357    879.5707    475.6226 307.5565284  +6.5014183     3016.942     4594.115     5340.743     77.32412     155.0813     310.2862      1.648     3.88     839.2781      54.7202     426.4122        20     1.367     0.824 -32.91   0
       358    532.1064    476.5951 307.7008032  +6.4894549     825.9341      1078.25      1426.21     77.44794     154.9577     310.1936      1.726     3.76     838.4302      54.7202     135.6075         8     1.099     0.597 -19.13   0
       359    227.6855    475.0481 307.8272807  +6.4799305     597.1183     900.4613     1028.856     77.81821     155.2049     310.4406      1.522     2.78     835.1461      54.7202     109.5945         5     0.787     0.470 -35.86   0
       360    886.8754    469.9640 307.5536833  +6.5039973     2270.562     3207.303     3615.374     77.69498     155.3283     310.4715      1.486     3.50     838.8659      54.7202     382.9514        18     1.280     0.790 -35.96   0
       361    926.1416    469.3864 307.5373943  +6.5055396     1227.969     1876.953     1729.698      77.2001     155.2049     310.1627      1.719     5.25     838.5474      54.7202     190.3578        14     1.405     0.663 -36.84   0
       362    105.5360    469.3648 307.8781987  +6.4781902     747.6868     995.6402     918.9818     77.69498     155.2666     310.4406      1.309     4.26     837.3807      54.7202     114.8857         7     0.949     0.546 -28.64   0
       363    710.8991    466.0019 307.6269024  +6.4997831     3241.301      4653.17     4775.639     77.32412     155.0195     310.1318      1.473     3.48     838.8722      54.7202     524.8203        24     1.371     0.882 -38.62   0
       364    264.9856    468.1155 307.8120230  +6.4840398     598.6196     927.6105     1226.862     77.44794     155.0195     310.3171      1.436     3.94     834.8827      54.7202       91.086         6     0.998     0.446 -37.98   0
       365     72.6837    464.9834 307.8919890  +6.4788991     2202.816     3339.331     3565.374     77.44794     154.9577      310.348      1.620     3.98     837.5545      54.7202     301.6334        19     1.386     0.795 -41.36   0
       366    422.0014    464.4503 307.7469372  +6.4907970     1004.107     1348.041     1760.193      77.2001     154.8959     310.0391      1.571     5.01     835.9786      54.7202     146.9319        11     1.484     0.513 -32.97   0
       367    381.7292    464.1505 307.7636724  +6.4895766     3794.459     5532.223     5214.823     77.81821     155.2049     310.4715      1.537     3.78     835.3187      54.7202     559.2328        24     1.430     0.859 -33.65   0
       368    609.5682    460.7293 307.6691632  +6.4985867     10312.87     14925.36      15559.4     77.69498     155.2666     310.4406      1.572     3.71     838.1089      54.7202      1526.12        35     1.465     0.961 -39.96   0
       369    772.5875    456.9120 307.6015854  +6.5055881     16252.76     24196.82      27115.9     77.44794     155.0195     310.3171      1.649     4.42      838.524      54.7202     2489.562        58     2.157     0.981 -47.23   0
       370    292.0578    457.6438 307.8011313  +6.4892680      2883.85     4007.551     3969.829     77.69498     155.2049     310.5332      1.483     3.77     834.5717      54.7202     392.9292        20     1.280     0.846 -32.15   0
       371    415.8468    456.8928 307.7497465  +6.4937119     773.3314     1184.878     1425.451     77.69498     155.2049      310.564      1.514     3.97     835.6397      54.7202     112.0943         7     0.922     0.610 -19.59   0
       372    801.1871    454.3942 307.5897914  +6.5075785     1358.327     1879.646     1951.858     77.44794     155.0813     310.3171      1.562     3.91      838.574      54.7202     225.9847        12     1.189     0.651 -41.50   0
       373    375.2098    454.1176 307.7667163  +6.4935012     1481.302     2145.527      2198.05     77.44794     154.8959     310.2862      1.462     3.72     834.8799      54.7202     281.9556        11     1.176     0.585 -27.62   0
       374    957.5277    452.2080 307.5249312  +6.5136742     1878.144     2779.467     2744.994     77.32412      154.834      310.348      1.594     3.84     837.3997      54.7202     266.5243        17     1.270     0.848 -44.57   0
       375    109.6202    449.3367 307.8771757  +6.4865959     4517.231     6773.307     7353.672     77.44794     155.2666     310.3171      1.634     3.87     836.6746      54.7202     665.4337        27     1.506     0.871 -31.78   0
       376    363.7894    449.9350 307.7715995  +6.4948468     765.5538     1009.785     860.1061     77.32412     155.0813      310.348      1.475     5.26     834.6059      54.7202     118.0629        11     1.293     0.604 -26.45   0
       377   1011.6003    446.9083 307.5026495  +6.5176566     3668.942     6574.534     6922.595     77.07589     154.7721     310.1318      1.855     4.43     836.7729      54.7202      401.232        32     1.532     1.175 -17.14   0
       378    747.9167    447.9981 307.6121295  +6.5084480     2428.091      3470.55     3969.731      77.2001     154.8959     310.1627      1.508     3.77      837.809      54.7202     311.2169        20     1.363     0.829 -47.22   0
       379    267.4024    446.4129 307.8117476  +6.4930809      1586.35     2240.343     2702.208     77.44794     154.9577     310.2862      1.551     3.35     834.3182      54.7202     267.0693        13     1.185     0.708 -26.43   0
       380    345.5935    444.0511 307.7793536  +6.4966685      3336.06     4854.823     4597.714     77.32412     155.0813     310.1009      1.540     3.88     834.3063      54.7202     499.5125        22     1.404     0.817 -32.92   0
       381    701.4305    441.7437 307.6316454  +6.5094838     1690.797     2513.613     2626.691     77.69498     155.3283     310.3788      1.535     3.65     837.3777      54.7202     267.0812        15     1.270     0.723 -39.95   0
       382    975.5624    440.2118 307.5178406  +6.5192258     623.4324     924.0413     658.6302     77.32412     155.0813     310.1318      1.658     5.54     836.6459      54.7202     101.4678         8     1.422     0.609 -21.10   0
       383    233.6983    439.7580 307.8259683  +6.4947018     879.1283      1159.37     1339.017     77.81821     155.1431     310.6566      1.442     3.51     834.2546      54.7202     152.3311         8     1.039     0.691 -40.16   0
       384    543.1339    434.2313 307.6976412  +6.5073137     926.5552     1423.841     1300.352     77.57156     155.3283     310.3788      1.442     5.15      836.559      54.7202     137.2204        10     1.344     0.573 -37.14   0
       385    444.2080    435.3772 307.7386886  +6.5035416     608.0197     625.5261     299.0839     77.44794     155.0813     310.2553      1.318     4.11     834.6488      54.7202     107.7142         6     0.947     0.511 -44.44   0
       386    465.1880    432.8104 307.7300612  +6.5053013     1461.673     2061.516     2527.604     77.57156     155.0813     310.4097      1.552     4.09     834.5586      54.7202     221.7652        13     1.302     0.679 -36.19   0
       387    813.5312    430.8285 307.5854510  +6.5177188     1923.924     2777.663     2577.094     77.57156     155.2666     310.3788      1.535     4.17     837.3237      54.7202     263.6206        17     1.369     0.800 -39.71   0
       388    827.8262    431.7743 307.5794822  +6.5178034     1601.795     2380.357     2787.426     77.32412     155.0813     310.3171      1.537     3.83     837.1693      54.7202     236.9431        14     1.165     0.726 -37.11   0
       389    710.7494    428.9702 307.6282018  +6.5150679     15602.58     22478.93     23302.77     77.44794       155.39      310.348      1.531     3.66     836.5453      54.7202     2373.493        40     1.504     0.938 -39.26   0
       390    612.8750    430.9118 307.6687870  +6.5110079     817.3777     1274.842     1701.344     77.81821     155.5748     310.5332      1.594     4.81      836.499      54.7202     132.0266         8     1.317     0.499 -26.69   0
       391    631.8118    425.0379 307.6611185  +6.5140638     2749.711     4017.849      4713.78     77.32412     155.0813     310.1318      1.523     3.76     836.2366      54.7202     417.8565        19     1.308     0.796 -41.89   0
       392    704.7573    423.7034 307.6308665  +6.5170431     714.9276     998.4202     1730.734     77.81821     155.2049     310.5949      1.395     4.08      836.244      54.7202     113.5209         7     1.364     0.349 -42.95   0
       393    607.0051    421.9957 307.6715231  +6.5144937     5541.258     8215.436     9014.471      77.2001     154.8959     310.3171      1.498     3.66     835.9968      54.7202     901.4672        24     1.430     0.814 -35.40   3
       394    603.2545    419.4604 307.6731657  +6.5154155     15278.33     22249.48     23304.06     77.94125     155.2049     310.4097      1.562     3.54     835.8346      54.7202     2363.284        39     1.519     0.958 -38.33   3
       395    936.1401    418.7234 307.5349304  +6.5267897     3730.966     5706.251     5622.103     77.94125     155.3283     310.4097      1.619     3.75     835.7607      54.7202     519.0278        24     1.393     0.909 -41.70   0
       396    375.1504    414.8308 307.7680580  +6.5097198      30073.5     44111.82     46055.73     77.44794     155.3283      310.348      1.536     3.44     833.6472      54.7202     4814.868        54     1.552     1.032 -37.81   0
       397    891.6917    414.7263 307.5535251  +6.5269642     1440.354      2410.55      2924.95     77.81821       155.39     310.4715      1.822     4.78      835.651      54.7202     209.2446        14     1.409     0.744 -40.64   0
       398    412.1743    416.4584 307.7526266  +6.5102837     639.2463         1089     863.7692     77.44794     155.2666     310.2862      1.760     3.97     833.7591      54.7202     107.5275         7     0.969     0.483  -8.37   0
       399    121.2814    414.3746 307.8735079  +6.5014210      2561.44     3814.508     4061.527     77.57156     155.0195     310.4097      1.618     3.78     835.4835      54.7202     357.5109        22     1.428     0.876 -42.21   0
       400    904.8573    409.3142 307.5482373  +6.5296360     5046.655     7590.499     8042.368     77.81821     155.2666     310.5949      1.602     3.85     835.5355      54.7202     718.5961        27     1.461     0.944 -42.19   0
       401    888.1858    411.6192 307.5550849  +6.5281306     567.6125     1083.592     1236.729     77.57156     155.0195      310.348      1.878     3.54     835.5933      54.7202     83.81885         5     0.824     0.438 -17.46   0
       402     54.5619    409.8894 307.9013674  +6.5010386     1596.729     2561.945     3031.221     77.81821     155.2049     310.4715      1.792     4.16     836.4199      54.7202     219.7059        15     1.289     0.770 -37.86   0
       403    586.6381    410.0532 307.6803817  +6.5187461     614.5338     627.4416     649.7404     77.69498     155.3283     310.4406      1.293     5.03     835.2596      54.7202     88.82208         8     1.057     0.676 -52.91   0
       404    960.8085    406.8489 307.5250803  +6.5325114     601.2521      1151.74     1191.549     77.32412     155.0813     310.1318      1.866     4.30     835.2175      54.7202       89.617         7     1.359     0.388 -33.25   0
       405    232.7111    405.4355 307.8275305  +6.5088396     14310.21      20997.2     21615.84     77.81821     155.2049     310.4406      1.576     3.58     833.5063      54.7202     2124.192        42     1.517     1.018 -36.51   0
       406     67.9915    399.8524 307.8961276  +6.5056324     882.8387      1358.32      1811.39     77.32412     155.1431     310.1627      1.635     5.57     836.0416      54.7202     136.5627        12     1.439     0.607 -23.70   0
       407    727.9609    398.9771 307.6220553  +6.5280242     767.3713     1138.831     1816.692     77.44794     155.0195     310.2553      1.432     3.20     835.2219      54.7202     115.7906         7     0.853     0.546 -40.78   0
       408    695.2270    398.4225 307.6356696  +6.5271640     797.2741     1214.658     1243.319     77.32412     155.0813     310.3788      1.603     4.40     835.2365      54.7202     137.0018         9     1.351     0.791 -31.85   0
       409    956.2325    397.1801 307.5273032  +6.5363516     1108.424     1624.942       1646.2     77.32412     155.0813     310.2553      1.540     4.23     834.9768      54.7202     158.5895        12     1.238     0.657 -31.94   0
       410    345.6882    395.2920 307.7809494  +6.5168030     1273.116     2097.798     1874.923     77.81821      155.698     310.5332      1.743     5.32     832.6913      54.7202     174.0228        11     1.343     0.594 -38.77   0
       411    132.8477    394.1002 307.8693857  +6.5101787     5067.458     7815.998     8305.728     77.81821     155.1431     310.6566      1.593     3.93     834.9647      54.7202     745.3997        29     1.523     0.899 -35.37   0
       412    178.7112    395.1152 307.8503040  +6.5112945     768.1356     1185.729     658.2115     77.57156     155.5132     310.5332      1.628     4.17     834.2332      54.7202     128.6877         8     0.988     0.848  55.56   0
       413    430.5412    392.9633 307.7457857  +6.5205973       758.57     1178.631     1620.651     77.81821     155.2666     310.4406      1.701     4.76     832.6019      54.7202     130.1383        11     1.276     0.689 -32.67   0
       414    237.8404    392.9964 307.8258178  +6.5141468     1349.961     2083.036     2262.729     77.07589     155.0195     310.1627      1.559     3.80     833.2761      54.7202     210.9674        14     1.239     0.687 -37.10   0
       415    818.8169    390.9642 307.5845862  +6.5343539     757.1638     1166.101     1092.009     77.44794     155.0813     310.2245      1.857     4.43     835.8757      54.7202     126.2653         8     1.134     0.491 -37.06   0
       416    155.1201    389.8544 307.8602784  +6.5126771     2664.826     4276.614     4598.797     77.81821     155.2666     310.4715      1.653     3.76     834.5194      54.7202      419.442        23     1.476     0.925 -48.61   0
       417    550.7205    388.9537 307.6960054  +6.5262607      1060.31     1396.012     1032.912     77.81821     155.2666     310.4406      1.369     3.63     833.7246      54.7202     183.9173         9     1.020     0.567 -36.54   0
       418    966.7206    384.2191 307.5233789  +6.5420512     987.2748     1850.535     2125.607     77.44794     154.9577     310.3788      2.099     6.68     834.4247      54.7202     138.7588        16     1.829     0.684 -54.93   0
       419    266.6650    384.9852 307.8141153  +6.5184181     747.8333     1217.661     1050.742     77.32412     155.1431      310.348      1.810     6.01     832.7452      54.7202     105.5664        11     1.440     0.704 -28.11   0
       420    378.4434    384.6667 307.7677015  +6.5222838     2219.236     2969.122     2766.956     77.81821     155.2049     310.4715      1.488     3.82     832.1899      54.7202      346.438        15     1.268     0.680 -35.11   0
       421    312.8350    382.5203 307.7950225  +6.5209787     668.7015     824.8336     1078.835     77.69498     155.3283     310.4715      1.307     4.36     832.2797      54.7202     113.1065         7     1.091     0.495 -47.04   0
       422     28.6744    379.0583 307.9131556  +6.5129004      3210.54     5106.293     5479.023     77.81821     155.2666     310.4406      1.741     4.41     836.1457      54.7202     482.0917        26     1.722     0.849 -46.66   0
       423    432.2532    378.2374 307.7455681  +6.5267344     7665.205     11098.66     11709.62     77.69498     155.2666     310.4715      1.564     3.65     831.8447      54.7202     1096.493        29     1.445     0.915 -34.04   0
       424    765.0553    376.9882 307.6073827  +6.5383369     2127.744     3262.872     3263.027      77.2001     155.2049     310.1318      1.579     4.10     835.0906      54.7202      300.675        21     1.576     0.807 -40.66   0
       425    193.7722    377.6910 307.8446341  +6.5189922     566.3182     592.4476     128.2198     77.94125     155.0195     310.3171      1.331     3.87     833.6689      54.7202     86.34149         5     0.922     0.466  46.70   0
       426    772.9556    375.4873 307.6041514  +6.5392193     13134.09     18870.83     19540.58     77.81821     155.1431     310.4406      1.518     3.76     835.1809      54.7202     1918.536        38     1.505     0.929 -36.34   0
       427    336.1826    374.1462 307.7856065  +6.5252161     1068.784     1818.364     1697.053     77.32412     155.3283     310.1936      1.704     4.96     831.8015      54.7202     189.5569        10     1.460     0.479 -28.38   0
       428   1016.6853    370.6243 307.5030785  +6.5493221      3571.91     5453.969     5715.866     77.81821     155.0195     309.9773      1.673     3.77     832.9558      54.7202     485.6592        25     1.398     0.990 -39.11  16
       429    181.0592    366.6247 307.8502858  +6.5231358     837.9645     1303.251     1288.505     77.44794     155.2666     310.2862      1.734     5.30     833.6202      54.7202     123.3697        11     1.361     0.583 -43.69   0
       430    480.4339    361.8770 307.7261048  +6.5350966     3513.534     5132.195     5022.232     77.69498     155.2666     310.4097      1.514     3.60     831.3047      54.7202     523.6321        19     1.331     0.782 -38.89   0
       431    452.6548    362.5429 307.7376203  +6.5338950     2456.588     3552.207     3599.458     77.94125     155.3283     310.4715      1.587     3.79     831.2012      54.7202     363.7306        18     1.360     0.763 -35.31   0
       432    387.6664    363.9771 307.7645645  +6.5311339     557.1553     943.0229     1051.693     77.44794     155.2666     310.3788      2.103     5.54     831.1376      54.7202     73.69183         8     1.570     0.552 -35.09   0
       433    520.2283    363.1823 307.7095327  +6.5358847      504.101     631.9807     647.9525     77.44794     155.0813     310.3788      1.870     4.53     831.6423      54.7202     74.01617         6     1.427     0.409 -22.11   0
       434    838.2964    358.4102 307.5775817  +6.5484423     33496.18     51363.48     53843.52     77.57156     154.8959     310.2245      1.664     3.80     834.8351      54.7202       4534.9        59     1.607     1.121 -47.82   0
       435    909.3983    361.3339 307.5479512  +6.5495972     815.3475     1260.971      1204.73      77.2001     154.8959     310.2245      1.671     4.41     834.6122      54.7202     111.3743         7     0.959     0.578 -20.57   0
       436    983.5507    358.4513 307.5172470  +6.5532489       495.43     633.7386      707.524     77.94125     155.1431     310.3788      1.208     5.49     833.1552      54.7202     71.84784         7     1.378     0.617 -56.15   0
       437    424.0133    356.1919 307.7497291  +6.5355615     598.9766     871.5784      394.431     77.44794     155.0195     310.3171      1.392     3.21     830.6805      54.7202     119.3845         5     0.898     0.633 -30.36   0
       438     55.3160    355.0967 307.9028970  +6.5236858     624.2371     1038.986     985.1769     77.81821     155.6364     310.5023      1.941     5.42     835.4072      54.7202     102.7468         9     1.398     0.593 -36.57   0
       439    330.6708    354.1988 307.7885647  +6.5332677      896.086     1198.662     1054.864      77.2001      154.834     310.2553      1.551     5.51     830.9887      54.7202     156.6943         9     1.294     0.663 -14.09   0
       440    610.1810    350.8926 307.6725822  +6.5439566     2776.934     4019.704     4452.276     77.69498     155.0195     310.2862      1.447     3.66     831.6335      54.7202     458.2667        20     1.373     0.779 -35.27   0
       441     18.2598    351.2337 307.9184170  +6.5240391     1216.572     2017.132     1650.366     77.69498     155.3283     310.3788      1.634     4.34     835.6045      54.7202     187.9398        16     1.361     0.791 -34.18   0
       442    141.7426    349.1231 307.8672030  +6.5290460     613.9128     842.5816     469.3304     77.81821     155.2049     310.3788      1.563     4.41     833.9276      54.7202     100.1531         6     1.269     0.436 -32.93   0
       443    694.7322    344.3946 307.6376806  +6.5494547     83800.17     120496.3       126039     77.32412     154.9577     310.2553      1.542     3.59     833.3885      54.7202     13348.94        82     1.587     1.091 -37.35   0
       444    853.0224    345.7634 307.5718871  +6.5541534      1198.52     1557.608     1368.122     77.44794     155.0195     310.2245      1.462     4.73     834.3418      54.7202     147.7284        11     1.202     0.645 -35.74   0
       445     74.2425    343.7837 307.8954169  +6.5289905     1553.481     2086.589     1843.016     77.32412     155.0813     310.2245      1.457     3.17     835.0994      54.7202     280.8792        15     1.105     0.878 -38.82   0
       446    557.0602    341.1515 307.6949721  +6.5462085     2842.109     4135.401     4407.983     77.81821     155.2049     310.5023      1.486     3.80     830.8224      54.7202     396.1085        22     1.444     0.812 -29.41   0
       447     94.4070    340.0988 307.8871660  +6.5311872     6485.397     9711.327     10081.55     77.57156     154.8959     310.2553      1.567     3.68     834.8873      54.7202     925.6917        32     1.497     1.038 -45.22   0
       448    936.6319    341.1708 307.5373116  +6.5588265     863.6091     1413.499     1694.013     77.32412     155.0195     310.1936      1.712     3.65     833.8765      54.7202     124.2343         9     0.867     0.781 -26.66   0
       449    755.2188    339.3799 307.6127244  +6.5535376     650.5816     1030.799     1410.351     77.57156     155.2049     310.3788      1.776     3.49     833.6734      54.7202     109.0957         6     1.001     0.456 -55.59   0
       450    763.9288    338.7020 307.6091292  +6.5541072     473.2541     787.6212     1027.013     77.69498     155.4516     310.4406      1.573     3.45     833.8444      54.7202     98.26965         5     1.020     0.337 -41.96   0
       451    540.4695    337.3472 307.7019904  +6.5472263     7710.052     11057.15     11350.17     77.69498     155.1431     310.3788      1.546     3.84     830.5587      54.7202     1127.314        32     1.492     0.892 -34.72   0
       452    269.3897    335.1377 307.8146566  +6.5390897     2918.765     4428.844     4428.078     77.32412     155.0813     310.2553      1.625     4.10     831.2995      54.7202      391.647        21     1.396     0.832 -29.85   0
       453    403.3697    332.5581 307.7590954  +6.5446302     27414.18     40071.81     42358.42     77.44794     155.2049     310.2862      1.577     3.62     830.0488      54.7202     4086.847        55     1.600     1.027 -36.26   0
       454    511.0663    331.2812 307.7144062  +6.5487505     1388.747      2036.33     2287.408     78.06408     155.5132     310.4715      1.586     4.67     830.2993      54.7202     193.3347        13     1.306     0.662 -34.64   0
       455    669.7842    330.8675 307.6484952  +6.5542094       448.95     614.3578     372.3123     77.32412     155.1431      310.348      1.119     3.83     832.5377      54.7202     100.1354         5     1.328     0.316 -39.82   0
       456    582.1834    331.4295 307.6848623  +6.5510598     705.0925     856.1721     1019.173     77.44794     155.0195     310.3788      1.361     3.97     830.7749      54.7202     130.2266         6     0.921     0.490 -36.45   0
       457    383.1731    330.6144 307.7675492  +6.5447585     1163.601     1649.914     2152.599     77.44794     155.0813     310.3788      1.430     4.60     830.0563      54.7202      196.892        11     1.207     0.614 -30.37   0
       458    482.3681    328.0058 307.7264359  +6.5491458     1300.901     2005.333     1558.322      77.2001     155.0813     310.2245      1.633     5.64     830.1479      54.7202     188.4997        12     1.282     0.699 -35.69   0
       459    633.9234    324.7244 307.6635959  +6.5555517     633.7908     995.3345     586.1637     78.06408     155.5132     310.5023      1.447     4.68     831.4473      54.7202     129.4587         6     1.440     0.431 -53.87   0
       460    492.4081    322.9860 307.7224338  +6.5515532     8931.712     13051.64     13973.95     77.44794     155.0195     310.2862      1.558     3.68     830.0139      54.7202     1360.201        38     1.550     0.949 -36.27   0
       461    798.2540    325.1095 307.5953255  +6.5608607     909.1926     1293.591     1156.375     77.69498     155.0813      310.564      1.634     5.13     833.9574      54.7202     137.4348         9     1.091     0.683 -40.21   0
       462    380.1909    324.9523 307.7689776  +6.5469966     749.1061     1012.344     981.2606     77.32412     155.0813     310.1009      1.308     4.34     829.9126      54.7202     130.6783         8     1.091     0.492 -34.12   0
       463    761.5667    321.6892 307.6106785  +6.5610529     3360.547     4845.861     5422.004     77.94125     155.1431     310.4406      1.586     3.90     833.1439      54.7202     474.6772        21     1.388     0.787 -32.71   0
       464    917.1617    321.0754 307.5460690  +6.5664772     847.9538     1282.517     1330.946     77.69498     155.3283     310.4406      1.604     4.66     833.4281      54.7202     117.8548         8     1.009     0.610 -30.32   0
       465    709.1113    321.1281 307.6324856  +6.5595395     742.2576      1030.48     1229.367     77.81821     155.5132     310.4715      1.552     4.89     832.3776      54.7202     135.8932         7     1.267     0.535 -24.99   0
       466    318.7603    319.6820 307.7946695  +6.5471208     1245.087     1666.524     1776.014     77.81821     155.3283     310.3788      1.436     4.12     830.0981      54.7202     175.5505        14     1.196     0.798 -26.32   0
       467     76.8646    316.6863 307.8952391  +6.5402659     522.3387     796.2721     970.7299     77.94125     155.4516     310.4715      1.748     4.95     834.6619      54.7202     94.83093         5     0.964     0.722  77.26   0
       468    154.3621    313.7165 307.8631514  +6.5440866     1135.063     1700.348     2043.055     77.81821     155.2049     310.3788      1.526     3.94     833.3051      54.7202     183.0176        11     1.306     0.538 -48.25   0
       469    255.1502    313.3062 307.8213037  +6.5476273     645.4042     937.7133     740.8763     77.69498     155.1431      310.564      1.507     4.33     830.9749      54.7202     85.16791         7     0.903     0.592 -31.32   0
       470    382.3456    307.1448 307.7686797  +6.5544208     7730.052     11068.86     11664.24     78.06408     155.2666     310.4406      1.546     3.73     829.4529      54.7202     1140.647        30     1.470     0.885 -37.68   0
       471    238.0432    307.7960 307.8285940  +6.5493303     2306.948      3433.89     3550.697      77.2001     154.8959     310.1627      1.539     3.64     831.2621      54.7202     363.8004        18     1.367     0.784 -36.81   0
       472    736.0115    306.7310 307.6217931  +6.5663789       995.58     1454.221     1664.174     77.32412     155.0813     310.3171      1.381     3.56     832.0527      54.7202     176.1568         6     0.906     0.450 -39.86   0
       473    750.2052    302.9462 307.6160238  +6.5684137     55829.56     81514.28     85250.88      77.2001     155.0195     310.1318      1.519     3.71     832.1648      54.7202     8609.196        71     1.591     1.063 -39.70   0
       474    421.8642    302.4675 307.7524222  +6.5576712     2534.322     3565.188     3577.665     77.81821     155.2666     310.5023      1.456     3.40     829.2835      54.7202     420.4648        18     1.398     0.715 -28.41   0
       475    985.0412    299.7907 307.5185827  +6.5775185     1633.818     2247.876     1864.927      77.2001     155.0813     310.1936      1.495     4.07     831.9034      54.7202     227.9083        17     1.349     0.813 -44.15   0
       476    925.9404    299.1182 307.5431548  +6.5758345     2313.586     3407.839     3425.538     77.94125     155.3283     310.4715      1.469     3.62     832.7198      54.7202     350.7523        19     1.403     0.773 -35.67   0
       477    567.9583    299.8766 307.6918268  +6.5636133     1361.988     1920.686     1968.908     77.69498     155.2666     310.4715      1.429     4.94      829.664      54.7202     182.6831        10     1.135     0.607 -33.49   0
       478    458.9623    298.6995 307.7371393  +6.5604649     1071.593     1512.153     1479.466     77.81821     155.1431     310.6566      1.537     4.75     829.2491      54.7202     176.3026         9     1.329     0.481 -38.30   0
       479    408.2679    298.0961 307.7582160  +6.5590222     2227.607     3202.382      3321.97     77.69498       155.39     310.4406      1.524     3.97     829.1935      54.7202      297.632        17     1.318     0.748 -34.05   0
       480    288.6413    297.6074 307.8079201  +6.5552284     787.9235     911.9009     1015.983      77.2001     155.0195     310.1627      1.362     3.97      829.621      54.7202     127.8289         7     1.017     0.443 -12.92   0
       481    829.5869    292.4981 307.5833992  +6.5753670     1286.041     2000.467     2000.719     77.69498     155.0195     310.1936      1.632     4.37     832.6404      54.7202     189.4706        14     1.275     0.795 -46.50   0
       482    436.5891    294.1667 307.7465842  +6.5615898     512.0107     704.4451     464.9408     77.32412     154.9577     310.2862      1.390     3.17     829.0983      54.7202     91.75745         5     0.730     0.457 -71.44   1
       483    458.9201    292.8856 307.7373516  +6.5628639     727.9875     1026.733     1090.784     77.57156     155.5748     310.5332      1.354     3.23     829.0817      54.7202     154.6173         6     0.905     0.446 -40.58   0
       484    438.9828    289.6060 307.7457428  +6.5635526     1145.454     1392.379     1547.346     77.44794     155.0195     310.2862      1.477     4.85      828.996      54.7202     169.6548        13     1.379     0.622 -33.25   0
       485    184.9431    289.4673 307.8512646  +6.5551216     2300.175     3425.591     3869.358     77.94124     155.2049     310.4097      1.539     4.14     832.2285      54.7202     341.7471        16     1.366     0.691 -31.52   0
       486    748.6660    287.5610 307.6171772  +6.5747148     6487.337     9264.615     9550.672     77.69498     155.2049     310.5332      1.531     3.60      831.564      54.7202     984.4755        26     1.417     0.853 -35.07   0
       487     80.7368    287.2025 307.8946223  +6.5525683     1037.117     1703.206       1767.6      77.2001     155.0813     310.2245      1.770     4.69     834.1741      54.7202     148.5835        12     1.194     0.703 -46.01   0
       488    764.9919    285.5275 307.6104636  +6.5760974     2692.154     4015.127     4312.602     77.32412      154.834     310.3171      1.526     3.51     831.8109      54.7202     417.0518        21     1.328     0.855 -36.08   0
       489    339.6678    287.4580 307.7870664  +6.5611237      692.286     960.0287       769.14     77.94125     155.2049     310.4406      1.349     3.42     829.0721      54.7202     106.0314         5     0.732     0.463 -18.93   0
       490    220.1673    287.4119 307.8367032  +6.5571484     646.5146      1079.39       881.16     77.32412     155.0195      310.348      1.576     5.20     831.1734      54.7202     111.8165         7     1.198     0.638 -22.51   0
       491    467.0842    284.7504 307.7342331  +6.5664951     582.6705     692.4017     589.4216     77.81821     155.2666      310.564      1.410     3.75     828.8045      54.7202     105.8632         5     0.837     0.483 -54.20   0
       492    354.2792    280.0943 307.7812444  +6.5646520     1893.942     3361.529     3429.414     77.57156     155.5132     310.5023      1.839     5.23     828.9548      54.7202     242.1255        23     1.674     0.886 -18.01   0
       493     68.0883    280.8309 307.9000900  +6.5547753     1261.158     1967.408     1812.045     77.94124     155.0813     310.3788      1.554     5.01       834.26      54.7202     213.1152        10     1.240     0.583 -36.19   0
       494   1003.2744    276.3788 307.5117890  +6.5877900     5823.101     8812.732     9854.285     77.44794     155.1431     310.3788      1.625     3.62     830.7239      54.7202     776.6323        29     1.415     0.981 -38.56   0
       495    642.7456    277.6060 307.6615071  +6.5752997     454.7109     707.6873     489.5694     77.32412     155.0195     310.1627      1.344     3.48     829.8627      54.7202     77.61829         5     0.751     0.466  14.31   0
       496    481.2884    276.2127 307.7286191  +6.5704939     2114.531     2876.271     2749.763     77.57156     155.0195     310.3171      1.517     3.78     828.3889      54.7202      334.818        16     1.213     0.790 -35.38   0
       497    243.8667    271.9440 307.8273789  +6.5643272     6232.663     9040.418     10026.05     77.94125     155.2049     310.4097      1.519     3.50     830.4822      54.7202     973.0216        29     1.427     0.883 -35.38   0
       498    808.5252    270.6679 307.5928767  +6.5836802     520.3582     980.5517     631.4553     77.94125       155.39     310.4406      1.911     4.22     831.7732      54.7202     99.19971         5     1.172     0.434 -31.40   0
       499    911.6214    270.6299 307.5500527  +6.5871214      686.874     1094.891     977.5173     77.32412     155.0813     310.3171      1.387     3.89     831.4158      54.7202     127.0764         6     0.900     0.483  -0.51   0
       500    892.8972    268.7012 307.5578950  +6.5872959     399.9068     449.9271      199.308     77.81821     155.7595     310.2862      1.281     5.13     831.3968      54.7202     97.54602         5     1.023     0.726 -60.06   0
       501    762.5625    265.3727 307.6121459  +6.5843382     723.3403     1179.265     1228.761     77.44794     155.0813     310.2862      1.659     5.65     831.0311      54.7202     120.6662         9     1.276     0.704 -23.05   0
       502    220.7121    264.7328 307.8372386  +6.5665301     720.5391     1018.398     1109.146     77.94125     155.4516     310.4715      1.373     4.78     831.0756      54.7202     115.0599         8     1.153     0.563 -13.77   0
       503    964.9659    261.6358 307.5281936  +6.5926059     1064.825     1490.805     1477.903     77.57156     155.0195     310.1936      1.453     4.12     830.3853      54.7202     154.7501        12     1.351     0.672 -41.25   0
       504    377.9391    262.6027 307.7720035  +6.5726639     1738.622     2688.593     2583.256      77.2001     155.0195     310.1627      1.508     3.94     828.5903      54.7202     268.2315        14     1.292     0.627 -39.83   0
       505    147.7242    258.7714 307.8677549  +6.5665494     1790.577     2955.283     2564.817     77.69498     155.3283     310.4715      1.686     4.77     832.5166      54.7202     264.4257        18     1.519     0.785 -47.36   0
       506    300.1015    258.8332 307.8044612  +6.5716201     1276.188     1918.195     1435.595     77.81821     155.1431      310.564      1.447     3.96     829.1237      54.7202     228.2365        11     1.254     0.564 -24.23   0
       507    557.2946    254.1319 307.6977872  +6.5821448     2407.749     3381.948     3422.186     77.69498     155.4516     310.4715      1.458     3.88      828.068      54.7202     350.5183        18     1.302     0.835 -35.55   0
       508    901.2270    253.1884 307.5549523  +6.5939775     1809.615     2551.184     2509.068     77.44794     155.0813     310.3788      1.512     3.33     830.5276      54.7202     249.0739        18     1.208     0.875 -34.91   0
       509    720.9914    251.7299 307.6298699  +6.5885881     5188.998      7577.88     7780.255     77.32412     154.8959     310.3171      1.513     3.53     830.1865      54.7202     816.3444        25     1.405     0.865 -37.50   0
       510    661.6355    251.6704 307.6545278  +6.5866370     2162.388     3394.637     3455.537     77.69498     155.2666     310.4715      1.651     3.78      829.503      54.7202     318.0242        19     1.352     0.833 -37.08   0
       511    959.2755    251.3652 307.5308998  +6.5966576     594.9722       994.52     854.2111     77.69498     155.3283     310.4097      1.665     3.43     829.8211      54.7202     98.17303         5     1.155     0.294 -53.69   0
       512    376.8074    245.9201 307.7730329  +6.5795139      688.774     1033.735     1082.905     77.44794      154.834     310.2862      1.550     4.26     828.3375      54.7202     108.5693         7     1.168     0.444 -34.34   0
       513    917.1308    243.7166 307.5486617  +6.5984165     1111.884     1688.085      1669.36     78.06408     155.5132     310.4715      1.652     4.97     829.8894      54.7202     155.5517        12     1.273     0.671 -45.84   0
       514    220.6066    237.1575 307.8382085  +6.5779116     2570.646     3834.254     3626.395     77.32412     154.9577     310.1627      1.522     3.75     830.9884      54.7202     376.5853        21     1.407     0.824 -36.49   0
       515    863.2853    235.8302 307.5712924  +6.5998841      1764.21     2625.184     2878.311     77.81821     155.0813     310.3171      1.582     3.74     830.0981      54.7202     273.1165        16     1.309     0.736 -39.25   0
       516    753.7457    235.3884 307.6168099  +6.5964249     1697.272     2389.136     2338.262      77.2001     155.2049     310.1318      1.447     3.56     829.9437      54.7202     289.3051        13     1.247     0.649 -38.80   0
       517    574.2569    231.4023 307.6915020  +6.5920947     465.4179     956.0164     1208.475      77.2001     154.9577     310.1627      2.199     3.49     827.4974      54.7202     80.99188         5     0.761     0.461  16.02   0
       518    242.1935    230.8514 307.8294536  +6.5812371     583.3323     777.1715     776.3541     77.32412     155.0813     310.1009      1.239     2.84     830.4321      54.7202     115.4091         6     0.761     0.538 -39.95   0
       519    454.4269    226.9130 307.7414284  +6.5899524     24467.29     35144.43     36460.94     77.94124     155.0195     310.3171      1.559     3.68     826.5931      54.7202     3532.982        53     1.578     1.018 -40.57   2
       520    460.2315    221.5236 307.7391978  +6.5923712     1624.819     2401.647     2633.197     77.69498     155.3283     310.4097      1.615     3.76     826.3683      54.7202     226.0729        16     1.280     0.807 -46.82   3
       521    315.7297    228.2953 307.7989944  +6.5847505     608.8838     1088.845     755.0126     77.69498     155.3283     310.4406      1.876     6.41     828.8508      54.7202     92.43268         9     1.465     0.788 -52.29   0
       522    780.5532    225.9263 307.6059902  +6.6012232     13625.05     19951.29     21382.44     77.69498     155.3283     310.4406      1.571     3.78     829.6602      54.7202     1994.008        45     1.656     0.993 -30.64   0
       523    278.0143    228.2154 307.8146631  +6.5835230     544.3549     697.9912     862.8953     77.57156     154.9577     310.3788      1.211     3.77     829.3611      54.7202     97.09515         5     0.829     0.493 -46.67   0
       524    719.7795    221.7185 307.6313763  +6.6009389     698.4208     1210.583     1111.748     77.57156     154.9577     310.3788      1.731     3.78      829.401      54.7202     119.6248         7     0.892     0.573 -36.43   0
       525    142.6101    220.3195 307.8711715  +6.5822536     2563.054      3666.78     3585.713     77.44794     154.9577     310.2862      1.573     3.81     831.8689      54.7202     355.2447        19     1.281     0.841 -36.05   0
       526    117.1435    219.4411 307.8817790  +6.5817637      1231.97     1958.073     2063.968     77.69498     155.2666     310.4715      1.704     4.16     832.5958      54.7202     176.5892        15     1.302     0.774 -29.58   0
       527    773.5055    218.4158 307.6091687  +6.6040897     656.1552     1041.328     1232.109     77.57156     155.0813     310.2862      1.756     4.18     829.3472      54.7202     91.62793         8     1.069     0.675   1.84   0
       528    169.4915    218.0238 307.8600829  +6.5841011     688.7224     953.6713     925.1243     77.81821     155.0813     310.2862      1.393     3.62     831.2863      54.7202     140.1683         7     0.961     0.586 -33.72   0
       529    916.7567    216.2539 307.5497331  +6.6097429     1522.135     2232.239     1889.257     77.81821     155.2666     310.4406      1.450     4.06     828.5296      54.7202     238.6335        13     1.244     0.651 -34.61   0
       530    578.5658    212.5443 307.6903432  +6.6000243     5092.685     7213.457     7528.539     77.69498     155.2666     310.4406      1.567     3.84      826.853      54.7202     764.4775        26     1.445     0.860 -36.00   0
       531    541.1010    212.6322 307.7059030  +6.5987393     2255.505     3478.158     3331.189     77.81821     155.1431      310.564      1.607     3.75     826.5906      54.7202     344.7249        21     1.465     0.857 -42.41   0
       532    298.9854    213.5859 307.8064432  +6.5902640     1340.551     1878.789     1395.339     77.57156     154.9577     310.3788      1.490     4.78     828.9099      54.7202     180.5887        13     1.244     0.891 -20.06   0
       533    383.1135    211.7099 307.7715606  +6.5938489     1639.922     2309.722     2095.725     77.57156      155.698      310.564      1.455     3.70     827.6114      54.7202     283.5463        15     1.324     0.691 -42.49   0
       534    885.5322    209.0793 307.5629434  +6.6116682     11683.03     17002.65     17550.24     77.94124     155.5132     310.4406      1.553     3.77     828.6931      54.7202     1674.729        38     1.506     0.978 -42.65   0
       535    939.3268    209.6155 307.5405786  +6.6132332     2807.957     4070.113     3770.474     77.32412     155.0195      310.348      1.550     3.95     828.0893      54.7202     397.4666        19     1.335     0.829 -33.48   0
       536    560.6705    209.1868 307.6978892  +6.6008141     952.7535     1536.715     1458.912     77.32412     155.0195     310.3171      1.682     3.92     826.5873      54.7202     183.4086         9     1.206     0.498 -40.33   0
       537    313.3156    209.6645 307.8006223  +6.5923619     1045.402      1448.84     1735.187     77.94125       155.39     310.5023      1.435     4.69     828.7169      54.7202     155.5071         9     1.067     0.584 -27.17   0
       538    972.2283    206.9267 307.5270005  +6.6154355     9764.174     14877.68     15668.83     77.69498     155.2666     310.3788      1.624     3.65     827.7385      54.7202     1338.942        37     1.546     0.995 -38.46   0
       539    683.5928    206.9916 307.6469006  +6.6058150     3005.734     4475.387     4888.077      77.2001     155.0813     310.3171      1.543     3.75     828.6282      54.7202     446.0598        21     1.464     0.792 -43.78   0
       540    204.2241    209.3137 307.8459485  +6.5888593     679.2375     1008.788     862.7249     77.81821     155.0813     310.2862      1.703     5.14     831.0289      54.7202     136.7278         8     1.201     0.622   7.52   0
       541     11.6970    205.9497 307.9260317  +6.5838013     26328.54     39801.26     42450.14     77.69498     155.2049     310.5949      1.622     3.64     835.0925      54.7202     3794.777        62     1.633     1.117 -37.91   0
       542    258.1441    206.8472 307.8236341  +6.5916810     1292.658     1911.202     1760.967     77.81821     155.2666     310.5332      1.612     3.88     829.9369      54.7202     197.9838        14     1.181     0.821 -37.22   0
       543    492.2120    201.8837 307.7265713  +6.6015468     2116.512     2948.378     3189.849     77.44794     155.0813     310.2862      1.493     3.96     825.7283      54.7202     331.6764        18     1.401     0.753 -35.82   0
       544    876.4011    197.5831 307.5671202  +6.6161114     2119.182     3099.534     3265.645     77.44794      154.834     310.1318      1.593     4.17     828.3875      54.7202     294.5814        21     1.454     0.874 -30.12   0
       545    824.1438    198.4989 307.5887981  +6.6139967     1933.407     2771.068     2971.812     77.57156     155.2666     310.6566      1.506     3.57     828.5486      54.7202     301.6657        15     1.282     0.704 -35.64   0
       546    735.7397    195.0994 307.6256358  +6.6124604     41996.22     60775.05     62932.95     77.57156     155.2049      310.564      1.535     3.76     828.4481      54.7202     6473.819        61     1.549     1.033 -40.02   0
       547    504.1425    197.9035 307.7217487  +6.6035881     2694.148     3774.203     3675.613     77.69498     155.2666     310.5949      1.469     3.85     825.7379      54.7202     395.6121        19     1.334     0.820 -39.24   0
       548    338.7033    194.6033 307.7905819  +6.5994284     6010.484     12201.55     13667.67     77.57156     154.9577     310.1318      2.146     7.10     828.1003      54.7202     756.8601        48     2.035     1.155 -64.33   0
       549    969.4625    193.8542 307.5285852  +6.6207412     2905.978     4191.578     4038.817     77.81821     155.2049     310.4097      1.556     3.68     827.4402      54.7202     383.4944        21     1.342     0.842 -32.82   0
       550    903.6290    192.1542 307.5559904  +6.6192573     7481.355     11115.27     11825.73     77.32412     155.3283     310.3171      1.585     3.70     827.8619      54.7202     1135.009        31     1.432     0.951 -40.37   0
       551   1007.7798    192.4146 307.5127153  +6.6226070     1763.027     2512.936     2524.327     77.57156     155.0195      310.348      1.463     4.08     827.1829      54.7202     254.2814        16     1.288     0.793 -41.61   0
       552    447.1513    191.2776 307.7456447  +6.6044225     5384.657     7807.086     8544.072     77.81821     155.3283     310.4097      1.543     3.60      826.012      54.7202     776.8974        27     1.485     0.836 -39.96   0
       553    221.6826    188.1319 307.8394081  +6.5981886     726.8857      919.877     801.6436     77.94125     155.5132     310.4715      1.460     5.02       830.91      54.7202     116.4715         9     1.227     0.580 -39.05   0
       554    104.4470    182.7535 307.8882863  +6.5964855     4963.614     7264.843     7350.198     77.81821     155.1431     310.4406      1.553     3.67     832.3212      54.7202     734.5729        24     1.463     0.821 -40.19   0
       555    250.0811    180.4780 307.8278688  +6.6022984     6915.362     10254.81     10968.43     78.06408     155.5132     310.5949      1.577     3.63     830.1639      54.7202     979.5043        32     1.520     0.933 -35.29   0
       556    923.7343    181.8056 307.5479834  +6.6241978     1062.075     1589.686     1928.553     77.32412     155.0195     310.2553      1.632     5.12     827.3317      54.7202     145.1734        10     1.130     0.656 -45.36   0
       557    274.8212    179.3827 307.8176287  +6.6035777     35683.11     52721.05     55305.19     77.57156     155.0813      310.348      1.560     3.63     829.4315      54.7202     5485.962        59     1.587     1.043 -36.67   0
       558    600.8973    180.9258 307.6821247  +6.6138229     736.9732     1006.781      1697.86     77.57156     155.4516     310.4715      1.442     4.73     825.6143      54.7202     112.6763         8     1.038     0.612 -32.29   0
       559    703.7791    178.6876 307.6394612  +6.6181730     859.9954     1153.082     1291.269     77.81821     155.0195      310.348      1.498     4.37     827.6793      54.7202     119.6088        10     1.093     0.769 -24.90   0
       560    190.0602    179.4579 307.8528349  +6.6007119     444.9976     529.4922     502.3004     77.94124     155.2049     310.4715      1.442     4.41     830.9683      54.7202     101.2826         5     1.162     0.477  -7.78   0
       561    398.8889    174.8482 307.7662436  +6.6095948     52452.77      77757.2     81246.42     77.81821     155.1431     310.5332      1.567     3.71     826.6108      54.7202     7843.801        70     1.607     1.069 -39.72   0
       562    154.7236    176.1565 307.8676242  +6.6008924     4169.643     6312.976     6563.639     77.69498     155.3283     310.4715      1.586     3.80     831.1302      54.7202     621.3144        25     1.326     0.965 -32.94   0
       563    416.2212    175.2405 307.7590306  +6.6100114     1511.268     1949.099      1902.65     77.44794     155.0813     310.2553      1.381     3.92     826.3364      54.7202     231.6978        12     1.246     0.608 -31.87   0
       564    302.8607    172.5864 307.8062094  +6.6073209     19057.79     28115.08     29834.52     77.32412     155.1431     310.1627      1.568     3.78     828.6459      54.7202     2639.697        42     1.529     0.965 -39.40   0
       565    738.1754    171.0027 307.6254292  +6.6224905     34386.56     49966.42     52235.81     77.44794     154.9577     310.2553      1.514     3.73     827.5204      54.7202      5216.25        56     1.557     1.006 -39.51   0
       566    685.7729    172.9251 307.6471339  +6.6199529     946.5023     1448.519     1259.226     77.69498     155.2049     310.4097      1.684     5.45     827.3729      54.7202     153.4152        11     1.260     0.664 -47.74   0
       567    310.1289    172.5833 307.8031903  +6.6075651     2222.194     3784.037     5106.065     77.32412     155.2049      310.348      2.205     3.66     828.4582      54.7202     358.5482        20     1.411     0.798 -43.85   2
       568    536.4124    173.0053 307.7091774  +6.6149439     534.2513      980.829     1062.416     77.44794     155.0195     310.3171      1.807     4.54     825.1635      54.7202      92.1026         5     1.022     0.573 -16.93   0
       569    786.6794    171.3461 307.6052682  +6.6239620     1104.468     1572.941     1554.738     77.81821     155.2666     310.5023      1.542     4.60     827.5204      54.7202     169.2986        13     1.389     0.692 -34.31   0
       570     25.4877    171.5859 307.9214599  +6.5984509     633.0422     1028.105      1231.97     77.44794     155.0813     310.3171      2.197     4.15     834.8407      54.7202     99.06073         6     1.045     0.471 -35.33   0
       571     54.9512    168.4671 307.9093264  +6.6007258     9443.956     14032.73     14847.63     77.69498     155.2049     310.4715      1.583     3.83     833.7416      54.7202     1264.226        35     1.489     0.977 -35.95   0
       572    561.4338    169.3641 307.6989052  +6.6172814     500.0808     814.2236     1648.011     77.57156     155.0195     310.1936      2.029     3.47     825.0594      54.7202     77.16736         5     1.078     0.322 -20.33   0
       573     88.6720    166.5246 307.8953847  +6.6026575       1625.6     2193.309     2002.687     78.06408     155.5132     310.4406      1.408     3.84     832.4685      54.7202     250.5433        12     1.182     0.647 -44.63   0
       574    997.2012    165.1604 307.5180182  +6.6335089     1033.263     1372.681     1931.342     76.95147     155.0195     310.1318      1.439     3.95     826.7028      54.7202     150.9149        11     1.119     0.665 -36.50   0
       575    964.1478    164.1821 307.5317823  +6.6328159     572.1823     782.7233     553.9856     77.32412     155.3283     310.1936      1.247     3.90     826.6999      54.7202     90.40845         6     0.791     0.551  33.18   0
       576    722.7458    159.0434 307.6322387  +6.6269149     609.0199     550.6735     120.4466     77.81821     155.2666     310.4406      1.228     4.31      826.975      54.7202     132.6891         7     1.152     0.458 -36.27   0
       577    572.1370    155.6956 307.6949165  +6.6232815     808.3589     978.1398      961.842     77.69498       155.39     310.4715      1.441     4.53     824.6909      54.7202     140.1888         9     1.054     0.597 -35.07   0
       578    997.7556    151.4186 307.5182460  +6.6392011     2068.678     3486.566      3956.23     77.44794     155.1431     310.1936      1.731     3.63     826.0342      54.7202     325.8821        22     1.473     0.897 -27.76   0
       579    588.9394    147.3930 307.6882143  +6.6272694     2112.356     3122.748     3393.159      77.2001     155.0813     310.1936      1.532     3.58     824.6121      54.7202     312.9935        18     1.326     0.811 -40.86   0
       580    580.7497    149.1174 307.6915588  +6.6262845     1000.384     1369.999     1655.208     77.81821     155.2666     310.4715      1.450     4.36     824.6184      54.7202      158.208         8     1.082     0.500 -37.55   0
       581    333.1205    147.5583 307.7944793  +6.6186654     1085.146     1757.339     1809.484     77.69498     155.2666     310.4406      1.755     4.44     827.7022      54.7202      171.993        11     1.265     0.706 -78.90   0
       582    273.6317    145.6730 307.8192545  +6.6174556     32070.81     47726.66     50886.09     77.69498     155.2666     310.4715      1.620     3.82     829.4363      54.7202     4611.056        71     1.804     1.079 -33.39   0
       583     18.9646    144.2014 307.9250912  +6.6095382     4524.103     7134.802     7385.037     76.95147     155.0813     310.2553      1.618     3.88        835.1      54.7202     672.4865        31     1.497     1.046 -42.56   0
       584    705.3257    142.2213 307.6400376  +6.6332806     8440.287     12374.28     12821.49     77.44794     155.1431     310.3788      1.553     3.79     826.1173      54.7202     1239.666        29     1.445     0.887 -41.34   0
       585    116.1245    139.3707 307.8848944  +6.6147877     5061.222     7575.657     7826.187     77.69498     155.3283     310.4715      1.609     3.97     830.9315      54.7202     708.6527        29     1.485     0.902 -35.28   0
       586    259.4723    140.4265 307.8253125  +6.6191483     856.9226     1367.802     1493.959     77.44794     155.1431      310.348      1.550     4.67     829.8738      54.7202     156.0015         8     1.171     0.532 -20.03   0
       587    455.1332    136.5643 307.7441625  +6.6272785     1400.908     1934.734     1545.697     77.69498       155.39     310.5023      1.504     3.96     825.0491      54.7202     256.4387        13     1.352     0.618 -41.28   0
       588    577.8989    137.0201 307.6931480  +6.6311842      837.037     1123.026     1927.014     77.81821     155.1431     310.2245      1.915     4.97     824.4726      54.7202     115.2472        10     1.187     0.691 -15.27   0
       589    386.7555    135.3392 307.7726087  +6.6255017     3963.539      6673.43     6681.374     77.69498     155.2666      310.564      1.802     3.99     826.3675      54.7202     512.8033        31     1.501     1.148 -50.16   0
       590    644.0894    136.0055 307.6656847  +6.6338083     892.3303     1089.914     771.1981     77.32412     154.9577     310.1936      1.488     4.60     825.2794      54.7202     129.4315         9     1.055     0.833 -31.00   0
       591    563.3597    134.0724 307.6992866  +6.6319167       672.64     1151.139     1237.077     77.69498     155.2666     310.5023      1.770     5.43     824.3788      54.7202     110.9517         9     1.530     0.543 -46.52   0
       592    351.1468    134.2459 307.7874376  +6.6247639     3468.568     4964.973     5384.514     77.81821     155.2666     310.5023      1.518     4.01     827.2789      54.7202     539.9871        20     1.355     0.783 -37.72   0
       593    105.4710    134.1829 307.8894943  +6.6165727     1894.257     2818.235       2815.4     77.32412     155.2049      310.348      1.657     3.63     830.9279      54.7202     321.1423        17     1.295     0.809 -25.59   0
       594    667.4787    131.7636 307.6561100  +6.6363385     883.4038     1227.348     1248.185     77.69498     155.3283     310.4406      1.481     3.35     825.5947      54.7202      155.559        10     1.164     0.649 -47.80   0
       595    997.9232    128.4232 307.5189428  +6.6487011     1482.656     2111.748     2180.711     77.44794     155.1431     310.3788      1.578     4.12     824.6802      54.7202     218.8855        15     1.314     0.735 -37.22   0
       596    182.9674    143.4258 307.8569919  +6.6153509     928.1323     1364.824      1169.19     77.32412     155.0813     310.2862      1.431     4.73     830.5187      54.7202     151.0153        11     1.239     0.635 -37.79   0
       597    203.1575    123.1247 307.8492870  +6.6244081     5716.237     8552.398     8741.661     77.69498     155.3283     310.4715      1.555     3.64     830.4799      54.7202     860.6183        28     1.494     0.913 -35.87   0
       598     85.9383    123.0284 307.8979833  +6.6205238     2176.969     3299.417     3550.519     77.44794     155.2666     310.4097      1.673     3.64     831.2734      54.7202     361.1644        22     1.519     0.858 -44.91   0
       599    664.8805    121.9305 307.6575182  +6.6403118     6811.122     9834.837     10230.13     78.06408     155.5132     310.4715      1.520     3.71     825.1964      54.7202     986.9377        29     1.483     0.864 -41.88   0
       600    842.0266    122.7866 307.5838967  +6.6458513     582.0015     878.9578     1257.206     77.57156     155.0813     310.3788      1.490     3.67     824.8775      54.7202     96.79083         6     0.909     0.455 -36.90   0
       601    813.2507    121.6087 307.5958907  +6.6453811     1136.627     1643.097     1842.885     77.32412     155.1431     310.1318      1.458     4.75     824.8453      54.7202     178.7585        13     1.380     0.610 -35.18   0
       602    617.0923    119.2507 307.6774606  +6.6398267     10127.92     14773.38     15734.74     77.69498     155.1431     310.6257      1.539     3.70     824.5412      54.7202     1519.498        33     1.453     0.928 -38.38   3
       603    620.6150    110.7366 307.6762821  +6.6434593     56827.64      81922.1     85282.35     77.32412     155.1431     310.3171      1.546     3.71     824.4792      54.7202     8286.283        68     1.573     1.043 -39.82   2
       604    554.7621    118.9105 307.7033658  +6.6378900     730.5746     1007.818      1657.64     77.81821     155.2049     310.4715      1.685     5.47     824.1219      54.7202     134.8818         7     1.117     0.754 -52.49   0
       605    251.6309    119.8313 307.8292614  +6.6273892     890.2398     1291.891     1326.754     77.32412     155.0195     310.1936      1.509     4.36     830.0659      54.7202     129.0309        10     1.061     0.793 -39.76   0
       606     15.8199    118.0715 307.9272769  +6.6202207     1057.828      1817.17     1967.289     77.44794     155.1431     310.3788      1.759     6.07     835.2766      54.7202     145.5444        16     1.470     0.799 -42.03   0
       607    344.2267    114.9756 307.7909589  +6.6324888     4141.967     6739.852     7459.357     77.32412     155.0813     310.3171      1.775     4.03     827.5934      54.7202     596.5316        30     1.685     0.918 -44.80   0
       608    990.1508    113.9015 307.5226558  +6.6544389     930.2904     1445.189     1800.479     77.81821     155.2049     310.6257      1.917     5.24     823.8704      54.7202     143.6948        11     1.248     0.622 -64.02   0
       609    526.0438    114.1672 307.7154550  +6.6388909     1954.946     2923.959     2495.369     77.44794     155.2049     310.2862      1.542     3.99     824.1391      54.7202     293.1349        19     1.366     0.870 -36.90   0
       610    299.8184    104.4970 307.8097585  +6.6353311     3814.444     5619.515     6411.902     77.69498     155.1431     310.1936      1.586     3.83     828.6625      54.7202     595.2894        21     1.408     0.771 -30.14   0
       611    495.7320    101.4675 307.7284728  +6.6431234     571.2446     996.7769     798.4222     77.81821     155.3283     310.4715      1.705     3.40     824.2922      54.7202      107.072         5     0.785     0.427 -23.08   0
       612      2.2453     87.0622 307.9339596  +6.6325680     33968.29     59151.92     74609.32     76.70203     136.1291     248.0992      2.247     5.02     834.9897      54.7202      7967.05       166     3.444     1.812 -88.57  24
       613    699.3372     99.0200 307.6439697  +6.6509181     990.5487     1516.999     1349.243     77.44794     155.2666     310.3171      1.480     4.56     824.1621      54.7202     163.5757        11     1.209     0.601 -23.92   0
       614    671.1487     97.8628 307.6557191  +6.6504575     1428.671       2115.4     2065.271     77.81821     155.2049     310.4097      1.508     3.58     824.3304      54.7202     255.3005        15     1.261     0.798 -37.24   0
       615    685.0690     94.7450 307.6500403  +6.6522082     3406.807     4805.385     4606.299     77.81821     155.1431     310.4097      1.516     3.75     824.1126      54.7202     534.0601        21     1.310     0.866 -35.74   0
       616    426.7294     85.7739 307.7576646  +6.6473003     4411.165     6289.909      6482.57     77.44794     155.1431     310.3788      1.495     3.43      824.756      54.7202     625.6146        23     1.407     0.799 -38.26   0
       617    881.1701     82.0151 307.5689955  +6.6639857     2211.377     3476.391     3682.281     77.44794     155.0195     310.3788      1.597     4.05     822.9396      54.7202     331.5473        19     1.402     0.802 -46.30   0
       618    899.3577     80.9979 307.5614733  +6.6650099     3777.422     5592.382      5765.01      77.2001     154.9577     310.1627      1.534     3.68     822.8369      54.7202     572.1881        23     1.398     0.817 -35.27   0
       619    579.2964     81.5652 307.6944236  +6.6541267     742.7584     892.4343     971.1041     77.94125     155.1431     310.5949      1.330     4.05     823.4952      54.7202     135.7028         6     1.181     0.396 -30.99   0
       620    591.4066     79.5992 307.6894583  +6.6553420     1888.407     2922.413     2991.669      77.2001     154.9577     310.2553      1.672     3.63      823.512      54.7202     287.7813        15     1.146     0.790 -39.58   0
       621    390.1064     77.6962 307.7731498  +6.6494126     2044.963     2961.997     2752.734     77.81821      155.821     310.3788      1.485     3.85     826.1327      54.7202     324.2798        16     1.351     0.715 -33.82   0
       622    237.3189     79.0264 307.8365772  +6.6437574       929.75      1208.13     1327.364     77.69498     155.0813     310.4715      1.449     4.16     829.8066      54.7202     148.2109         9     1.012     0.593 -39.26   0
       623    138.0686     74.5422 307.8779585  +6.6422875     3422.572     4878.478     4700.709     77.94124     155.2049     310.3788      1.497     3.65     828.6067      54.7202     491.5718        22     1.386     0.827 -35.33   0
       624     19.8937     72.4122 307.9271215  +6.6392080     12922.16     19290.33     20706.29     77.57156     155.0195     310.2553      1.597     3.73     832.2578      54.7202     1835.158        37     1.535     0.969 -36.99   0
       625    286.2397     73.1035 307.8164532  +6.6478386      1474.52     2364.511     2952.745     77.81821     155.1431     310.5949      1.761     4.38     828.8124      54.7202     203.5289        16     1.464     0.681 -45.94   0
       626    559.2328     72.4046 307.7030655  +6.6572401     651.2989     1027.281     265.2617     77.07589     155.1431     310.2553      1.566     4.85     823.0269      54.7202     106.8188         7     1.116     0.597 -36.58   0
       627    547.0237     72.1104 307.7081475  +6.6569545     815.9777     1082.038     793.3813     77.81821     155.0813     310.3171      1.373     4.31     822.9529      54.7202     130.9074         9     1.077     0.713 -23.41   0
       628    755.2653     71.0707 307.6216687  +6.6643188     685.3491     1028.831     1110.206     77.81821     155.3283     310.4406      1.427     3.51     822.6625      54.7202     115.7251         7     0.851     0.599 -61.73   0
       629    149.8153     70.9325 307.8732000  +6.6441711     509.2831      802.925     585.6713     77.32412     155.1431      310.348      1.301     2.68     828.4156      54.7202     114.5464         5     0.773     0.487 -41.65   0
       630    888.4691     68.0999 307.5664275  +6.6699735     733.6099     1023.953     637.5517     77.81821       155.39     310.4097      1.407     4.30     822.5779      54.7202      138.317         7     1.340     0.457 -39.15   0
       631    766.6179     67.1313 307.6170839  +6.6663229     3388.996     4972.562     5199.345     77.32412     155.1431     310.3788      1.531     3.65     822.4753      54.7202     542.6578        24     1.461     0.812 -37.04   0
       632    411.9675     68.1302 307.7643887  +6.6540921     1089.964     1625.652     1721.886     77.69498     155.2666     310.4715      1.512     5.06     825.1403      54.7202     147.6611        11     1.317     0.600 -34.88   0
       633    821.6843     66.8466 307.5942156  +6.6682716     6373.778     9431.306     10394.02     77.81821     155.2666     310.4715      1.566     3.68     822.4575      54.7202     934.4044        28     1.455     0.857 -35.45   0
       634    753.4815     66.1468 307.6225743  +6.6662924     697.6497     1207.905     1458.891     77.81821     155.2666     310.5023      1.603     5.11     822.4781      54.7202     113.4992         9     1.351     0.547 -40.41   0
       635     91.3383     67.4134 307.8976107  +6.6436658     529.3595     777.3587     94.08344     77.32412     155.0813     310.1936      1.607     4.45     828.9014      54.7202     82.26733         7     1.146     0.492  -1.25   0
       636    529.1875     65.2147 307.7157884  +6.6592069     1168.159     1520.779     2065.071     77.69498     154.9577     310.3788      1.421     3.76     822.8204      54.7202     214.0688        11     1.287     0.570 -37.18   0
       637     44.7809     64.9106 307.9170356  +6.6431392     863.8226     1259.087     1367.423     77.57156     155.0195      310.348      1.652     5.22     830.5455      54.7202      130.152        14     1.298     0.812 -44.30   0
       638    421.7512     63.5080 307.7604791  +6.6563271      990.091      1619.15     1976.552     77.69498     155.1431      310.564      1.657     5.47      824.755      54.7202     163.4037        13     1.531     0.668 -50.60   0
       639     60.2304     64.1564 307.9106430  +6.6439683     3380.538     5254.295     5501.377     77.44794     155.2666     310.3171      1.620     3.48     829.9125      54.7202     508.9601        23     1.327     0.892 -37.82   0
       640    649.3444     64.5383 307.6658922  +6.6634903     655.1472     1147.528     1278.132     77.94125     155.2666     310.4406      1.944     3.66     823.0668      54.7202     108.3334         6     0.959     0.402 -19.76   0
       641    583.9233     61.1043 307.6931862  +6.6627286     1346.433     2046.577     1569.382     77.57156       155.39     310.5332      1.571     4.25      822.794      54.7202     189.4905        14     1.223     0.783 -25.48   0
       642      2.7425     59.7201 307.9346736  +6.6438730      2657.03     4002.244     4858.808     77.81821     142.1883     255.1816      1.621     3.76     831.4806      54.7202      368.994        20     1.338     0.834 -38.04  24
       643    402.0287     54.5926 307.7689716  +6.6593495      1177.86     1869.546     1436.553     77.44794     155.0813     310.2553      1.593     4.59     825.6702      54.7202     164.2711        13     1.256     0.798 -63.13   0
       644     75.2866     55.2055 307.9046896  +6.6481682     915.1091     1389.888     1517.243     77.32412     154.9577     310.1627      1.625     4.91     828.8629      54.7202     153.5585        12     1.386     0.729 -47.36   0
       645    761.3168     54.7122 307.6197012  +6.6712742     2161.028     3125.278      3510.15     77.57156     155.4516     310.4715      1.522     3.79      822.043      54.7202     324.6715        17     1.298     0.766 -30.51   0
       646    163.3958     54.7881 307.8681011  +6.6512911     519.8912     717.7682     826.2103     77.44794     154.9577     310.3171      1.774     4.55     828.0183      54.7202     83.42242         5     1.358     0.433 -58.95   0
       647     99.3339     53.3875 307.8947610  +6.6497243     807.6622     1174.718     1468.775     77.32412     155.0813      310.348      1.631     4.27     828.1829      54.7202     135.6831         9     1.169     0.577 -41.79   0
       648     87.9661     48.5593 307.8996458  +6.6513369     9849.507     14814.14     15631.28     77.57156     155.2666     310.2553      1.599     3.58     828.2485      54.7202     1353.193        39     1.514     1.036 -33.88   0
       649    417.0044     48.2489 307.7629628  +6.6624686      2782.56     4032.293     3450.251      77.2001     155.0813     310.1009      1.461     3.58     824.8979      54.7202     455.0569        20     1.382     0.745 -38.01   0
       650    238.0199     48.0857 307.8373253  +6.6565551      555.019     760.5078     784.6091     77.44794     155.0195     310.3788      1.655     3.17     828.5909      54.7202     125.5258         5     1.108     0.454 -70.26   0
       651    630.7776     40.4555 307.6744115  +6.6728151     19611.34     28289.57     29238.38     77.44794     155.2666     310.2553      1.535     3.67     822.1102      54.7202     3144.116        46     1.542     0.982 -43.38   0
       652    254.6026     42.4830 307.8306244  +6.6594229     1610.208     2520.268     3185.475      77.2001     154.8959     310.1627      1.693     3.90     828.4379      54.7202     244.8943        16     1.288     0.757 -29.25   0
       653    685.3610     41.0541 307.6517143  +6.6743856     468.6185     633.3428     883.4272     77.81821     155.3283     310.4406      1.520     3.94     822.0334      54.7202     76.52039         5     1.294     0.343 -42.14   0
       654    660.5991     41.2200 307.6619964  +6.6734926     475.0354     747.5374     1276.545     77.44794     154.8959     310.1627      1.654     4.38     822.1485      54.7202     78.12225         5     1.191     0.458 -30.27   0
       655    530.5322     36.6224 307.7161874  +6.6710567     5334.414     7523.813     7408.896     77.44794     155.2049     310.4097      1.515     3.67     821.8898      54.7202     856.9348        26     1.448     0.819 -40.07   0
       656    248.7672     36.8577 307.8332376  +6.6615502     2122.611     3374.093     4093.795     77.69498     155.3283     310.3788      1.696     3.60     828.2529      54.7202     311.5654        21     1.298     0.952 -33.96   0
       657    617.7698     34.4032 307.6800182  +6.6748806     938.3795     1573.173     1887.072     77.32412     155.0813     310.2553      1.655     4.40     821.8807      54.7202     166.2272         8     1.131     0.487 -36.82   2
       658    616.8751     30.2625 307.6805285  +6.6765603     3291.564     4786.767     5791.349     78.06408     155.2666     310.4406      1.551     3.64     821.7276      54.7202     518.8225        20     1.394     0.775 -38.72   2
       659    436.0541     32.1431 307.7555886  +6.6697541     23992.54     35113.03     36722.21     77.94125     155.2666     310.4406      1.532     3.74     823.9526      54.7202     3702.983        50     1.531     1.027 -39.63   0
       660    256.6538     32.5984 307.8301042  +6.6635724      9846.55     14607.95     15772.66      77.2001     155.0813       310.07      1.604     3.59     828.2106      54.7202     1415.468        38     1.494     1.018 -38.10   0
       661    913.9755     32.1361 307.5570305  +6.6856694     2008.846     3183.907     3220.651     77.44794     155.2666     310.3788      1.536     4.29     821.7302      54.7202     272.1505        17     1.416     0.721 -39.95   0
       662    316.5346     32.8723 307.8052181  +6.6654612     1157.706     1784.948     2056.866     77.81821     155.3283     310.4715      1.647     4.80      828.545      54.7202      166.312        13     1.404     0.590 -29.93   0
       663     21.9498     32.3355 307.9276164  +6.6558228     2402.849     3775.452     3784.151     77.69498     155.2049     310.4715      1.622     3.95     827.8176      54.7202     359.9709        19     1.385     0.840 -33.96   0
       664    549.0988     31.7092 307.7086383  +6.6737042     740.4736     1142.414     838.7406     77.81821      155.698     310.4097      1.647     3.59      821.733      54.7202     128.8461         6     0.982     0.634 -50.93   0
       665    521.2240     32.3225 307.7201985  +6.6725216     678.2993     1148.782     987.2975     77.44794     155.1431     310.4097      1.498     3.79     821.7239      54.7202     112.5529         6     1.041     0.396 -14.97   0
       666    244.4947     29.2225 307.8352690  +6.6645596     3293.082     4695.777     5308.376     77.81821     155.0813     310.2862      1.552     3.52      827.936      54.7202     459.5374        24     1.425     0.869 -43.07   0
       667    297.5232     27.4852 307.8132971  +6.6670499      1109.18     1546.616     1607.475     77.94125     155.5748     310.5332      1.672     4.16     828.5302      54.7202     199.1467        11     1.215     0.611 -33.97   0
       668    934.4498     22.2745 307.5488529  +6.6904210     1049.892     1651.252     1422.819     77.81821     155.3283     310.4715      1.611     4.82     821.3909      54.7202     160.0613        12     1.343     0.635 -35.35   0
       669    685.8824     21.8434 307.6521401  +6.6823346     1809.076     2564.398     2601.239     77.81821     155.2666     310.4097      1.442     4.00     821.2919      54.7202     285.8022        17     1.366     0.765 -46.95   0
       670     90.7524     22.0119 307.8993814  +6.6623905     580.4041     754.3484     536.9854      77.2001     155.1431     310.1318      1.348     4.60     827.1081      54.7202     97.64783         5     0.933     0.644 -59.23   0
       671      1.9827     18.7726 307.9363678  +6.6607529     472.7889     550.9643     587.3001     74.41948     132.4184     243.8925      1.243     4.29     826.2338      54.7202     83.38275         5     1.055     0.496 -36.75  24
       672    196.8058     17.6794 307.8554687  +6.6677299     897.7589     1309.799     1314.427     77.44794     154.7721     310.2245      1.473     5.26     827.1788      54.7202     111.3791        11     1.307     0.609 -30.84   0
       673    251.6683     16.6794 307.8327101  +6.6699781     834.5599      1193.72     1347.004     77.94125     155.5132     310.4406      1.439     4.48     827.6862      54.7202     134.9973         8     1.030     0.555 -21.18   0
       674    705.4509   1020.2911 307.6106544  +6.2707441     1001.776     1634.999      2713.82     77.69498     155.0813     281.0211      2.474     5.28     853.3372      54.7202     145.7333        12     1.366     0.765 -15.02  17
       675    744.9464   1017.0890 307.5943653  +6.2733797     1286.286     2332.663     3519.273     77.81821     155.0813     308.6763      2.129     5.26     852.2595      54.7202     155.8995        19     1.417     0.976 -31.63  24
       676    952.5231   1010.8663 307.5083990  +6.2828439     5121.114     10338.81     10744.48     77.94124     155.3283     310.4097      2.093     4.69     849.8619      54.7202     624.6588        42     1.668     1.401 -40.68   0
       677    236.7992   1010.9464 307.8055156  +6.2589776      1314.67     2216.771     1648.716      77.2001     154.9577     310.0082      1.711     3.77     853.9448      54.7202     218.3547        15     1.135     0.971 -25.79   0
       678    712.1823   1009.0263 307.6082360  +6.2756191     2441.978      4295.29     4930.795     77.44794     155.0813      310.348      1.963     4.56     852.9978      54.7202     283.2212        26     1.624     1.007 -38.89   2
       679    706.9267   1011.5428 307.6103338  +6.2744052     901.4813     1678.381     2425.067     77.81821     155.2666     310.4097      2.144     5.64      853.169      54.7202      126.208        10     1.250     0.768  -1.40   3
       680    435.5540   1009.7908 307.7230475  +6.2660900     755.0323     1410.399     1123.182     77.32412     155.1431     310.1009      1.719     5.86     855.4494      54.7202      126.511        10     1.323     0.731 -55.48   0
       681    728.0043   1008.3102 307.6016916  +6.2764410     945.2885     1629.763     1714.994     77.32412     154.9577     310.1627      1.604     6.95     852.5745      54.7202     119.4466        14     1.375     0.985  58.68   0
       682    358.9974   1006.3022 307.7549447  +6.2649760     1743.104     2699.323     3080.415     77.57156     155.0195     310.1318      1.714     4.49     854.7316      54.7202      210.718        19     1.339     0.954 -41.43   0
       683    745.7150    996.0709 307.5947476  +6.2820833     7220.511     12264.07     12929.73     77.94125     155.5132     310.4715      1.813     3.94      852.121      54.7202     817.4864        41     1.598     1.211 -39.13   0
       684    511.7257    997.9066 307.6918241  +6.2735362       1026.3     1900.058     1668.975     77.69498       155.39     310.4097      1.908     6.47     855.1754      54.7202     141.1523        17     1.376     1.021 -14.39   0
