#   1 NUMBER                 Running object number                                     
#   2 X_IMAGE                Object position along x                                    [pixel]
#   3 Y_IMAGE                Object position along y                                    [pixel]
#   4 ALPHA_J2000            Right ascension of barycenter (J2000)                      [deg]
#   5 DELTA_J2000            Declination of barycenter (J2000)                          [deg]
#   6 FLUX_APER              Flux vector within fixed circular aperture(s)              [count]
#   9 FLUXERR_APER           RMS error vector for aperture flux(es)                     [count]
#  12 FLUX_RADIUS            Fraction-of-light radii                                    [pixel]
#  13 FWHM_IMAGE             FWHM assuming a gaussian core                              [pixel]
#  14 BACKGROUND             Background at centroid position                            [count]
#  15 THRESHOLD              Detection threshold above background                       [count]
#  16 FLUX_MAX               Peak flux above background                                 [count]
#  17 ISOAREA_IMAGE          Isophotal area above Analysis threshold                    [pixel**2]
#  18 A_IMAGE                Profile RMS along major axis                               [pixel]
#  19 B_IMAGE                Profile RMS along minor axis                               [pixel]
#  20 THETA_IMAGE            Position angle (CCW/x)                                     [deg]
#  21 FLAGS                  Extraction flags                                          
         1     29.3809     79.5982 307.9360687  +6.6321112     726046.7      1342496      1436137     77.19984      154.338     309.1691      1.989     4.84     823.2664     54.54491     61839.72       431     2.081     1.772  78.52   4
         2    562.6973     28.5310 307.7162300  +6.6710743     6489.694     8058.492     7803.384     77.44609     154.9536     309.4461      1.297     2.86     815.6955     54.54491      1099.96        22     1.199     0.802  75.27   0
         3    649.3298     22.9320 307.6804256  +6.6762811     3762.952     5746.269     6498.699     77.56892     154.8922     309.4153      1.718     5.30     814.9047     54.54491     753.7687        25     2.040     0.708  73.21   0
         4    288.8073     24.4918 307.8301510  +6.6635718     11572.97     14618.72     15479.42     77.19984     154.4613     309.2614      1.333     2.82      821.223     54.54491     2041.093        31     1.305     0.874  78.01   0
         5    966.8674     14.3619 307.5487854  +6.6904088     1099.337     1758.454     2348.692     77.44609     154.7077     309.5384      1.832     5.46     812.5494     54.54491     190.0507        11     1.501     0.589  82.23   0
         6    718.1893     13.6990 307.6521258  +6.6823925     2307.697     2918.814     3398.239     77.32306     154.3997     309.2307      1.304     3.01     814.4832     54.54491     382.7465        13     1.131     0.630  77.73   0
         7    122.9526     14.4376 307.8993898  +6.6621571     808.7047     1059.012     604.7096     77.44609     154.7692     309.3538      1.451     3.41     819.2166     54.54491      134.478         8     1.109     0.492  64.05   0
         8    229.0696      9.6770 307.8554656  +6.6676847      934.462     1037.811     1025.937     77.69156     154.9536     309.4461      1.167     2.86     820.1199     54.54491     177.4485        10     0.940     0.671  87.05   0
         9    283.8060      8.7544 307.8327570  +6.6699014     968.6912     1189.464     1849.591     77.07642     154.5229     309.1075      1.389     2.63      820.956     54.54491     176.6314         8     0.869     0.607  86.71   0
        10    206.3292      6.6330 307.8650150  +6.6681784     13277.71     17029.52     17650.25     77.44609     154.7692     299.2165      1.330     2.85     819.7512     54.54491     2078.754        28     1.237     0.860  76.77  16
        11     19.7474      6.7701 307.9425215  +6.6618545     1134.287     1483.832     1031.005     77.32306     154.8922     300.1695      1.305     3.40     819.8373     54.54491     183.3131        11     1.123     0.636  86.61  16
        12    550.5079      4.6814 307.7220926  +6.6805135     3611.045     4453.476     4278.052     77.32306     155.0151     279.7808      1.276     2.95      815.313     54.54491     608.5064        18     1.151     0.749  73.52  16
        13    951.9346      4.0221 307.5553345  +6.6941807     4604.622     6362.116     6838.591     77.19984     152.9749     271.7366      1.408     3.24     812.1959     54.54491      768.899        23     1.261     0.841  81.04  24
        14    752.7775      2.7921 307.6381201  +6.6880500     2496.521     3270.596      3493.18     77.19984     141.9342     254.9996      1.285     3.00     813.7053     54.54491     470.5202        16     1.180     0.701  72.34  24
        15    488.6904      3.0524 307.7478296  +6.6791183     2140.327     2760.083     2827.568     77.56892     144.7898     259.0005      1.257     2.95     815.2849     54.54491     364.4539        13     1.122     0.680  78.00  24
        16    107.6347      2.8267 307.9061437  +6.6664361     444.5216     544.9763      377.857     77.07642     142.4698     255.5218      1.232     3.47     818.9672     54.54491     71.41284         5     0.783     0.445  73.39  16
        17   1016.7787      1.4565 307.5284785  +6.6973985      1280.61     1484.119     1396.169     68.99446     124.8018     234.0936      0.979     2.08     811.3513     54.54491     316.0481         8     0.819     0.587  -1.71  24
        18    848.0054      1.8823 307.5985860  +6.6916016     480.3946     625.5404     697.1258     73.27718     130.6894     241.2242      1.190     3.98     812.6486     54.54491     95.80933         5     0.855     0.529  61.09  24
        19    543.4098    989.9606 307.6920768  +6.2734772     1340.423      1662.61     1140.105      76.9528     154.5845     309.1999      1.476     3.89     847.8232     54.54491      193.157        14     1.045     0.989 -78.68   0
        20    991.7686   1023.1636 307.5048396  +6.2747163       627.44     1121.408     1698.922     73.01687     130.1053      240.671      2.092     5.36     841.6712     54.54491     90.50037         7     1.318     0.616   2.38  24
        21    821.2167   1020.8019 307.5757206  +6.2700131     6763.762     10447.61     10951.08     77.19984      153.472     273.6915      1.650     3.60     845.5217     54.54491     843.7869        34     1.430     1.120  66.98  24
        22    610.1729   1023.1874 307.6632513  +6.2619886     135206.1     160542.3       163014     72.75563     129.8123      240.394      1.234     3.09      848.628     54.54491     23276.71        45     1.210     0.909  12.76  27
        23    612.0653   1016.8057 307.6626789  +6.2646867     79053.26     116580.3       123292     77.07642     154.5229     308.5834      1.559     3.13      848.405     54.54491     11114.05        79     1.538     1.190  77.42  19
        24    777.8368    987.9209 307.5948257  +6.2821434     8661.248     12798.92     13092.47     77.44609     154.8307     309.4461      1.568     3.26     845.0916     54.54491     1119.139        32     1.388     1.061  72.82   0
        25    573.3010    988.4411 307.6797188  +6.2751032     4751.472     7045.039     7095.351     77.56892     154.6461     309.6614      1.569     3.49     847.7996     54.54491     630.5305        27     1.416     0.957  77.80   3
        26    570.4959    980.7928 307.6811389  +6.2781674     9426.044     13235.19      13876.4     77.32306     154.3997     309.2614      1.509     3.04     847.6258     54.54491     1294.203        35     1.392     1.012  79.96   2
        27    323.3606    987.3737 307.7835111  +6.2671848     16606.97     23551.95     24621.69     77.19984     154.5845     309.2922      1.528     2.99     846.8214     54.54491     2275.181        43     1.388     1.078  82.88   2
        28    327.7216    984.4160 307.7817999  +6.2685520     1159.293     1632.007     2148.135     77.19984     154.5229     309.2922      1.563     3.62     846.7244     54.54491     188.4338        11     1.106     0.717  72.66   3
        29     20.2697    988.4556 307.9092899  +6.2565742     789.5609     1167.217     1171.974     77.56892     154.6461     309.3846      1.371     3.36     841.0904     54.54491      142.632         6     1.112     0.341  58.53   0
        30    838.8575    986.9571 307.5695254  +6.2845750     1131.605     1834.395     1492.881     77.44609     154.7077     309.4769      1.570     4.36     844.9626     54.54491     161.1459        14     1.307     0.774  48.74   0
        31    939.1760    981.3969 307.5280636  +6.2902113     8519.488     14124.93     14950.02     77.19984     154.4613     309.2922      1.765     3.71     843.1997     54.54491     1037.553        44     1.516     1.307  73.33   0
        32    294.6080    984.6543 307.7955379  +6.2673447     1043.163     1409.291     1847.668     77.07642     154.6461     309.1691      1.604     4.81     846.7439     54.54491     142.3177        10     1.118     0.682  67.81   0
        33    912.7886    977.5673 307.5391459  +6.2909141     12058.64     20110.58     21750.67     77.07642     154.5229     309.2922      1.811     3.67     843.7611     54.54491     1403.898        54     1.565     1.387  69.57   0
        34     69.2401    980.5060 307.8892294  +6.2615005     556.6565      789.484     1264.359     77.69156     154.7077     309.5384      1.585     5.50     842.1531     54.54491      100.309         7     1.050     0.812  31.52   0
        35    625.6573    978.0371 307.6583315  +6.2811473     1617.726     2273.899     1788.143     77.56892     154.8307     309.4461      1.470     3.77     847.1594     54.54491     257.3826        16     1.221     0.827  89.32   0
        36     22.4258    980.0274 307.9086781  +6.2601263     748.5771     1010.091     900.5814     77.07642     154.5845     309.2922      1.546     3.95     840.8122     54.54491     117.0165         9     0.989     0.668  36.53   0
        37    556.8377    976.5913 307.6869494  +6.2794458     4663.996     6573.557      7064.69     76.82898     154.5229     309.1999      1.501     3.10     847.5265     54.54491     652.4072        25     1.248     0.943  72.72   0
        38    666.6753    976.0500 307.6413697  +6.2833369      1534.27      2131.04     2117.191     77.56892     154.8307     309.4461      1.539     3.52     846.2098     54.54491     244.0837        15     1.136     0.837  88.78   0
        39     91.8223    975.7114 307.8800165  +6.2642380     908.5416     1299.703     648.2017     77.56892     154.5845      309.323      1.419     5.50     842.5953     54.54491     128.6867        11     1.172     0.764 -59.86   0
        40    447.9639    987.7096 307.7317743  +6.2712160     1105.012      1334.58     972.6755     77.69156     154.7077     309.4769      1.362     3.19     846.9147     54.54491     173.9321        11     0.985     0.724 -71.84   0
        41    510.0623    972.9849 307.7064881  +6.2793717     2409.849     3408.607     3562.401     77.07642     154.7077     309.2614      1.497     3.31     846.9298     54.54491     352.8011        18     1.257     0.900 -87.35   0
        42    944.5235    965.0738 307.5263871  +6.2971289     44109.59     69673.38     73103.59       77.814     155.0151     309.4769      1.737     3.54      842.774     54.54491     5319.334        68     1.617     1.247  72.94   0
        43     17.2697    965.0254 307.9113226  +6.2661469     3450.538     5159.506     5268.016     77.19984     154.6461     309.3846      1.566     3.38     840.0464     54.54491      504.475        24     1.335     0.993  71.19   0
        44    251.6390    963.4266 307.8140867  +6.2746694     2144.663     2896.902     2765.194     77.19984     154.5845     309.2922      1.502     3.29     845.2936     54.54491     312.1401        17     1.072     0.990  78.68   0
        45    139.7531    962.7154 307.8605563  +6.2712118     611.4852     1021.009     732.0942     77.56892     154.7692     309.4769      1.655     2.95     843.1644     54.54491     116.6948         6     0.853     0.636  18.68   0
        46    650.7137    961.6369 307.6484773  +6.2887551     1027.659     1321.484     1124.426     77.56892     154.7077     309.4461      1.375     4.33     846.4467     54.54491     144.4937         9     0.998     0.662  73.76   0
        47    842.5584    959.0117 307.5689205  +6.2962365     2221.125     3431.437      3350.24      76.9528     154.5845     309.1691      1.625     3.63     844.4473     54.54491     278.0024        19     1.241     0.931  58.71   0
        48    790.6718    956.7350 307.5905374  +6.2954474     7259.111     10818.68     12016.74     77.56892     154.7692     309.4769      1.622     3.22     844.6727     54.54491     929.7297        37     1.518     1.077  85.39   0
        49    577.5764    956.4425 307.6790134  +6.2884576     1005.076      1293.76     1545.203     77.19984     154.6461     309.2614      1.628     3.65     847.0051     54.54491     181.8685         9     1.025     0.606  76.64   0
        50    260.1396    955.9778 307.8108077  +6.2780297     1754.424      2292.68     2399.765     77.19984     154.7077     309.3538      1.421     3.44     845.2167     54.54491     242.6843        14     1.085     0.848  59.08   0
        51    224.5360    955.2850 307.8256108  +6.2771226     994.9739      1392.36     1254.682     77.69156     154.8922     309.4461      1.456     3.94     844.5669     54.54491     148.9443        10     1.078     0.703 -89.57   0
        52     85.0167    954.1450 307.8835658  +6.2729136      3076.36     4519.651     4209.756     77.07642     154.7077     309.1999      1.533     3.50     841.5419     54.54491     398.8235        21     1.288     0.908  81.02   0
        53    978.9245    951.8047 307.5125469  +6.3037524      6579.57     10887.42     10826.61     77.19984     154.2763      309.323      1.750     3.59      841.903     54.54491     801.6031        38     1.484     1.232  79.35   0
        54    234.8617    948.2064 307.8215617  +6.2803912     769.1822     1168.881     631.5378      76.9528     154.5845     309.1999      1.420     4.85     844.5359     54.54491     102.1331         8     0.976     0.683  28.25   0
        55    661.4406    946.0096 307.6445460  +6.2955654     842.8964     1142.156     1176.032      76.9528     154.5845     309.1691      1.681     3.94     846.2037     54.54491     125.9031        11     1.041     0.822 -88.55   0
        56    952.7773    943.4485 307.5236805  +6.3063325     2265.439     3616.382     3847.119     77.19984     154.7692     309.3538      1.749     4.08     842.2953     54.54491     284.4355        22     1.275     1.111  62.44   0
        57     10.4088    941.9000 307.9149478  +6.2754641     1111.418     1739.293     1884.198     77.32306     154.3997     309.2922      1.631     4.08     838.8799     54.54491     148.7853        15     1.188     0.971 -38.06   0
        58    812.0687    939.8464 307.5822175  +6.3031337     1544.308     1928.987     1871.069     77.56892     154.7077     309.4153      1.417     3.18     844.2668     54.54491     219.1625        14     1.009     0.894 -68.90   0
        59    673.4077    939.5405 307.6397938  +6.2986357     5096.839     7072.617     6968.828      76.9528     154.6461     309.1691      1.493     3.04     846.0761     54.54491     675.8834        26     1.293     0.992  67.35   0
        60    285.5732    939.6752 307.8007960  +6.2856126     4924.088     6771.907     7080.951     77.44609     154.7077     309.4153      1.485     3.07     845.1255     54.54491     739.5822        24     1.264     0.908  78.05   0
        61   1022.5103    939.3556 307.4948659  +6.3103423     765.4961     1220.727     1122.417     77.56892     138.6085     250.8971      1.808     5.28     841.1674     54.54491      91.2287         9     1.140     0.691  58.41  24
        62    495.5550    938.1218 307.7136766  +6.2932810     1365.018     1885.066     1937.809     77.44609     154.7692     309.4461      1.456     3.97     845.7388     54.54491     204.3239        16     1.293     0.811 -82.83   0
        63     54.1659    937.2255 307.8969407  +6.2788634     2409.523     3428.845     3733.411      76.9528     154.5229     309.1999      1.550     3.36     839.9655     54.54491     315.7852        22     1.240     1.004 -82.80   0
        64    905.0408    935.6632 307.5437583  +6.3079579     962.5474     1440.815     1522.254     77.56892     154.7077     309.5384      1.697     4.72      843.055     54.54491     110.3802        11     1.027     0.767 -79.76   0
        65    997.2635    934.2900 307.5055162  +6.3115941     512.2892     870.3258     507.6898     77.56892     154.8922     309.5076      1.726     6.07     841.5734     54.54491      70.0423         7     1.210     0.855  45.84   0
        66    321.3871    933.1210 307.7861481  +6.2895182     908.7503     1165.949     1199.661     77.19984     154.4613     309.2307      1.421     3.90     845.0275     54.54491     148.7714         8     1.095     0.487  89.52   0
        67    976.4913    933.0485 307.5141815  +6.3114157     897.3848      1468.62     1717.005     77.56892     154.6461     309.5999      1.862     4.72     841.8562     54.54491     109.6315        11     0.946     0.909 -51.11   0
        68    598.0732    932.0555 307.6713191  +6.2992112     1915.541     2650.902      2672.88     77.44609     154.6461     309.3538      1.475     3.45     846.4092     54.54491     313.3466        13     1.111     0.699  85.97   0
        69    637.2800    928.3658 307.6551656  +6.3020437     1499.991     1848.297     2079.808     77.44609     154.8307     309.4769      1.379     3.42     846.2146     54.54491     234.5798        15     1.160     0.847  59.55   0
        70     86.9316    928.7670 307.8836232  +6.2834555     845.9969     1198.866     1599.769     77.44609     154.7692     309.4769      1.256     2.94     840.6261     54.54491     174.3547         8     0.993     0.506  56.76   0
        71    317.1090    926.1925 307.7881563  +6.2922356     1608.301     2011.985     2068.736     77.19984     154.4613     309.2614      1.374     3.79     844.8503     54.54491     244.1298        12     1.136     0.684  78.91   0
        72    584.7134    924.7128 307.6771109  +6.3017966      694.935     939.1265     585.1353     77.32306     154.9536     309.5384      1.374     3.77     846.2812     54.54491     107.7568         6     1.047     0.389 -76.32   0
        73    784.2832    922.1932 307.5943417  +6.3094963     1086.898     1467.323     1732.884     77.19984     154.4613      309.323      1.400     4.03     844.3276     54.54491     174.2956        12     1.179     0.695  71.69   0
        74    310.4930    922.0420 307.7910419  +6.2937276     1739.899     1865.552     1760.785     77.69156     154.7077     309.5384      0.680     0.24     844.7821     54.54491     751.5232         5     0.504     0.334  -9.38   0
        75    921.5568    918.6874 307.5374669  +6.3155169     7426.425     11216.99     11513.69     77.56892     154.6461     309.4769      1.658     3.36     842.4803     54.54491     928.0818        34     1.478     1.113  76.09   0
        76    159.5074    920.2509 307.8537812  +6.2894067     497.3769      565.592     278.4381     77.44609     154.6461     309.6306      1.357     4.30     843.0057     54.54491     75.84332         6     1.114     0.473  80.84   0
        77    457.4109    915.9650 307.7302533  +6.3011536     2524.564      3505.25     3587.416     77.07642     154.5845     309.2307      1.455     3.11     845.0878     54.54491     352.1005        17     1.146     0.858  78.16   0
        78    359.0881    914.3676 307.7711252  +6.2985233     11152.78     15205.33     15545.41     77.69156     154.5845     309.4461      1.436     2.94      844.892     54.54491     1670.696        34     1.316     0.990  73.59   0
        79    626.2567    915.7777 307.6601625  +6.3068731     579.4421     714.4865     1051.478     77.19984     154.7077     309.2614      1.469     4.67     846.1584     54.54491     110.8459         6     0.960     0.643  29.25   0
        80    279.1628    913.3312 307.8043403  +6.2962746     8214.948     11425.13     11690.35     77.44609     154.7692     309.5384      1.476     3.16     844.4589     54.54491     1178.622        31     1.312     1.002  83.45   0
        81    607.4275    907.8065 307.6682459  +6.3095355     1346.099     2144.762     2015.977     77.07642     154.6461     309.2614      1.539     4.00     846.1144     54.54491     202.8987        14     1.317     0.731  78.99   0
        82    791.5693    907.3908 307.5918104  +6.3158509     774.7289     854.6017     743.2176     77.07642     154.5845     309.2614      1.505     5.64     843.8881     54.54491     104.8493        10     1.138     0.787  63.78   0
        83    937.0635    903.6814 307.5315287  +6.3222289     997.8754     1466.915     1997.868     77.69156     154.8307     309.4461      1.546     3.35     842.1472     54.54491     145.9655        10     0.904     0.772  58.30   0
        84    241.3332    903.5811 307.8203717  +6.2990325     617.5513     694.3988     1330.274     77.19984     154.7692     309.3538      1.368     4.14        843.9     54.54491     95.66589         6     0.891     0.551  44.29   0
        85    170.0085    904.0571 307.8499653  +6.2964448      496.809     812.4348     671.1577      76.9528     154.7077     309.1999      1.404     3.62     842.6065     54.54491     100.7795         5     0.655     0.576 -89.71   0
        86    893.2630    902.6012 307.5497496  +6.3212166     778.1436     1445.381     1447.761      76.9528     154.5845     309.2307      1.868     5.17     842.8195     54.54491     110.4278         9     1.125     0.855  53.73   0
        87    435.7032    901.9357 307.7397348  +6.3062200     732.7502       1029.8     969.6823     77.44609     154.8922     309.4769      1.451     3.95     844.9305     54.54491     146.0969         9     1.219     0.668  58.83   0
        88   1005.0928    899.8488 307.5034120  +6.3260750     778.1512     1107.454     1223.921     77.44609     154.6461     309.5692      1.525     4.52      841.093     54.54491     102.7462         8     0.966     0.714  25.48   0
        89    597.3552    897.7742 307.6727628  +6.3133413     854.6394     1206.088     825.7953     77.07642     154.8307      309.323      1.485     4.74     845.9686     54.54491     122.9168        10     1.103     0.715  73.71   0
        90    865.9854    897.4498 307.5612463  +6.3224351     671.9278     1123.871     550.9955      76.9528     154.7692     309.1691      1.696     5.17     843.1255     54.54491     99.90002         8     0.931     0.811 -17.34   0
        91    773.6708    896.9998 307.5995880  +6.3195446     1903.179     2482.651      2681.92     77.07642     154.2763     309.2307      1.397     3.31     844.0741     54.54491     268.7578        14     1.128     0.761  86.11   0
        92   1005.0410    892.8902 307.5036650  +6.3289464     1250.763       1939.1     1917.155     77.56892     154.7692     309.4769      1.611     4.75     840.9988     54.54491     191.6103        15     1.296     0.867  68.19   0
        93     24.0076    894.0203 307.9109118  +6.2956885      1092.54     1376.794     1192.545     77.19984     154.5229     309.2614      1.453     3.91     838.3205     54.54491     169.5041        15     1.090     1.003 -75.48   0
        94    637.5674    893.6111 307.6562072  +6.3164029     830.2358     1032.791     423.1379     77.07642     154.5229     309.2922      1.323     3.02      845.976     54.54491     127.6331         8     0.890     0.643  87.90   0
        95    558.7709    892.7108 307.6889508  +6.3141430     1242.861      1557.41     1553.722     77.69156     154.5229     309.3538      1.285     3.06     845.7291     54.54491     215.5676        11     1.104     0.609  77.79   0
        96    649.1895    893.1274 307.6513982  +6.3169906     655.0084     937.7158     785.0698     77.07642     154.3997      309.323      1.358     4.71       845.97     54.54491      108.264         8     0.966     0.675 -29.64   0
        97    692.1763    890.2688 307.6336469  +6.3196055     2846.285     3769.442     4197.877     77.19984     154.6461     309.4153      1.416     3.07     845.6116     54.54491     429.3122        20     1.218     0.888  75.70   0
        98    982.5783    888.8404 307.5131260  +6.3298713     534.7849     800.7182     437.3405     77.19984     154.5845     309.2614      1.718     3.46     841.3032     54.54491     71.90698         5     0.791     0.438  69.72   0
        99    853.2194    886.8865 307.5668986  +6.3263713      977.344     1527.116     1489.601     77.32306     154.5229      309.323      1.657     3.89     843.0115     54.54491     164.9677        12     1.145     0.763  45.96   0
       100     88.8792    886.3206 307.8842403  +6.3010455     3177.882     4720.676       4819.4       77.814     155.0151     309.5999      1.557     3.38     839.5744     54.54491     439.0009        23     1.331     0.923  83.29   0
       101    589.8146    886.9196 307.6762561  +6.3175711     579.5195     791.8895     695.2957     77.19984     154.5229     309.2922      1.541     4.56     845.7999     54.54491     90.17712         5     0.941     0.627  59.98   0
       102    232.2566    885.4507 307.8247479  +6.3062138     2606.526     3416.811     3646.342     77.56892     154.7692     309.4461      1.381     3.14     843.6885     54.54491     372.3629        19     1.176     0.916  62.83   0
       103    106.3801    885.8188 307.8769919  +6.3018401     2200.509     3047.911     3366.214     77.32306     154.7077     309.3846      1.480     3.67     840.0209     54.54491     297.9423        19     1.296     0.871  67.97   0
       104    970.4261    885.6884 307.5182763  +6.3307684     870.1998     1303.146     697.4176     77.69156     154.5845      309.323      1.498     4.10     841.4855     54.54491      115.539         7     1.004     0.478  81.64   0
       105    686.8627    879.4137 307.6362153  +6.3239101      8112.95     10993.55     11164.58     77.07642     154.5845     309.2922      1.415     2.90     845.6501     54.54491     1207.841        30     1.319     0.933  74.66   0
       106    371.2798    881.0659 307.7671792  +6.3126808      934.799     1358.676     1551.094     77.69156     154.8922     309.4153      1.623     3.92     844.6423     54.54491     167.4893         9     1.108     0.550  78.30   0
       107    266.1879    881.6832 307.8107877  +6.3089064     895.6458     1252.028     1035.741     77.19984     154.5229     309.2922      1.488     4.85     843.9883     54.54491     142.9883         8     0.989     0.675  59.41   0
       108    824.2970    880.2558 307.5791276  +6.3281454     832.9685     1166.155     1207.336     77.44609     154.7692     309.6306      1.561     4.23      843.023     54.54491     125.1144         8     0.936     0.653  70.49   0
       109     46.9296    877.8672 307.9019390  +6.3031273     1312.795     2074.856     2285.711     77.56892     154.8922     309.4461      1.670     3.38     838.5643     54.54491     225.7737        11     0.998     0.795  86.36   0
       110    476.3328    877.5242 307.7236840  +6.3176578     646.4438     828.5803     1090.245     77.69156     154.8922     309.4153      1.517     3.91     844.8387     54.54491     108.9696         7     0.864     0.682 -13.30   0
       111    924.5778    875.5790 307.5376486  +6.3334164     3083.971     4506.537     4482.047     77.32306     154.6461     309.4153      1.558     3.29     842.1499     54.54491     405.7338        23     1.343     0.938  67.74   0
       112     59.8600    876.3198 307.8966232  +6.3042004     1341.602      1828.08     1496.342     77.69156     154.7692     309.4153      1.492     3.19     838.7734     54.54491     199.0211        13     1.070     0.778  71.64   0
       113    799.0776    876.2332 307.5897324  +6.3289658     689.2444     869.4643     841.4236     77.44609     154.7692     309.4153      1.272     3.46      843.105     54.54491     99.66309         7     0.717     0.692   9.04   0
       114    369.8006    872.5530 307.7680785  +6.3161461     19218.36     25563.66     26833.75      76.9528     154.4613     309.0151      1.416     2.93     844.5754     54.54491     3057.172        38     1.334     0.961  76.54   0
       115    104.3219    873.7767 307.8782508  +6.3067428     1509.537     2119.206     1933.262     77.19984     154.5845     309.4153      1.467     3.37     839.6141     54.54491     214.4887        13     1.061     0.793  53.63   0
       116    240.5346    872.0032 307.8217623  +6.3120433     1610.517     2028.279     1699.275     76.82898     154.5229     309.2307      1.398     3.77     843.6904     54.54491     247.1069        13     1.138     0.839  81.24   0
       117    420.7736    871.8436 307.7469403  +6.3181448     761.4745     1019.156     1102.102     77.19984     154.8307     309.3846      1.381     2.72      844.624     54.54491      124.821         8     0.797     0.667 -37.83   0
       118    133.1083    863.2996 307.8666521  +6.3120344     1940.041     2627.521     2750.067     77.56892     155.1378     309.4153      1.427     3.51     840.1075     54.54491     302.8525        17     1.275     0.803  62.96   0
       119    447.4062    863.3787 307.7361667  +6.3225307     1181.149     1751.783     1492.334     77.19984     154.5845     309.2614      1.609     4.11     844.5374     54.54491     175.8284        14     1.169     0.815  60.12   0
       120    914.8821    857.4710 307.5422773  +6.3405703      2317.01       3441.2     3253.967       77.814     155.0765     309.4769      1.613     4.33     842.0115     54.54491     287.0829        21     1.374     1.019  77.90   0
       121    701.1663    859.3740 307.6309459  +6.3326615     928.7902     1332.468     1504.308     77.07642     154.5845     309.2307      1.851     3.41     845.0806     54.54491     138.2767         9     0.910     0.676 -73.25   0
       122    528.3958    860.0419 307.7026540  +6.3266163      757.218      819.527     598.9115      76.9528     154.4613     309.1999      1.217     3.50     844.8195     54.54491     121.6553         7     0.746     0.652  69.66   0
       123    885.6095    856.8981 307.5544501  +6.3398320     2211.557     3000.802     3047.576     77.32306     154.3997     309.2614      1.445     3.28     842.2425     54.54491     306.1715        19     1.172     0.938  46.11   0
       124    848.9492    856.2169 307.5696939  +6.3388921     3482.984     4969.336     5506.384     77.07642     154.8307     309.1691      1.470     3.30     842.4756     54.54491     510.4799        20     1.227     0.883  82.56   0
       125    116.6902    856.8466 307.8736847  +6.3141477     2836.313     4038.491     4802.188     77.56892     154.6461     309.5692      1.500     3.12     839.5502     54.54491     382.3497        21     1.210     0.976  82.97   0
       126    584.8943    847.7748 307.6796073  +6.3335689     392251.2     520065.5     537491.7     77.69156     154.5229     309.2922      1.388     3.39     844.9089     54.54491     64981.51       143     1.474     1.114  76.41   4
       127    479.4834    854.4135 307.7231493  +6.3273050      637.553     718.8369     1002.941     77.19984     154.5229     309.2922      1.123     3.02     844.1504     54.54491     139.7193         5     0.726     0.464  70.57   0
       128    485.7586    851.2269 307.7206506  +6.3288305     563.6931     862.2236     904.2988     77.19984     154.6461     309.2922      1.765     5.45     844.0386     54.54491     83.02161         7     1.222     0.685  76.60   0
       129    429.1338    850.4141 307.7441868  +6.3272722     9045.168     11859.06     12294.63     77.07642     154.6461     309.3846      1.369     2.80      843.774     54.54491     1431.786        27     1.254     0.899  73.10   0
       130    672.6982    850.8775 307.6430490  +6.3352196     1308.902     1663.649     1622.401     77.19984     155.0151     309.4461      1.286     2.45      845.431     54.54491     277.6754         9     0.906     0.645  73.51   0
       131    372.3430    848.7847 307.7678191  +6.3260445     14882.52     20002.34      20391.2      76.9528     154.7077     309.1999      1.395     2.92      843.813     54.54491     2285.624        33     1.309     0.921  75.69   0
       132    690.7794    845.0909 307.6357353  +6.3382122     4318.219     5824.198     6293.279     77.44609     154.5845     309.2922      1.367     2.98     844.8489     54.54491     725.4337        20     1.232     0.849  64.81   0
       133    923.3120    843.8474 307.5392311  +6.3464760     5705.512     8310.637     8982.087     77.56892     154.6461     309.5076      1.560     3.20     841.7088     54.54491     786.8536        28     1.316     1.001  70.62   0
       134    917.8625    843.4483 307.5415070  +6.3464593     665.1006     1091.882     1485.644     77.44609     154.7077     309.5076      2.206     5.08      841.735     54.54491     89.16486         7     0.894     0.817  84.14   1
       135    762.3408    842.0981 307.6061237  +6.3418349     790.1838     968.5234     498.1097     77.32306     154.7077     309.5692      1.478     4.16     843.2946     54.54491     113.2435         8     0.987     0.614  79.78   0
       136    208.6799    839.2730 307.8360848  +6.3244888     634.3394     813.2532     667.2102       77.814     155.0151     309.4769      1.482     5.12     842.2285     54.54491      83.5285         7     0.925     0.802  27.54   0
       137    853.9621    838.0200 307.5682192  +6.3465725     1843.331     2387.136     1662.935     77.19984     154.5229     309.1691      1.441     3.33     842.1985     54.54491     269.7505        15     1.126     0.828  62.03   0
       138    665.5596    839.0072 307.6464093  +6.3398824       3972.2     5511.928     6279.344      76.9528     154.4613     309.1383      1.439     2.90     845.0227     54.54491     622.5248        20     1.165     0.917  70.44   0
       139    655.8091    838.0149 307.6504907  +6.3399666     1164.494     1518.713     1782.885     77.32306     154.5229      309.323      1.412     3.36     844.9711     54.54491      200.113        11     1.025     0.710  81.70   3
       140    658.5630    833.6428 307.6494934  +6.3418637      2520.14     3463.434     4040.533     77.32306     154.7077      309.323      1.402     3.11     844.8482     54.54491     370.0128        20     1.329     0.836 -84.62   2
       141    364.4047    854.5130 307.7709229  +6.3234137     882.0071     1012.823     707.4351     77.07642     154.4613     309.1383      1.396     5.11      844.087     54.54491     123.6647        11     1.097     0.756  64.83   0
       142    981.0828    837.0784 307.5154701  +6.3511936     917.5385     1331.333     1379.766     77.69156     155.0151     309.5384      1.489     3.46     840.1027     54.54491     150.4338        10     0.929     0.832  50.40   0
       143    942.1481    831.7054 307.5318148  +6.3521163     3361.706     5104.446      4710.02     77.44609     154.7077     309.6921      1.611     3.33     841.0549     54.54491     473.2989        25     1.270     1.075  68.43   0
       144    352.2134    832.5729 307.7767193  +6.3320641     1204.157     1366.637     981.0615     77.19984     154.5845     309.3846      1.242     3.50     843.2424     54.54491     216.8923        10     1.005     0.647  81.54   0
       145    400.1292    827.8618 307.7569838  +6.3356131     3056.912      3859.36     3728.477     77.69156     154.7692     309.5076      1.308     3.13     842.6794     54.54491     511.0614        16     1.169     0.740  81.33   0
       146    368.4567    819.9719 307.7703977  +6.3378105     476.1355     530.1037     337.5504     77.19984     154.8307     309.3538      0.966     3.69     842.5859     54.54491     93.11365         6     0.793     0.493  83.74   0
       147    536.4782    817.3784 307.7007251  +6.3445013     3718.018     4989.943      4768.59     77.19984     154.5229     309.4461      1.372     2.93     843.0712     54.54491     540.6381        19     1.210     0.785  75.21   0
       148    881.1658    816.6313 307.5576371  +6.3563097     1081.253     1547.473     1612.632     77.07642     154.5229     309.1999      1.508     2.97     841.6625     54.54491     188.2019         9     0.953     0.646  83.27   0
       149    601.7426    815.3725 307.6736951  +6.3475100     943.3896     1100.667     727.9519     77.19984     154.8307     309.3538      1.350     4.47     844.0857     54.54491     158.1592        11     1.133     0.800  72.07   0
       150    583.2788    813.5588 307.6814217  +6.3476421     7367.368     9428.556     9739.721     77.44609     154.7692     309.4461      1.357     2.75     843.7384     54.54491     1180.496        26     1.273     0.861  73.68   0
       151    590.1752    813.0947 307.6785739  +6.3480641     1516.761     2333.188     2108.208     77.69156     154.5229      309.323      1.513     3.72     843.8224     54.54491     266.4459        14     1.192     0.778  89.15   0
       152    294.7129    814.1581 307.8012091  +6.3377414     893.9119     1325.416     979.7396     77.56892     154.7077     309.4769      1.543     3.79     842.9696     54.54491     126.0746        10     0.974     0.772  51.54   0
       153    918.7903    811.5053 307.5421860  +6.3596791     1673.614     2654.733     2485.369     77.19984     154.3997     309.2307      1.663     4.01     841.1649     54.54491     249.2347        16     1.222     0.868  70.29   0
       154    501.1510    812.4389 307.7155577  +6.3453599     1862.363     2325.278     2162.864     77.56892     154.7692      309.323      1.384     3.22     842.2227     54.54491     301.4603        15     1.137     0.803  81.15   0
       155    142.6110    811.8353 307.8644349  +6.3336011     1418.987      2207.87     2260.992     77.07642     154.5845     309.2307      1.493     3.96      839.125     54.54491     206.0331        11     1.112     0.674  85.59   0
       156    719.0152    810.5339 307.6251657  +6.3534223     833.9186     936.7424      484.328     77.07642     154.6461     309.3846      1.213     2.20     843.1913     54.54491     173.3696         8     0.781     0.630  87.66   0
       157    553.9786    807.4429 307.6937913  +6.3491883     23490.48     30541.28     31167.14     77.07642     154.6461     309.2614      1.381     2.80     842.9861     54.54491     3872.077        37     1.301     0.918  78.40   0
       158    395.2661    809.2625 307.7596257  +6.3431295     742.0219     1013.702     1329.047     77.56892     154.7692     309.4461      1.460     3.81     841.7881     54.54491     115.2964         7     0.933     0.556  32.31   0
       159    967.6670    805.6168 307.5220880  +6.3637373     4052.956     5607.788     5463.822     77.07642     154.7077     309.3538      1.499     3.12     839.5067     54.54491     575.4753        26     1.294     1.011  72.14   0
       160    266.4780    804.7276 307.8132477  +6.3406890     681.0225     1960.538     2018.416       77.814     155.0151     309.4461      2.710     9.52      842.572     54.54491     126.7499        17     2.111     1.198 -72.46   0
       161    200.5912    806.9643 307.8405269  +6.3375569     617.1932     633.1985     63.23211     77.07642     154.5845     309.2307      1.249     4.20     841.0787     54.54491     113.9434         6     1.028     0.488 -86.46   0
       162     87.4634    804.5131 307.8875759  +6.3347735     584.5145     783.9211     642.9675     77.56892     154.8922     309.4769      1.326     3.79      837.964     54.54491     93.26978         6     0.949     0.435 -73.15   0
       163     64.4047    798.0068 307.8973676  +6.3366856     1563.339     2144.921     2066.317      76.9528     154.5229     309.2922      1.417     3.23     837.4152     54.54491     225.9583        15     1.116     0.846 -89.36   0
       164    346.5733    796.2302 307.7802786  +6.3468802     3954.359     5224.641     5013.107     77.07642     154.5229     309.2922      1.378     2.97     841.7934     54.54491     576.4194        22     1.262     0.866  81.43   0
       165    608.6278    796.4995 307.6714671  +6.3555323     719.2375      952.839     1376.572     77.56892     154.5229     309.3846      1.767     4.45      843.543     54.54491     91.17694         7     1.173     0.480 -87.17   0
       166    812.1640    791.9489 307.5871100  +6.3642018     63883.68     85671.67     89095.41     77.44609     154.7692     309.3538      1.407     2.92     841.7687     54.54491     10449.07        64     1.394     1.045  76.53   0
       167     46.4441    794.2766 307.9049495  +6.3376225     2652.507     3300.316     3581.454     77.44609     154.8307     309.4769      1.313     2.97     837.0256     54.54491     398.0797        17     1.158     0.783  67.75   0
       168    750.6619    793.8542 307.6125826  +6.3613646     782.6882     1221.751     1355.345     77.69156     154.7077     309.4153      1.604     4.60     842.2274     54.54491     125.8477         8     0.955     0.646  75.84   0
       169    205.2330    792.9619 307.8390696  +6.3434937     718.5598     1466.234     1298.782     77.32306     154.5845     309.2307      2.135     6.09     840.6839     54.54491     114.7631        10     1.446     0.721  89.18   0
       170    269.3654    789.8889 307.8125464  +6.3469122     6150.649     8580.386     10161.79     77.69156     154.7077     309.4461      1.501     3.00     841.8018     54.54491     925.1216        25     1.291     0.896  83.48   0
       171    455.6811    790.8086 307.7351601  +6.3527701     974.3578     1387.709      1569.64     77.19984     154.3997      309.323      1.553     3.14     840.8115     54.54491     144.5216         8     0.881     0.622 -86.87   0
       172    740.4239    786.5744 307.6170765  +6.3640289      25349.8     33549.32      35908.7     77.07642     154.5845     309.3846      1.421     2.82     842.0994     54.54491     3651.858        43     1.378     0.956  72.21   3
       173    734.1107    783.0682 307.6198147  +6.3652660     103549.4     136691.5       141463     77.69156     154.9536     309.4461      1.385     2.89     842.0435     54.54491     17579.29        69     1.380     1.012  74.44   3
       174    219.0912    789.2938 307.8334391  +6.3454728     504.3525     901.5642     887.8447     77.56892     155.2605     309.4461      1.758     5.50      841.017     54.54491     76.92761         6     1.357     0.628  48.14   0
       175    937.4305    787.1646 307.5352572  +6.3703497     9396.576     13063.03     13483.12     77.19984     154.5229     309.2614      1.486     3.13     840.2032     54.54491     1286.866        30     1.305     0.990  70.45   0
       176    237.4516    786.1817 307.8259207  +6.3473732     821.2171     1825.579     3437.135     77.07642     154.8307     309.1999      6.150     6.09     841.1948     54.54491     157.1792        14     1.624     1.164 -76.64   0
       177    378.9497    783.9977 307.7672462  +6.3530146     24278.86     32280.96      33100.7      76.9528     154.3997     309.0459      1.370     2.89     840.8434     54.54491      4177.46        37     1.292     0.936  75.13   0
       178    440.8346    781.8254 307.7416249  +6.3559824     26359.67     34859.41     35825.38      76.9528     154.5845     309.2307      1.373     2.89     840.4349     54.54491     4516.958        47     1.339     0.979  78.15   0
       179    428.1348    784.0690 307.7468227  +6.3546312     1716.647     2540.968     2628.927     77.56892     154.8307     309.4769      1.506     3.09     840.4792     54.54491     277.7936        16     1.176     0.795  74.89   0
       180    667.7791    783.4293 307.6473440  +6.3629036     1093.754     1443.728     1772.233     77.07642     154.5845     309.3538      1.391     2.60     842.9081     54.54491      188.737         8     0.896     0.578  66.68   0
       181    268.8781    768.3542 307.8134709  +6.3557869     753572.3      1498339      1625123     77.44609     154.8307     309.4461      2.077     5.10     840.3547     54.54491     63523.88       545     2.340     1.937  78.22   4
       182    978.0447    780.7309 307.5186077  +6.3743578     2241.832     3395.242     3459.938     77.56892     154.7077     309.4461      1.597     3.66      838.818     54.54491     279.7513        21     1.289     0.994  85.91   0
       183    934.3887    778.5844 307.5368060  +6.3737911     7539.285     10352.94     11214.87     77.32306     154.4613     309.3846      1.504     3.07     840.0984     54.54491     1008.121        27     1.278     0.978  73.66   0
       184    906.9697    779.6703 307.5481547  +6.3724299     842.5807     883.1041      416.496     77.44609     154.7692     309.4153      1.220     3.27     840.5592     54.54491     166.4886         8     0.923     0.746  68.92   0
       185    674.8941    777.6805 307.6445819  +6.3655147     7684.646     10065.53     10249.32     77.32306     155.0151     309.5076      1.376     2.92     842.6387     54.54491     1322.317        26     1.255     0.886  72.31   0
       186    605.1683    778.7195 307.6734977  +6.3627577     575.6234     756.8286     903.9969     77.44609     154.7692     309.4153      1.415     4.26     842.6388     54.54491     106.8646         6     0.793     0.653  89.13   0
       187    164.7214    777.7755 307.8563987  +6.3484051     652.2983     670.7751     433.0913     77.19984     154.5845     309.4153      1.159     4.42     838.5444     54.54491     108.2079         8     0.920     0.634  87.84   0
       188    463.6137    775.9597 307.7323635  +6.3591662     1943.573     2688.665     2847.426     77.07642     154.5845     309.1999      1.376     2.90     840.2614     54.54491     320.4525        13     1.063     0.765  82.05   0
       189    414.7851    777.2123 307.7525949  +6.3570155     656.3166     725.4722     1130.358     77.44609     154.4613     309.3846      1.209     3.84     840.2086     54.54491     122.4319         6     0.835     0.750 -26.01   0
       190    234.6264    776.0797 307.8274325  +6.3514493     566.8219     1290.489      3362.14     77.44609     154.6461     309.4461      4.871     5.38     840.5507     54.54491     83.39355         5     1.269     0.643 -61.50   1
       191    188.4891    775.0463 307.8466225  +6.3503290     1094.917     1264.171      1111.86     77.56892     154.6461     309.5692      1.307     3.55     839.1888     54.54491     165.6422         9     0.941     0.758  78.06   0
       192    627.9588    770.0637 307.6643242  +6.3670927     1296.712     1554.648     1708.229     77.56892     154.7077     309.5384      1.297     3.33     842.2733     54.54491     189.5927        12     1.072     0.696  78.83   0
       193    902.9188    768.9728 307.5501932  +6.3767119     784.2301     1110.765     966.1345     77.44609     154.5845     309.4153      1.576     5.61     840.3265     54.54491     122.8521         9     1.274     0.696  77.16   0
       194    710.0108    767.8241 307.6303302  +6.3707561     2903.718     3766.421     3580.802     77.19984     154.5845     309.3538      1.377     3.33     841.8221     54.54491     478.8021        17     1.218     0.778  73.28   0
       195    179.0184    768.4802 307.8507749  +6.3527224     1145.553     1543.046     1433.491     77.19984     154.4613     309.3538      1.475     4.51     838.6107     54.54491     178.5049        12     1.226     0.719  84.40   0
       196    154.1517    768.5713 307.8610960  +6.3518506      1408.92     1729.022      1954.57     77.19984     154.8307     309.3538      1.316     3.88     837.9766     54.54491     210.9073        12     1.087     0.792 -84.89   0
       197    443.7560    764.5027 307.7409919  +6.3632323     65162.52     84041.67     86671.96     77.56892     154.7077     309.6306      1.346     2.81     839.8004     54.54491     10777.29        60     1.320     1.034  77.83   0
       198    643.9610    782.1312 307.6572768  +6.3626445     351.5988     479.8447     323.1582     77.44609     154.7692     309.5384      1.391     3.89     842.8593     54.54491     75.50311         5     0.825     0.526  56.11   0
       199     95.6562    765.7103 307.8854780  +6.3510688     462.8748     591.4948      705.631     77.44609     154.7077     309.5384      2.083     4.14     836.7372     54.54491     80.38666         6     1.071     0.457 -82.33   0
       200    561.5212    763.5142 307.6921285  +6.3675777     8542.704     10641.85     10216.97     77.44609     155.0765     309.5384      1.304     2.83       841.12     54.54491     1348.613        24     1.188     0.840  74.13   0
       201    478.3699    762.0812 307.7267012  +6.3653898     5332.448     7001.539     7596.062     77.44609     154.6461     309.4461      1.348     2.91      839.759     54.54491     909.8196        22     1.183     0.863  79.83   0
       202    806.7536    760.0878 307.5904192  +6.3771765     13128.77     17640.86     18184.91     77.56892     154.6461     309.4769      1.389     2.95     841.0789     54.54491     1993.527        31     1.311     0.925  75.84   0
       203    701.9009    759.5173 307.6339749  +6.3739152     554.7615     554.5237     322.4001     77.56892     155.2605     309.5384      1.084     4.40     841.5794     54.54491     95.66034         7     0.922     0.597  80.71   0
       204     36.0723    756.4528 307.9105268  +6.3528902     1345.922     1894.051     1384.439     77.44609     154.7692     309.4461      1.477     4.19     836.0581     54.54491     182.4028        16     1.278     0.854  75.58   0
       205    474.8616    755.5228 307.7283774  +6.3679803     2822.544      3470.21     3829.688       77.814     154.8307     309.4461      1.382     3.29     839.5239     54.54491     423.0452        18     1.204     0.796  73.75   0
       206    828.3274    754.3685 307.5816520  +6.3802570      1512.14     1908.908     2300.967     77.44609     154.7692     309.4461      1.385     3.22     840.7784     54.54491     208.4731        13     1.061     0.773  59.19   0
       207    996.4951    753.4471 307.5118551  +6.3862369     524.9724     865.5109     934.2346     77.44609     154.7077     309.5692      1.579     4.10     838.2639     54.54491     108.8585         5     0.975     0.491  83.72   0
       208    172.5420    752.5350 307.8539990  +6.3590884     3615.417     4864.892     5007.956     77.69156     154.7077     309.4769      1.414     2.87     837.8624     54.54491     578.3419        25     1.256     1.025  75.46   0
       209    164.4781    752.1512 307.8573599  +6.3589764     13500.68     17876.78     18737.11     77.56892     154.8307     309.4153      1.367     2.80     837.6235     54.54491     1962.313        34     1.253     0.974  75.80   2
       210    156.6057    749.5196 307.8607167  +6.3597988     3483.282     4967.443     5471.036     77.19984      154.338     309.2307      1.564     2.74     837.4067     54.54491     520.3573        23     1.171     1.046  47.57   3
       211   1001.5964    748.8697 307.5098892  +6.3882966     1492.955     2316.946     2754.452      76.9528     154.3997     309.2614      1.622     3.78     838.1584     54.54491     212.6058        15     1.212     0.797  69.36   0
       212    952.2425    748.6364 307.5303903  +6.3867506     7172.449      10185.3     10205.15     77.32306     154.7692      309.323      1.515     3.11     839.0259     54.54491     1015.176        32     1.355     1.042  79.02   0
       213    707.7598    746.2752 307.6319843  +6.3795782      2086.68     2654.745     3096.566     77.44609     154.7692     309.4769      1.348     2.86     841.0042     54.54491      362.845        15     1.084     0.794  61.53   0
       214    594.6790    745.5498 307.6789617  +6.3761026     2703.078     3280.683     3134.693     77.56892     154.8307     309.4461      1.295     2.98     840.8481     54.54491     465.6664        16     1.205     0.685  62.25   0
       215    442.4045    744.8336 307.7422115  +6.3713080     1360.198     1995.562     2119.425     76.82898     154.6461     309.2307      1.509     4.93     839.0418     54.54491     232.0015        12     1.486     0.525  80.67   0
       216    726.1520    743.8918 307.6244271  +6.3811759     598.9677     791.0743     956.4127     77.56892     154.7077     309.5692      1.206     2.85     840.8893     54.54491     106.4507         6     0.744     0.557 -53.00   0
       217    156.6433    743.0986 307.8609167  +6.3624511     2354.354     3323.847     3738.237     77.56892     154.6461     309.6614      1.500     3.00      837.175     54.54491     349.5513        17     1.138     0.836  79.68   1
       218    946.4643    740.6246 307.5330564  +6.3898663     3304.293     4622.956     4770.243     77.19984     154.7692     309.4153      1.513     3.32      838.966     54.54491     442.4109        22     1.331     0.887  77.77   0
       219   1006.7776    739.9222 307.5080357  +6.3921633     2013.033     2758.875     3145.418     77.19984     154.5845     309.4153      1.449     3.37     838.1085     54.54491     285.0239        16     1.221     0.777  68.25   0
       220    976.0237    740.0629 307.5208011  +6.3910820     3443.597     4825.845     4462.659     77.19984     154.7692     309.3538      1.447     3.11     838.5339     54.54491     551.5216        20     1.235     0.884  70.02   0
       221    698.8386    739.7994 307.6359048  +6.3819543     1680.108     2428.166     2688.813     76.70496     154.5845     309.1691      1.481     3.42     840.7842     54.54491     311.6338        17     1.263     0.886  72.87   0
       222    846.0601    737.9107 307.5748378  +6.3876431     1179.607     1365.641     1602.906     77.44609     154.8922     309.5076      1.299     4.21     840.2635     54.54491     208.6571         8     0.981     0.582  66.26   0
       223    921.6548    735.9899 307.5435125  +6.3909540     800.5613      1014.66     1050.809      76.9528     154.7077     309.1383      1.281     2.10     839.1918     54.54491     148.9554         7     0.688     0.639 -86.26   0
       224    271.2496    734.8956 307.8136082  +6.3696805     2049.786      2656.35     2870.772     77.44609     154.6461     309.5999      1.311     2.67     838.2216     54.54491     327.7073        15     1.068     0.772  83.64   0
       225    708.3929    732.3447 307.6321866  +6.3853510     734.3853     903.6882     1328.355     77.07642     154.5845     309.1691      1.454     4.69     840.6054     54.54491     117.4709         6     1.002     0.622  69.66   0
       226    291.7263    730.4935 307.8052540  +6.3721842       880.65     1239.717     1376.473     77.44609     154.8922     309.4461      1.587     5.88     838.0767     54.54491     130.9973        12     1.412     0.689  65.55   0
       227    964.2735    730.1572 307.5260101  +6.3947810     1154.314     1735.842     1762.372     77.44609     154.8307     309.4769      1.442     3.13     838.4321     54.54491     185.5925        13     1.084     0.753  48.30   0
       228    938.0685    729.1431 307.5369251  +6.3943274     1332.663     1975.098     2289.512     77.69156     154.7077     309.3846      1.605     4.39     838.8431     54.54491     192.0566        15     1.343     0.748  72.60   0
       229    186.7988    729.7673 307.8488439  +6.3689666     868.1927     1163.132     1488.601     76.82898     154.5845     309.1999      1.520     4.52     837.1918     54.54491      143.451         8     1.021     0.569 -85.95   0
       230    990.7870    727.8989 307.5150758  +6.3965956     2725.333     3886.762     4284.472     77.32306     154.5229     309.1999      1.557     3.36     837.8915     54.54491     347.3822        20     1.207     0.941  69.75   0
       231    710.2700    726.8875 307.6315894  +6.3876668      1099.66     1559.039     1682.736     77.69156     155.0151     309.4461      1.340     3.43      840.549     54.54491     170.1918         8     0.960     0.628  81.47   0
       232    501.7105    722.5277 307.7183335  +6.3825011     648.9585     763.8329     813.2134     77.56892     155.0151     309.4461      1.005     2.76     838.7714     54.54491     124.6818         6     0.853     0.453 -88.79   0
       233    658.9632    721.2296 307.6530823  +6.3882906     808.0186     1144.809     1219.445     77.19984     154.5229     309.2922      1.561     3.53     840.4196     54.54491     154.7708         8     1.084     0.538  67.04   0
       234    431.2587    722.0910 307.7476007  +6.3803250     686.1846     730.4273     853.3394     77.44609     154.7692     309.5692      1.145     4.00     838.3139     54.54491     141.1294         7     0.929     0.629 -84.44   0
       235    834.0488    719.7834 307.5804297  +6.3947274     1258.933     1690.539     1986.642     77.07642     154.8307     309.1691      1.463     4.25     839.9967     54.54491     204.2258        14     1.208     0.801  70.17   0
       236    920.2849    717.0754 307.5447116  +6.3987180     1825.443     2625.772     2929.441     77.69156     155.0765     309.5076      1.541     4.23     838.9736     54.54491     258.9852        18     1.377     0.826  59.39   0
       237    894.6494    712.3145 307.5555151  +6.3998301     1112.408     1293.496     1295.131     77.56892     154.7077     309.5076      1.294     2.86      839.253     54.54491     166.4041        10     0.889     0.750 -54.28   0
       238    680.2615    711.5859 307.6445607  +6.3929832     629.7315     754.2496      759.412     77.07642     154.6461     309.2307      1.320     3.70     840.3799     54.54491     110.5625         7     0.892     0.625  73.69   0
       239    877.1227    708.3842 307.5629239  +6.4008691     1771.096     2301.663     1998.091     77.19984     154.4613      309.323      1.413     3.39     839.4376     54.54491     265.5107        15     1.215     0.744  60.59   0
       240     76.1657    707.5150 307.8955253  +6.3744413     2927.454     3955.799     3951.454     77.56892     154.6461     309.4153      1.400     2.98      835.536     54.54491      459.077        17     1.128     0.809  85.86   0
       241    140.2518    706.3134 307.8689574  +6.3770885      1183.99     1931.081      1925.56     77.56892     154.6461     309.5076      1.774     5.73     835.8865     54.54491     182.4785        17     1.672     0.696  76.60   0
       242    488.4197    706.4442 307.7243902  +6.3886972     574.5245     907.5859     1130.732     77.07642     154.6461     309.2922      1.596     3.88      838.288     54.54491     107.2785         5     0.992     0.436  74.97   0
       243    688.8353    695.9570 307.6415226  +6.3997223     7505.467     9964.533     10541.34     77.32306     154.7692     309.2614      1.381     2.93     840.1996     54.54491      1276.45        26     1.237     0.851  71.45   0
       244    635.6192    695.2528 307.6636433  +6.3982366     1803.276     2556.681     3190.257     77.07642     154.8307     309.2614      1.429     2.82     839.7595     54.54491     315.1708        14     1.115     0.712  73.85   0
       245    557.2771    696.0062 307.6961481  +6.3953086     718.5662     902.9762     784.8571     77.19984     154.2763     309.2922      1.065     2.96     838.8771     54.54491     127.5906         7     0.751     0.620  79.50   0
       246    546.4651    695.4230 307.7006571  +6.3951881     942.1425     1152.972     764.3806     77.19984     154.7692     309.3538      1.293     4.58     838.7316     54.54491     156.2156         8     1.195     0.499 -89.61   0
       247    151.7612    691.9766 307.8646601  +6.3833939     4576.225     5829.064      5908.84     77.19984     154.5229     309.2614      1.331     2.88     835.6135     54.54491     721.2256        23     1.161     0.928  82.39   0
       248    338.3742    692.1041 307.7871722  +6.3895967     816.9988     1274.848     1517.285     77.69156     154.5229      309.323      1.668     4.58     836.7084     54.54491     111.1374         8     1.038     0.574  69.84   0
       249    274.1837    691.8420 307.8138338  +6.3875544     844.5207     1223.599     710.1188     77.07642     154.5845     309.2307      1.445     3.26     835.9739     54.54491      168.653         8     1.068     0.600  86.49   0
       250    662.5959    691.5923 307.6525639  +6.4006486     2561.753     3156.296     3361.646      76.9528     154.4613     309.2922      1.258     2.86     840.0303     54.54491     453.0644        15     1.084     0.746  65.62   0
       251    935.6896    687.8841 307.5392875  +6.4112837     4108.748     5979.052     6190.729     77.32306     155.0151     309.5384      1.505     2.98     838.2013     54.54491     676.2415        22     1.247     0.870  76.97   0
       252    805.7020    688.0707 307.5932582  +6.4068764     24052.83     31345.24     31782.58     77.44609     154.9536     309.4769      1.351     2.89      839.436     54.54491     3857.712        37     1.277     0.928  73.11   0
       253    533.3713    688.2333 307.7063345  +6.3977189     1109.292     1311.233     958.1533     77.07642     154.5229     309.2307      1.205     3.02     838.4519     54.54491     214.0583        10     1.071     0.597 -87.89   0
       254    504.6487    688.3234 307.7182580  +6.3967215      1711.24      2017.67     2007.056     77.44609     154.8307     309.4461      1.188     2.85     838.1335     54.54491     285.0779        13     1.042     0.748  67.42   0
       255    487.6261    689.2479 307.7252953  +6.3957707     444.0385     603.4256     1101.102     77.19984     154.8307     309.3538      1.216     3.40     837.9595     54.54491     88.10028         5     0.767     0.435 -70.44   0
       256    350.6677    687.8809 307.7822093  +6.3917520     842.9233     1085.085     1384.702     77.69156     155.0151     309.4769      1.267     3.83     836.7211     54.54491     145.1184         8     1.084     0.526  71.70   0
       257    306.9901    687.7174 307.8003505  +6.3903566     698.1978     906.9094     548.6873     77.19984     154.3997     309.2922      1.387     3.39     836.0992     54.54491     110.6652         8     0.951     0.597  68.03   0
       258    114.5097    684.7457 307.8803699  +6.3851292     534.2324     558.7068     442.5245     77.44609     154.5845     309.5692      1.363     4.32     835.3691     54.54491     75.49774         6     1.087     0.488 -83.65   0
       259    279.2439    681.7609 307.8120708  +6.3918862     7314.219     9555.905     9950.245     77.32306     154.7692     309.2922      1.359     2.93     835.4742     54.54491     1180.501        25     1.232     0.859  79.10   0
       260    686.2026    680.8806 307.6431193  +6.4058592     8308.747     10660.48     10772.36      76.9528      154.338     309.1999      1.322     2.94     840.0305     54.54491     1396.162        23     1.212     0.830  73.24   0
       261    668.8278    681.9529 307.6502983  +6.4048366     993.3687     1278.626     1472.133     77.19984     154.8307     309.3846      1.354     2.83     839.9811     54.54491     180.1888         9     0.915     0.628  73.10   0
       262    381.4853    681.0099 307.7696434  +6.3956207      763.253     923.2374     1022.086     77.19984     154.4613     309.2922      1.187     2.25     836.7275     54.54491     147.0121         6     0.739     0.498  85.59   0
       263    946.2372    673.6087 307.5353831  +6.4175289     1509.679     1989.857     2007.994     76.82898     154.5229     309.1999      1.415     3.65     837.4877     54.54491     216.0424        15     1.239     0.769  58.69   0
       264    757.9821    669.4209 307.6136959  +6.4129855     4426.438     5876.187     6695.478     77.32306     154.6461     309.3538      1.442     3.06     839.5268     54.54491     700.0211        19     1.226     0.819  76.87   0
       265   1023.5583    665.7042 307.5035382  +6.4233655     6693.907      8436.08     8832.649     68.71793     124.5727     234.8651      1.199     3.26     833.4603     54.54491     1442.788        19     1.388     0.610  88.24  24
       266     23.2986    668.1540 307.9187985  +6.3889165     851.4387     992.6631     798.4288     77.56892     154.6461     309.6614      1.270     4.47     835.7375     54.54491     158.3149         8     0.969     0.727 -86.24   0
       267    962.7037    666.4052 307.5287853  +6.4210513     2632.307     3671.731     3617.068     77.32306     154.4613     309.1999      1.468     3.04     836.4296     54.54491     429.6241        18     1.221     0.814  82.57   0
       268    713.3206    669.7433 307.6322307  +6.4113626     1255.736     1606.812     1567.184     77.56892     154.7692     309.4461      1.285     3.37     839.8194     54.54491     221.8026         8     0.938     0.548  79.79   0
       269     43.5211    665.9617 307.9104758  +6.3905009      2299.65     3118.859     3240.466     77.44609     154.8307     309.4461      1.407     2.83     835.5422     54.54491     321.1725        16     1.075     0.825  79.11   0
       270    460.4417    664.3006 307.7374180  +6.4051616     605.2342     892.7772     941.7419     77.56892     154.6461     309.6614      1.186     3.38     837.0678     54.54491     155.1232         5     0.798     0.415  66.45   0
       271    101.5826    660.8799 307.8865390  +6.3945486     30280.51     40218.02     41294.62     77.19984     154.4613     309.3538      1.378     2.92     834.8326     54.54491      4437.87        43     1.318     0.972  74.72   0
       272    562.7223    661.6368 307.6950365  +6.4096810     2472.815     3197.303     3098.557     77.44609     154.8307     309.4461      1.309     2.64     838.2275     54.54491     469.4156        16     1.145     0.760  79.65   0
       273    300.3754    661.7451 307.8039678  +6.4008582     473.2734     482.0421     619.4052     77.19984     154.8307     309.2614      0.851     2.54     834.9729     54.54491     110.4618         5     0.725     0.438 -69.07   0
       274    531.6549    658.9822 307.7080257  +6.4097387      1589.06     2165.791     2013.023     77.07642     154.7077     309.1999      1.349     3.30      837.878     54.54491     256.0247        11     1.119     0.630  75.77   0
       275    952.7932    657.9391 307.5331827  +6.4242170     1162.846     1484.304      1448.81      76.9528     154.5845     309.1999      1.281     2.79     836.6797     54.54491     204.4244         9     0.877     0.676  75.04   0
       276    572.0346    655.4853 307.6913754  +6.4125320     1220.886     1451.218     1736.634     77.56892     154.6461     309.4153      1.170     2.85     838.1385     54.54491      229.771        10     1.020     0.578  64.89   0
       277    747.5793    652.9700 307.6185648  +6.4194309     4149.106     5488.291     5401.612     77.07642     154.5845     309.3538      1.319     2.97     839.0705     54.54491      703.873        20     1.238     0.776  71.04   0
       278    769.6098    651.2146 307.6094752  +6.4208904     4860.037     6333.527     6309.981     77.32306     154.5229     309.3846      1.298     2.92     838.8077     54.54491     775.1838        19     1.180     0.750  72.75   0
       279    601.0679    649.0832 307.6795335  +6.4161453     3848.712     4716.882     4879.188       77.814     155.0151     309.4769      1.313     2.78     838.1547     54.54491       679.08        17     1.161     0.746  73.57   0
       280    437.2042    649.7005 307.7475559  +6.4104123     1544.631     1727.929     1251.361     77.32306     154.4613     309.1075      1.189     3.18     836.3876     54.54491     254.0491        11     1.006     0.663 -86.83   0
       281    345.2542    648.3019 307.7857835  +6.4079119     1816.148     2324.873     2579.994     77.44609     154.7692     309.6614      1.344     2.84     835.1125     54.54491     288.4346        13     1.035     0.756  74.00   0
       282    261.6521    648.6604 307.8204855  +6.4049629     2125.287     2494.358     2196.919     77.56892     154.7077     309.4461      1.297     3.35     834.4099     54.54491     364.6947        14     1.109     0.788  58.73   0
       283   1007.9280    646.1727 307.5106791  +6.4309099     8992.735     12717.73      13253.4     77.32306     154.7077     309.3538      1.463     3.13     833.6738     54.54491     1291.357        31     1.345     0.966  73.91   0
       284    561.8259    647.4850 307.6958820  +6.4154940     677.5026     820.6279     764.2889     77.69156     154.5229      309.323      1.304     3.91     837.9229     54.54491     131.1985         7     1.045     0.455  50.31   0
       285    727.6381    645.0952 307.6271084  +6.4220171     1289.935     1536.491     1942.412     77.69156     154.6461     309.5692      1.306     2.81     838.8432     54.54491     219.6672        11     0.991     0.686  46.24   0
       286    119.3819    643.0684 307.8797468  +6.4024999     855.5278     1159.502     995.9341     77.07642     154.6461     309.3846      1.331     3.84     834.2275     54.54491     160.1257         9     0.952     0.715  83.75   0
       287    453.1936    640.7047 307.7412177  +6.4146614     3605.057     4402.824     4674.042     77.32306     154.4613     309.2614      1.290     2.85     836.3243     54.54491     567.6521        17     1.129     0.755  74.20   0
       288    166.3182    639.7750 307.8603685  +6.4054346     28428.22     37323.89     38694.69     77.32306     154.5229     309.4153      1.372     2.83     834.2185     54.54491     4418.098        42     1.322     0.946  76.38   0
       289    834.7897    640.1588 307.5827776  +6.4276281     1450.887     1976.975     2114.017      76.9528     154.5845     309.1999      1.388     3.15     838.1199     54.54491     243.7166        13     1.154     0.691  70.16   0
       290    670.9482    640.0032 307.6508191  +6.4222277     552.6562      628.717     765.1852      76.9528     154.5229     309.0459      1.285     3.14     838.4935     54.54491     116.4235         5     0.951     0.373  60.38   0
       291    627.8118    634.8707 307.6689032  +6.4229066     656.1022     960.6856     972.7725     77.07642     154.5229     309.2614      1.349     3.58     837.9711     54.54491     125.4236         5     1.009     0.365  34.85   0
       292    386.0880    634.3531 307.7692953  +6.4150381     768.4425     1137.568     1618.243     77.56892     154.6461     309.5076      1.645     5.74      835.183     54.54491     116.8477        10     1.175     0.791  72.25   0
       293   1002.7947    629.1621 307.5133772  +6.4377626     7589.583     11596.84     12797.88     76.70496     154.5229     309.1999      1.621     3.24     833.4323     54.54491     1132.474        37     1.532     1.045  55.38   0
       294     47.4173    628.6153 307.9101134  +6.4060507     1388.665     1770.532     1713.794     77.32306     154.4613     309.3846      1.442     3.57     835.2191     54.54491     213.4703        15     1.247     0.783  74.54   0
       295    961.0958    626.1412 307.5307942  +6.4376223     740.2277     987.8312     643.1214     77.44609     154.7692     309.5692      1.325     5.34     835.3509     54.54491     114.0723        11     1.282     0.647  86.57   0
       296    596.3464    624.5305 307.6823149  +6.4261249     59276.88     74458.22     76795.68     77.44609     154.7077     309.3538      1.298     2.72     837.5525     54.54491     9489.836        53     1.291     0.945  75.68   0
       297    464.8505    627.2283 307.7368284  +6.4206155     495.5847     547.7805       695.22     77.19984     154.8922     309.3538      1.289     4.41     836.0751     54.54491      83.9682         5     0.784     0.705  40.56   0
       298    239.6283    625.9074 307.8303937  +6.4136187     801.9908     1158.856     1709.327     77.69156     154.5229     309.3538      1.481     3.49     833.8483     54.54491     128.4212         7     0.720     0.685  66.68   0
       299     10.1513    625.6287 307.9256872  +6.4060318     603.1012     564.4736     100.6656     77.19984     154.8307     309.3538      1.267     3.77     836.3983     54.54491     109.0272         6     0.939     0.561  68.12   0
       300    821.0552    624.2649 307.5890112  +6.4337327     706.7102     904.2546     258.9383     77.69156     154.7077     309.4461      1.395     3.25     837.7451     54.54491     120.9929         8     0.930     0.617  65.48   0
       301    555.6692    624.8895 307.6991943  +6.4246176     832.9049      927.406      830.284     77.69156     155.0151     309.4461      1.278     2.80     837.4737     54.54491     167.0901         5     0.744     0.431  71.93   0
       302      4.1339    624.2776 307.9282311  +6.4063874     954.4307     1204.237     1210.559     77.69156      153.472     272.9949      1.195     2.98     836.6262     54.54491     187.5031        10     1.001     0.712  53.46  16
       303    526.6338    621.3886 307.7113684  +6.4250925     965.6327     1099.704     1467.471     77.07642     154.5845     309.2614      1.248     2.76     837.0234     54.54491     172.3303         8     0.922     0.563  68.72   0
       304    203.8027    621.2368 307.8454263  +6.4143458     3229.641     4200.035     4169.243     76.70496     154.5845     309.2614      1.335     3.04     833.7148     54.54491     515.8989        16     1.123     0.764  75.89   0
       305   1007.3340    620.9630 307.5117652  +6.4412990     688.7632     1092.498     1404.994     77.44609     154.7077     309.5076      1.546     4.32     833.0148     54.54491     113.0976         7     0.956     0.594  34.61   0
       306     96.5160    615.3988 307.8901708  +6.4131561     1564.176     2123.504     2394.584     76.82898      154.338     309.1691      1.624     4.10     833.1707     54.54491     242.6851        16     1.305     0.869  82.58   0
       307    493.6086    608.3193 307.7255195  +6.4293843     76774.21     97789.14     100775.5     77.19984     154.3997     309.2922      1.302     2.83     836.0084     54.54491     12524.36        61     1.318     0.963  73.56   0
       308     37.1421    609.9258 307.9150081  +6.4134218     2079.045      2829.67     3073.266     77.56892     154.7692     309.4461      1.404     2.89     835.4841     54.54491      367.063        17     1.186     0.822  75.98   0
       309    679.5211    605.4677 307.6484129  +6.4367730     978.6254     1413.423     1274.325     77.69156     154.8922     309.4461      1.570     3.46     837.0636     54.54491      161.188        10     1.070     0.677  64.63   0
       310    168.0281    603.4088 307.8608796  +6.4205064     1937.116     2509.276     2766.151     77.19984     154.5845      309.323      1.385     3.21     833.3185     54.54491       276.08        16     1.098     0.883  64.98   0
       311    963.6815    601.4084 307.5305443  +6.4479203     672.0809      1089.84     1010.626     77.19984     154.3997      309.323      1.592     4.96     834.4761     54.54491     132.1918         8     1.420     0.491  45.21   0
       312    447.1989    600.8139 307.7450426  +6.4309308     1091.982     1251.736     1024.943     77.19984     154.4613     309.2307      1.333     3.57     834.9575     54.54491     207.6437        11     1.164     0.749 -84.58   0
       313    639.7308    600.2772 307.6651098  +6.4375877     1064.102     1459.021     1441.106     77.69156     154.8922     309.4153      1.281     2.94     836.8571     54.54491     181.0205         8     0.926     0.565  72.25   0
       314    521.6561    599.7147 307.7141605  +6.4338748     695.9182     991.4426     1620.308     77.56892     154.7692     309.5999      1.624     3.85     836.2841     54.54491     115.0563         7     0.971     0.651 -82.82   0
       315    339.0950    597.6845 307.7900376  +6.4286041     2598.942     3315.419     3482.297     77.56892     155.1378     309.5384      1.350     2.97     833.2226     54.54491     474.2632        15     1.217     0.724  88.51   0
       316     39.9503    599.4218 307.9141952  +6.4178529     691.4943     815.4334      1235.05     77.07642     154.8307      309.323      1.348     3.44     834.9695     54.54491     126.4166         7     0.834     0.762  55.28   0
       317    987.5416    598.4795 307.5207332  +6.4499237     584.2893      888.428     1122.289     77.69156     154.7692     309.4153      1.743     3.62     833.4064     54.54491     106.8488         6     0.924     0.407  69.76   0
       318    347.9438    599.0013 307.7863190  +6.4283569     612.2602     799.5487     644.9026      76.9528     154.4613     309.1383      1.319     2.86     833.2728     54.54491      110.692         5     0.631     0.585  89.93   0
       319     46.5946    598.0051 307.9114839  +6.4186609     567.6364     750.9617     1145.491      76.9528     154.5229      309.323      1.595     4.79     834.6699     54.54491     107.9197         7     1.097     0.747 -60.46   0
       320    491.0919    596.4249 307.7269626  +6.4342112     1073.615     1268.736     1722.546     77.69156     154.5229     309.2922      1.273     3.31     835.3578     54.54491     179.4702        10     1.039     0.654  56.78   0
       321    765.7049    591.8198 307.6130791  +6.4452835     6429.747     8201.682     8213.515     77.44609     154.5845     309.2614      1.295     2.90      837.118     54.54491     1153.465        21     1.172     0.791  75.14   0
       322    819.1996    587.0381 307.5910236  +6.4490413     16185.95     20904.22     21211.45     76.58074     154.5845     309.2614      1.318     2.83     837.0687     54.54491     2995.494        32     1.238     0.886  73.29   0
       323    561.5977    586.6472 307.6980115  +6.4406052      1499.37     2200.328     2091.988      76.9528     154.4613     309.0459      1.586     6.11     836.3589     54.54491     251.0149        17     1.766     0.798  88.82   0
       324     64.1955    586.7275 307.9045546  +6.4239082     817.9882     1193.379     959.8871     77.19984      154.338      309.323      1.504     4.35      833.728     54.54491      119.968         8     1.052     0.617 -87.02   0
       325    643.1069    585.1031 307.6642150  +6.4439655     3561.414     4440.996     4574.643     77.56892     155.2605     309.3846      1.341     2.92     836.3383     54.54491     651.7287        17     1.130     0.751  78.82   0
       326    960.2557    581.5339 307.5326290  +6.4560122      1155.98     1529.222     2072.948     77.69156     154.6461     309.4461      1.505     3.87      834.049     54.54491     179.5626        13     1.151     0.829  79.95   0
       327    401.6270    578.7664 307.7647049  +6.4385087     1195.429      1665.97     1827.573     77.07642     154.5229     309.2307      1.494     4.50     833.3742     54.54491     177.0894        12     1.304     0.623  70.81   0
       328    255.5062    579.0103 307.8253739  +6.4335134     1555.641     2008.117     1632.616     77.19984     154.3997     309.2307      1.419     2.95     832.2935     54.54491     233.0535        15     1.092     0.804  82.18   0
       329    219.2322    579.8160 307.8404095  +6.4319646     816.4122     1008.964     1299.409     77.19984     154.5229      309.323      1.259     2.80     832.3335     54.54491     139.1592         7     0.844     0.573  68.91   0
       330    385.6117    579.1075 307.7713440  +6.4378318     532.1682     597.1068     694.4985     77.32306     154.4613     309.2614      1.343     3.50     833.0607     54.54491     97.12396         5     0.806     0.439 -71.79   0
       331    895.2922    570.2036 307.5599851  +6.4585274     3318.299     4600.386     4911.997     77.19984     154.4613     309.2307      1.390     2.99     835.6011     54.54491     533.8851        20     1.255     0.822  75.32   0
       332    190.2892    570.0941 307.8527543  +6.4350078     959.2051     1503.341     2150.555     77.56892     155.1992     309.5076      1.843     4.13     832.2863     54.54491      179.684        11     1.115     0.868 -74.45   0
       333    853.9773    567.7973 307.5772228  +6.4581446     3129.257     3964.612     3694.853     77.19984     154.4613     309.2307      1.298     2.76     836.6586     54.54491     602.8875        16     1.165     0.719  69.94   0
       334    824.9072    563.6138 307.5894348  +6.4589031     3046.832     4207.509     4767.411     77.32306     154.5229     309.2614      1.462     3.17     836.7447     54.54491     529.4689        20     1.302     0.795  69.46   0
       335    767.5143    564.3371 307.6132450  +6.4566910      730.324      1103.04     1125.249     77.69156     154.8922     309.4461      1.342     3.37     836.5469     54.54491      131.041         7     0.950     0.473  78.77   0
       336    281.9876    562.7288 307.8149236  +6.4411232     9363.294        12318     12169.76     77.07642     154.5229     309.2614      1.393     2.98     831.6421     54.54491     1599.285        30     1.330     0.879  73.46   0
       337    834.5735    558.9277 307.5855768  +6.4611601     188258.7       243560     251576.6     77.19984     154.6461     309.3538      1.333     2.83     836.6392     54.54491     29929.36       106     1.417     1.032  74.27   0
       338    885.9965    561.1863 307.5641461  +6.4619409     731.5944     963.4675     1321.009     77.19984     154.4613      309.323      1.352     4.74     835.6995     54.54491     136.0649         8     1.153     0.571  43.53   0
       339    216.1774    557.3607 307.8424317  +6.4411333     69115.63     91143.59     95006.07     77.19984     154.5229     309.2614      1.386     2.89     831.4878     54.54491     11179.54        69     1.373     1.049  73.03   0
       340    764.2527    559.3369 307.6147664  +6.4586468     636.2309     602.4462     469.8019     77.56892     154.7077     309.4153      1.026     3.89     836.4025     54.54491     130.6555         6     0.830     0.762 -31.29   0
       341    140.1524    553.6416 307.8741260  +6.4401183     7469.912      9715.05     9512.871     77.56892     154.7077      309.323      1.373     2.83     832.2626     54.54491     1229.553        25     1.193     0.914  75.02   0
       342   1005.5345    550.4244 307.5148613  +6.4703638     1609.565     2263.603     2415.144     77.19984     154.7692     309.3538      1.523     3.03      832.439     54.54491     254.8309        16     1.065     0.906  67.56   0
       343    254.2004    549.0416 307.8269216  +6.4458428     911.7639     888.3342     -1512.52     76.82898     154.4613     309.1075      1.248     3.97     831.0275     54.54491     144.3307         8     0.833     0.681  52.84   0
       344    871.1592    546.2366 307.5708063  +6.4676192     5202.676     6919.779     7231.165     77.32306     154.7692      309.323      1.349     2.83     836.0823     54.54491     941.0712        23     1.290     0.782  72.83   0
       345    479.8205    544.5960 307.7333782  +6.4552332     1040.688     1124.233     995.1611     77.19984     154.4613     309.2614      1.147     3.82     832.5221     54.54491      176.528         7     0.898     0.544  80.78   0
       346    191.4051    543.6663 307.8531782  +6.4459564     2299.964     3166.773     3464.257     77.07642     154.4613     309.2614      1.394     2.82      831.484     54.54491     368.9883        16     1.068     0.847  73.47   0
       347    825.1138    539.5686 307.5901511  +6.4688380     7155.017     8856.643     8839.354     77.56892     154.5845     309.3846      1.300     2.77     836.2448     54.54491     1242.633        22     1.172     0.810  69.14   0
       348    555.9089    539.3589 307.7019556  +6.4599394     7910.673     9991.773     9993.766     77.56892     154.7692     309.5076      1.315     2.84     834.4398     54.54491      1368.61        24     1.205     0.816  69.21   0
       349    266.5246    540.9670 307.8220747  +6.4495897     1130.701     1349.738     1400.139     77.44609     154.7692     309.4153      1.279     3.89     830.7094     54.54491     158.5968         9     0.998     0.644  63.02   0
       350    196.7250    540.9210 307.8510612  +6.4472683     706.9174     1040.759     1003.456       77.814     155.0151     309.5384      1.360     2.81      831.274     54.54491     132.7081         5     0.858     0.444 -86.40   0
       351    128.6582    540.5921 307.8793373  +6.4451202     1128.728     1371.025     1355.125      76.9528     154.6461     309.2307      1.292     3.60     831.9777     54.54491     154.5526         9     0.988     0.640  84.03   0
       352    414.1148    536.0402 307.7609505  +6.4565673     1590.786     2077.874     2471.078     77.56892     154.7077     309.4153      1.290     2.99     831.9125     54.54491     303.3789        13     1.126     0.654  75.41   0
       353    202.9265    532.5495 307.8487670  +6.4509326     8089.188     10496.91     10668.81     77.56892     154.8307     309.4769      1.382     2.84     830.9055     54.54491      1325.26        29     1.252     0.925  77.27   0
       354    600.8006    532.4528 307.6835438  +6.4642908     2622.688     3938.969     3669.592     76.82898     154.3997     309.0151      1.592     3.31     834.2458     54.54491      468.227        22     1.289     1.071  81.06   0
       355    518.7120    533.0414 307.7176141  +6.4613044     633.2587     746.2986     657.0811     77.56892     154.7077     309.4769      1.349     5.33     833.3033     54.54491     103.4581         8     1.256     0.640 -79.22   0
       356    389.5450    544.4221 307.7708728  +6.4522842     20901.42     26691.66     27306.77     77.07642     154.7692     309.2614      1.308     2.85     831.6576     54.54491     3378.413        34     1.247     0.896  72.99   0
       357    298.1559    528.9728 307.8093417  +6.4556018     103074.1     134411.1     138587.5     77.19984     154.8307     309.3538      1.354     2.82     830.2246     54.54491     17815.61        71     1.342     1.010  76.05   0
       358     74.5624    531.2241 307.9021154  +6.4471717     5943.394     8190.996     8763.063     77.19984     154.5845     309.1999      1.410     2.95     832.0594     54.54491     901.1974        26     1.308     0.904  74.65   0
       359    841.5389    531.6447 307.5835942  +6.4726570     1540.099     2090.952     2194.275     77.44609     154.7692     309.5692      1.289     2.78     835.7762     54.54491      278.616        10     1.013     0.628  68.45   0
       360    587.4987    526.0347 307.6892825  +6.4664963      1166.14     1392.019     930.9101     77.56892     154.6461     309.5999      1.231     3.89     833.8375     54.54491      225.009         9     1.081     0.560  75.39   0
       361    281.9473    524.0491 307.8162377  +6.4570915     1769.748     2376.647     3017.793     77.69156     154.6461     309.4153      1.335     3.01     830.0328     54.54491     301.3864        12     1.133     0.598  70.50   0
       362    997.8096    522.8535 307.5189877  +6.4814905     1845.807      2444.49     2639.877      76.9528     154.7077     309.1691      1.347     3.40     832.2703     54.54491     334.3082        15     1.206     0.740  62.29   0
       363    821.3092    521.3175 307.5923401  +6.4762468     19271.52     24614.98     25316.71     77.32306     155.0151     309.5076      1.310     2.79     835.2659     54.54491     3431.272        31     1.246     0.841  74.14   0
       364    524.9289    519.7758 307.7154762  +6.4669893     48362.95     68029.88      70713.8     77.19984     154.6461     309.3846      1.498     3.15     832.8454     54.54491     7694.296        63     1.411     1.200  57.64   0
       365    675.5015    518.2396 307.6529964  +6.4726538     1226.056     1423.657     1701.617     77.56892     154.6461     309.6614      1.280     3.22     833.6542     54.54491     188.7683        11     1.066     0.687  69.87   0
       366     72.9623    516.6485 307.9032698  +6.4531357     1456.295     1860.715     1464.097     77.56892     154.7692      309.323      1.326     3.19     831.7558     54.54491     261.3393        11     1.107     0.620  74.24   0
       367    285.1789    516.9643 307.8151334  +6.4601249     636.0383     857.9845     1274.651     77.07642     154.5229     309.1999      1.573     3.76     829.7466     54.54491     90.02734         5     0.800     0.508  30.82   0
       368    237.2722    516.2996 307.8350499  +6.4587935     2272.109     3220.888     3785.109     77.32306     154.9536     309.4461      1.605     2.87     829.8844     54.54491     341.0533        16     1.105     0.832  73.10   0
       369    747.2019    514.1014 307.6233577  +6.4767550     1523.549     2173.625     2366.239     77.07642     154.5229     309.1383      1.595     4.46     834.3877     54.54491     279.5151        15     1.535     0.663  65.26   0
       370    684.8542    514.8235 307.6492263  +6.4743764     3564.359     4814.534     4971.173     77.07642     154.7692     309.2614      1.386     2.84     833.6315     54.54491     679.1363        18     1.125     0.796  75.10   0
       371    123.2424    515.8082 307.8824188  +6.4551708     818.7736     906.1755     384.8529     77.07642     154.5845     309.1999      1.246     3.75     831.2583     54.54491     127.2631         9     0.964     0.730 -79.32   0
       372    694.9892    514.5789 307.6450255  +6.4748157     1661.287     2068.395     2596.233     77.19984     154.4613     309.2922      1.363     3.41     833.7661     54.54491     312.3378        11     1.145     0.591  65.45   0
       373    422.6243    510.4532 307.7582738  +6.4674163      2022.98     2687.668     2677.473     77.07642     154.7692     309.2922      1.325     3.01     831.2783     54.54491      337.132        15     1.218     0.713  78.33   0
       374    103.5413    512.2072 307.8907209  +6.4559961     777.5381     1444.498     1384.197      76.9528     154.6461     309.1691      2.020     4.11     831.1696     54.54491     145.6968         8     1.106     0.686  23.22   0
       375    169.2521    507.3730 307.8635960  +6.4601975     30779.88     40112.87      41459.5     77.19984     154.8922     309.3846      1.364     2.86     830.7757     54.54491     4991.113        41     1.320     0.931  73.78   0
       376    534.0171    508.1555 307.7120909  +6.4720909     2592.623     3343.234     3677.441     77.19984     154.6461     309.2307      1.313     2.85     832.3999     54.54491     460.0212        16     1.201     0.726  86.87   0
       377    354.0364    508.7444 307.7868142  +6.4658255     4712.902     6148.484     6425.625     77.44609     154.7692     309.4769      1.348     2.73     829.4766     54.54491     823.3203        21     1.201     0.789  73.75   0
       378    897.0740    507.2357 307.5613443  +6.4845854     1820.921     2093.594      1963.42     77.44609     154.8307     309.4461      1.261     2.93     833.6266     54.54491     339.9432        13     1.079     0.720  71.98   0
       379    134.3645    505.6475 307.8781416  +6.4597391     3253.687     4125.694     3729.235     77.19984     154.7077     309.3538      1.327     3.13      830.952     54.54491     472.8258        20     1.222     0.797  84.37   0
       380     14.4215    505.5122 307.9279535  +6.4557668      2662.31     3621.064     3348.744     77.56892     154.5845      309.323      1.477     2.92     832.6696     54.54491      388.021        20     1.201     0.882 -87.64   0
       381    371.2710    503.7433 307.7798247  +6.4684675     1287.165     1504.233     1669.192     77.69156     154.7077     309.4153      1.243     3.72     829.7548     54.54491     214.6179        10     1.162     0.553  70.11   0
       382    994.8758    501.8274 307.5209064  +6.4900743     5880.625     7745.646      7880.82     77.44609     154.7692     309.4153      1.374     3.00     832.0849     54.54491     989.8835        25     1.242     0.873  71.47   0
       383    567.9313    494.6216 307.6984593  +6.4788123      1683.23     2171.844     2091.128     77.19984     154.7077     309.4153      1.308     2.40     831.9479     54.54491      361.073        11     0.961     0.634  79.00   0
       384     33.5141    491.7267 307.9204888  +6.4620998     29956.23     38882.38     40065.43     77.69156     155.0765     309.4461      1.366     2.87     832.0197     54.54491     4339.538        43     1.314     0.972  73.48   0
       385    466.2742    488.4491 307.7408835  +6.4779618     51729.56     65337.23     67222.12     77.56892     154.8307     309.4769      1.323     2.77     831.0013     54.54491     8480.872        51     1.292     0.954  74.89   0
       386    442.8485    491.6205 307.7505057  +6.4758686     561.0182     660.0015     839.3716     77.07642     154.8307     309.2614      1.357     2.22     830.9265     54.54491     118.2913         5     0.717     0.431  22.90   0
       387     16.0757    485.9392 307.9279249  +6.4639033     229965.7     300812.2     310023.7       77.814     154.7692     309.4461      1.383     2.84     832.3276     54.54491     38595.68       106     1.385     1.104  76.69   0
       388    674.2893    488.0851 307.6545074  +6.4850636     14530.64     18481.14     18928.67     77.32306     155.0151     309.5692      1.287     2.81     832.1891     54.54491     2630.504        28     1.217     0.818  76.18   0
       389    314.2827    488.3809 307.8040059  +6.4729014     1077.999     1386.268     1362.024     77.19984     154.4613     309.3846      1.277     4.17     828.5691     54.54491     174.7104        10     1.167     0.637  77.95   0
       390    231.4166    486.0616 307.8384963  +6.4710814     22488.72     31177.71     32069.59     77.07642     154.7077     309.2614      1.452     3.06     828.9212     54.54491     3279.182        41     1.391     0.988  65.16   0
       391    197.1796    487.3615 307.8526705  +6.4693965     1893.291     2486.848     2972.516     77.19984     154.5845     309.1999      1.371     2.73     829.5807     54.54491     380.5174        14     1.080     0.742  81.03   0
       392   1008.1673    486.4063 307.5158998  +6.4968838     1149.802     1472.311     2165.802      76.9528     154.5845     309.2614      1.423     3.48     831.7866     54.54491      169.335        11     1.029     0.694  67.87   0
       393    936.9343    485.8677 307.5455021  +6.4947354     807.3068     1150.216     1191.408     77.56892     154.7692     309.4769      1.357     3.22     832.5167     54.54491     147.2697         9     0.972     0.681  87.55   0
       394    848.2631    485.6889 307.5823345  +6.4918556     1160.361     1690.315     1655.636     77.44609     154.8922     309.4769      1.492     3.41     833.3998     54.54491     214.3312        10     1.084     0.711  75.74   0
       395    596.0622    484.8221 307.6871043  +6.4837983     3281.133     4240.721     3946.094     77.19984     154.7692     309.3538      1.317     2.78     831.5676     54.54491     608.8348        19     1.201     0.772  73.88   0
       396    969.9830    481.9658 307.5319064  +6.4974466     5425.952     7173.274     7163.278     77.19984     154.5845     309.2922      1.359     2.80     832.1362     54.54491     952.4075        25     1.265     0.847  72.62   0
       397    643.0986    480.4012 307.6677178  +6.4871947     7689.452     9970.855      10384.2     77.07642     154.3997     309.1691      1.313     2.60     831.6089     54.54491     1440.566        25     1.198     0.837  67.75   0
       398    130.6853    481.1897 307.8804910  +6.4697134     1392.646     1790.113     2031.226     77.19984     154.5229     309.2922      1.327     3.23     830.2281     54.54491     213.9723        13     1.086     0.785  56.13   0
       399    542.1707    480.1084 307.7096432  +6.4839435     710.3939     1207.053     1528.093     77.69156     154.5229     309.3538      1.676     5.54     830.9225     54.54491     105.8881         8     1.325     0.653   3.12   0
       400    242.5545    479.5293 307.8340902  +6.4741519     672.9195     668.6098     935.3007     77.56892     154.7692     309.4461      1.209     4.08     828.6351     54.54491     119.3089         6     1.127     0.423  75.51   0
       401    992.5840    474.2575 307.5227764  +6.5013814     3956.058      5021.88     4916.063      76.9528     154.7077     309.1999      1.302     2.88     831.6061     54.54491     608.6299        18     1.125     0.834  73.64   0
       402    555.2856    471.7249 307.7044770  +6.4878433     9098.162     11596.56     11666.49     77.69156     155.0765     309.5076      1.318     3.05     830.6109     54.54491     1518.692        25     1.211     0.830  74.95   0
       403    431.3007    472.9836 307.7559257  +6.4831769      845.332     1150.689     1571.147     77.56892     154.5229     309.2614      1.361     4.68      830.122     54.54491     131.6605         8     1.021     0.610 -86.56   0
       404    401.2718    471.8666 307.7684339  +6.4826330     3043.261     3781.858     3937.285     77.56892     154.8307     309.5076      1.298     3.13     829.4883     54.54491     492.2013        17     1.173     0.731  76.55   0
       405    771.1030    471.8575 307.6148417  +6.4949941     762.2121     755.0036     907.5789     77.44609     154.7077     309.6306      1.183     3.03     832.6888     54.54491     162.4208         8     0.902     0.694  74.22   0
       406    124.3913    471.1989 307.8834404  +6.4736270     591.4951     434.0601     152.1905      76.9528     154.4613     309.2307      1.060     3.38     830.1109     54.54491      114.881         5     0.780     0.423  68.20   0
       407    911.7964    467.5443 307.5565531  +6.5014638     3704.177     4545.796     4619.754      76.9528     154.5845     309.1383      1.268     2.75     832.2375     54.54491     683.9836        18     1.152     0.764  75.02   0
       408    564.7336    468.4985 307.7006611  +6.4894911     854.7198     1111.469     1193.184     77.56892     154.8922     309.4461      1.290     4.23     830.4799     54.54491     153.3575         9     1.138     0.573 -82.14   0
       409    259.7794    467.1423 307.8273526  +6.4798436     816.8151     1073.949     931.7675     77.19984     154.6461     309.2614      1.412     4.88      828.205     54.54491     137.4957         9     1.163     0.581  81.80   0
       410    919.1870    461.9557 307.5536699  +6.5040174     2523.092     3095.608     3371.434     77.07642     154.5845     309.1999      1.282     2.56      831.936     54.54491     485.8911        15     1.077     0.715  77.18   0
       411    958.7511    461.2394 307.5372618  +6.5056304     1544.541     2160.736     1920.097     77.56892     154.7692     309.3538      1.431     3.87     831.4476     54.54491     227.0122        13     1.199     0.714  55.21   0
       412    137.9177    461.3570 307.8781539  +6.4781444     943.9282     1459.942     1427.794     77.56892     154.7692     309.4153      1.517     3.72     829.8577     54.54491      146.494         9     0.928     0.668  73.85   0
       413    296.8508    459.9616 307.8121982  +6.4840508      598.241     845.5679      865.266     77.32306     154.7077     309.3846      1.359     3.94     827.8613     54.54491     97.39587         6     0.915     0.486  57.30   0
       414    743.1440    457.9455 307.6269180  +6.4998055     3666.086     4548.319     4718.244     77.69156     154.8307     309.4461      1.275     2.80     832.1039     54.54491     670.3692        17     1.152     0.705  78.30   0
       415    104.8879    457.0103 307.8920165  +6.4788302      2337.48     3101.311     3368.647     77.19984     154.4613     309.2922      1.303     3.00     830.1005     54.54491     395.5827        14     1.204     0.646  74.56   0
       416    454.2249    456.6120 307.7469536  +6.4907034     1227.938     1628.226      1807.52     77.19984     154.5845     309.3846      1.368     2.87     829.5152     54.54491       221.36        11     0.907     0.758  69.35   0
       417    414.0324    456.1255 307.7636619  +6.4895593     4395.047     5696.214     5737.996     77.44609     154.8307     309.4153      1.326     2.80     829.0638     54.54491     730.3157        19     1.177     0.770  78.02   0
       418    641.7869    452.6385 307.6691905  +6.4986136     11803.92     15032.31     16067.05     77.19984     154.5845     309.1691      1.308     2.96     830.4716     54.54491     2111.074        24     1.205     0.810  74.25   0
       419    804.4711    449.2294 307.6017386  +6.5054495     19717.55     24776.26     26102.14     77.44609     154.7692     309.4461      1.269     2.90     832.0676     54.54491     3159.138        34     1.255     0.847  76.96   2
       420    808.5046    444.4364 307.6002233  +6.5075629     1679.075     2540.913     2933.781     77.69156     154.6461     309.5692      1.518     3.36     831.9107     54.54491     265.8151        16     1.311     0.776 -88.48   3
       421    324.1530    449.6017 307.8012072  +6.4892429     3238.484     4168.101     4197.744      76.9528     154.4613     309.0459      1.312     2.85     827.6602     54.54491     560.9195        16     1.144     0.710  77.92   0
       422    447.6927    448.9138 307.7499243  +6.4936633        851.6     1095.425     864.4125     77.44609     155.1992     309.5384      1.338     4.18     829.0567     54.54491     120.8707         7     0.778     0.641  78.93   0
       423    833.4895    446.5078 307.5897774  +6.5075406     1567.138     1879.993     1842.431     77.56892     155.2605     309.5076      1.238     2.95     832.0992     54.54491     272.4106        10     0.967     0.630  81.68   0
       424    422.6052    446.5400 307.7604227  +6.4938038     675.5304     953.1003     923.9132     77.07642     154.6461     309.2307      1.378     3.89     828.7203     54.54491     112.9091         6     0.889     0.489 -89.44   0
       425    407.1671    446.1018 307.7668489  +6.4934680     2083.641     2638.847     2953.422     77.56892     154.6461     309.5692      1.341     3.51      828.451     54.54491      338.666        14     1.158     0.712  70.25   0
       426    989.7510    444.2526 307.5249526  +6.5136758         2010     2739.351     1967.994     77.69156     154.6461     309.4153      1.273     3.02     830.4261     54.54491     354.4497        14     1.200     0.678  72.24   0
       427    933.6135    445.9997 307.5482100  +6.5110858     508.9716     791.6274     777.6499     77.19984     154.4613     309.2614      1.428     3.86     831.1337     54.54491      86.3949         5     0.876     0.487  89.11   0
       428    738.0917    443.3730 307.6295030  +6.5056537     733.6628     886.1036      1074.51     77.69156     154.5229      309.323      1.246     3.31     831.6534     54.54491     145.5625         6     0.920     0.499  73.20   0
       429    395.6375    442.3300 307.7717635  +6.4946393     899.7763     1171.531     1500.893     77.44609     154.7692     309.5076      1.419     3.79     828.1088     54.54491      140.861         8     0.936     0.659  83.19   0
       430    141.8334    441.1696 307.8772059  +6.4866105     5247.412     7108.446     7322.309     77.07642     154.5229     309.1691      1.381     2.80     829.4502     54.54491      889.213        24     1.176     0.899  74.60   0
       431    780.0381    439.9998 307.6121943  +6.5084456      2713.54     3774.334     3674.068     76.58074     154.5229     309.2614      1.412     2.85     831.6802     54.54491     525.1027        17     1.177     0.778  77.53   0
       432    150.3817    441.8336 307.8736336  +6.4866233     563.1407     685.8636     282.3931     77.07642     154.5845     309.2614      1.189     3.09     829.3591     54.54491     116.7041         5     0.928     0.365   5.03   0
       433    299.7453    438.2922 307.8117230  +6.4930945     1675.943     2138.673     1883.028     77.44609     154.6461     309.5999      1.291     2.83     827.4188     54.54491      291.499        10     0.971     0.629  62.98   0
       434    377.8846    435.9823 307.7793491  +6.4966657     3765.423     4915.175     4982.002     77.19984     154.5229     309.3846      1.331     2.80     827.6595     54.54491     715.9177        19     1.169     0.790  80.15   0
       435    305.6263    436.4567 307.8093422  +6.4940494     359.0446     545.7903     861.3666     77.19984     154.8307      309.323      0.969     3.39     827.3785     54.54491     79.26184         5     1.100     0.302  69.07   0
       436    733.7734    433.7117 307.6316191  +6.5094986     2018.841     2446.178     2582.617     77.69156     154.5229      309.323      1.231     3.04     831.3467     54.54491     401.3909        11     1.099     0.586  68.88   0
       437    437.4629    432.5498 307.7547209  +6.5000772     668.5151     827.7558     914.1177     77.56892     154.7077     309.5076      1.373     3.71     828.1406     54.54491     108.6029         6     0.919     0.431  72.00   0
       438   1007.4271    432.2061 307.5180123  +6.5192378     672.5029     947.8784     1223.882     77.07642     154.5845     309.2614      1.260     2.05     829.7452     54.54491     137.0616         5     0.694     0.435  64.25   0
       439    265.6089    431.7296 307.8261199  +6.4946598     968.9341     1151.426     918.0201     77.07642     154.3997      309.323      1.140     3.06      827.392     54.54491     161.2331        10     1.025     0.616  54.25   0
       440    575.1553    426.8366 307.6977265  +6.5070407     1213.946     1816.201     1875.364     77.32306     154.7692     309.3538      1.568     4.66     828.4978     54.54491     188.7807        14     1.292     0.750  77.37   0
       441    476.6465    427.6211 307.7386125  +6.5034232     653.6043     706.0026     675.0814     77.19984     154.7692     309.2922      1.146     3.12     828.2871     54.54491     124.2303         6     0.863     0.477 -87.31   0
       442    497.4074    424.5154 307.7300942  +6.5053999     1553.266     1951.578      1912.87     77.19984     154.4613     309.2922      1.230     3.00     828.2159     54.54491     258.0715        11     1.054     0.661  82.20   0
       443    859.9565    423.8074 307.5795421  +6.5177953     1658.107      1969.91     1659.284     77.07642     154.5845     309.1691      1.262     2.98     831.5623     54.54491     322.1387        10     1.025     0.602  68.99   0
       444    845.6468    422.8257 307.5855182  +6.5177238     2345.635     2887.545     3011.973     77.19984     154.8307      309.323      1.291     2.92     831.4384     54.54491     397.4315        15     1.101     0.737  69.38   0
       445    645.1675    423.2549 307.6687687  +6.5108584     815.8904     946.0009     1020.667     77.44609     154.7692     309.3846      1.197     2.79     829.2918     54.54491     171.5291         7     0.938     0.530  73.25   0
       446    742.9536    420.9313 307.6282331  +6.5150817     17967.72     22878.47     23985.38     77.56892     154.7077     309.4153      1.313     2.82       831.03     54.54491     3374.941        33     1.238     0.858  76.45   0
       447    664.0300    417.0480 307.6611421  +6.5140510     3097.073     3935.333     4590.436     77.19984     154.8307     309.3538      1.287     2.57     829.5693     54.54491     610.6623        17     1.086     0.789  71.29   0
       448    736.8196    415.7303 307.6309545  +6.5170244     831.2758     1276.368     1510.126     77.19984     154.6461     309.3846      1.619     3.38     830.8767     54.54491      138.708        10     1.060     0.633  75.36   0
       449    639.3279    414.1746 307.6714976  +6.5144125     6223.396     7812.078     8303.682     77.19984     154.6461     309.3538      1.276     3.35      828.751     54.54491     1085.192        21     1.245     0.762  75.54   3
       450    635.3524    411.3923 307.6732417  +6.5154284     17539.38     22303.81     22717.31     77.07642     154.5845     309.0767      1.278     2.87     828.5195     54.54491     2799.118        29     1.239     0.820  74.11   3
       451    968.1814    410.8506 307.5350241  +6.5267492      4412.36      5943.45     6366.266     77.07642     154.8307     309.1999      1.359     2.88     829.3052     54.54491     776.0767        22     1.241     0.826  70.51   0
       452    444.4866    408.2419 307.7526180  +6.5103484     749.2926     926.5138     1111.579     77.56892     154.7077     309.4769      1.407     3.96      826.905     54.54491     121.5339         7     0.949     0.473  78.73   0
       453    407.3037    406.8205 307.7681083  +6.5096908     34900.62     44983.88     45871.16     77.44609     154.5845     309.2614      1.326     2.95     826.5776     54.54491     5743.832        42     1.281     0.918  74.52   0
       454    923.9910    406.5903 307.5535202  +6.5270370     1901.252     2468.214     2933.913     77.07642     154.5845     309.3538      1.411     2.80     829.7923     54.54491     351.1656        13     1.053     0.740  70.72   0
       455    153.3622    406.3630 307.8735873  +6.5013678     2793.799     3582.043     3642.235     77.32306     154.6461      309.323      1.343     2.96     828.4776     54.54491     468.5908        16     1.142     0.827  78.87   0
       456    920.4462    403.4614 307.5550968  +6.5282109     757.8168     1214.168     1551.182     77.44609     154.6461     309.4769      1.695     3.64     829.7135     54.54491     145.8612         6     0.942     0.405  70.18   0
       457    618.7639    402.7397 307.6804207  +6.5184468     811.7851     840.6642     1236.101     77.56892     154.7692     309.4153      1.247     4.01     827.8267     54.54491     145.5621         7     1.117     0.422  87.25   0
       458     86.7796    401.8905 307.9013891  +6.5009790     1770.305     2431.215     2279.142     77.44609     154.5845      309.323      1.440     3.37     829.4772     54.54491     279.5183        16     1.146     0.918  57.89   0
       459    937.0085    401.1851 307.5482936  +6.5297022     5936.764     7797.661     7949.699     77.19984     154.5229     309.2922      1.333     2.82     829.3423     54.54491     1012.713        22     1.179     0.836  73.36   0
       460    992.8214    398.8844 307.5251886  +6.5325099     731.5862     911.5658     903.7422     77.32306     154.4613     309.3846      1.262     3.89     828.2781     54.54491     117.8098         6     0.773     0.560  59.26   0
       461    264.8480    397.3596 307.8275892  +6.5088246     16655.32     21622.18     22260.53     77.44609     154.7692      309.323      1.356     2.90     826.2781     54.54491     2653.813        30     1.266     0.871  74.93   0
       462    759.6143    391.0135 307.6223124  +6.5279900     939.1731      1203.81     1369.507     77.44609     154.4613     309.3846      1.425     3.72     829.9481     54.54491      175.217         6     0.996     0.400  72.29   0
       463    100.2365    391.5281 307.8961488  +6.5057092     897.4653     1134.519     1071.052     77.44609     154.7692     309.4769      1.418     4.46     829.0335     54.54491     141.3581         8     1.105     0.512  73.44   0
       464    727.7575    390.5349 307.6355598  +6.5271248     788.6057     695.6824     476.0678     77.56892     154.7077     309.4461      1.126     3.08     829.7245     54.54491      155.311         7     0.921     0.520  61.05   0
       465    988.3030    389.6158 307.5273741  +6.5361865     1380.713     1711.119      2063.73     77.44609     154.5229     309.2614      1.359     2.91     827.8693     54.54491     220.3186        11     0.895     0.811  39.85   0
       466    377.8048    387.1458 307.7810191  +6.5168263     1632.181     2310.625      2250.01      76.9528     154.5229     309.1383      1.417     2.87     825.3791     54.54491     301.0963        12     1.109     0.651  81.64   0
       467    210.5651    387.1370 307.8504764  +6.5112249     950.8021      937.847     577.2725     77.44609     154.8307     309.4153      1.269     3.61     826.7889     54.54491     161.1107         9     1.066     0.608  87.66   0
       468    165.0620    386.0460 307.8694108  +6.5101487      6214.11     8174.225     8246.355     77.44609     154.6461     309.4769      1.347     2.84     827.7237     54.54491     1078.822        25     1.218     0.873  72.36   0
       469    362.8712    386.2972 307.7872497  +6.5166765     531.4794     742.9172     896.4969     77.44609     154.8922     309.4461      1.545     3.47     825.2433     54.54491     87.05353         5     0.997     0.350  45.07   0
       470    269.8155    384.8741 307.8259450  +6.5141460     1744.214     2313.332     2106.135     77.07642     154.5229      309.323      1.470     4.04     825.7256     54.54491     240.2816        12     1.091     0.690  73.57   0
       471    462.5981    384.7900 307.7458814  +6.5206371     917.1902     1139.944      1048.02     77.07642     154.4613     309.2307      1.452     3.87     825.7521     54.54491     133.8633         7     0.949     0.485 -85.08   0
       472    851.2967    382.3308 307.5845225  +6.5346317     803.7094     873.8802     1032.177     77.44609     154.8922     309.4461      1.151     2.86     829.6398     54.54491      179.268         7     0.957     0.451 -85.25   0
       473    187.2395    381.8728 307.8603405  +6.5126158     2839.649      4072.39         3779     77.44609     154.7692     309.5076      1.524     3.22     827.1673     54.54491     450.0687        20     1.318     0.851 -88.72   0
       474    582.8180    380.7072 307.6960870  +6.5263426     1304.295       1483.5     791.6452     77.44609     154.5229      309.323      1.264     3.28     826.5526     54.54491     193.2852        11     1.000     0.669  69.70   0
       475    997.6611    380.0464 307.5238060  +6.5404490     512.4292     642.2504     1145.339     77.44609     154.6461     309.4769      1.381     4.36     827.0815     54.54491     97.07971         6     0.863     0.628 -54.45   0
       476      3.4234    377.9811 307.9368106  +6.5080496     2658.656     3462.859     3645.533     77.32306     148.4904     263.7719      1.352     2.80     829.3401     54.54491     390.3298        19     1.149     0.847  66.03  24
       477    410.5729    376.6973 307.7677599  +6.5222373     2579.438     3367.203     3207.993     77.69156     154.5229     309.3846      1.311     3.05     825.0332     54.54491      436.391        17     1.096     0.806  87.13   0
       478    298.8942    377.3653 307.8141201  +6.5182208     944.3276     1290.546     733.8052     77.69156     154.6461     309.5384      1.275     2.83     824.9687     54.54491     214.9822         9     0.927     0.628  64.64   0
       479     29.5452    377.0299 307.9259942  +6.5093202     850.6708     1304.452     1254.052     77.32306     154.8307     309.3846      1.453     3.60     829.1038     54.54491     136.5757         8     1.049     0.496  87.39   0
       480    999.3578    375.8330 307.5232416  +6.5422451     998.8176     1487.348     1800.036     77.32306     154.7692     309.2922      1.353     3.11     826.8232     54.54491     202.4022         7     0.958     0.447  78.16   0
       481     11.6453    374.9077 307.9334994  +6.5095948     1002.529     1361.238     1349.393     77.56892     154.7077     309.5692      1.400     3.14     829.1968     54.54491     170.9106         8     0.936     0.602  80.82   0
       482    344.2515    373.9378 307.7953973  +6.5211557     688.7918     937.0145     1379.504     77.56892     154.7077     309.4461      1.440     3.81     824.5448     54.54491     111.7807         6     0.912     0.456  53.79   0
       483    617.8791    372.5457 307.6817978  +6.5308838     700.7709     840.7397     611.2125     77.69156     154.7692     309.4769      1.490     5.64     826.7347     54.54491     114.1061         8     1.030     0.869  76.03   0
       484     60.9308    370.8791 307.9131667  +6.5129142     3598.845     5474.668     5664.438       77.814     155.0151     309.4153      1.597     3.31     828.6796     54.54491     609.3714        30     1.663     1.003 -61.94   0
       485    635.6138    371.5678 307.6744646  +6.5318799     666.0675     908.7158     1357.394     77.19984     154.5229     309.3846      1.813     4.05     826.8934     54.54491     108.2743         7     1.004     0.685  49.19   0
       486    464.4266    370.2394 307.7456092  +6.5267058     8867.882     11458.45     11146.33     77.19984     154.5845     309.2922      1.310     2.88     824.8912     54.54491     1383.851        28     1.248     0.880  82.92   0
       487    797.0907    369.0470 307.6074801  +6.5383095     2430.246     2998.169     2832.703     77.56892     154.7077     309.5692      1.295     2.73     829.1308     54.54491     450.5208        13     1.095     0.644  73.42   0
       488    805.0963    367.4780 307.6042074  +6.5392242     15797.92     19822.05     20613.78     77.32306     154.9536     309.5076      1.329     2.75     829.0462     54.54491     2937.087        30     1.244     0.839  76.24   0
       489    224.8583    369.3105 307.8451388  +6.5190643     651.5963     714.3269     546.1805     77.44609     154.7077     309.5692      1.052     2.03     826.0879     54.54491     150.4456         6     0.697     0.572  76.08   0
       490    368.4956    366.0196 307.7855936  +6.5252369     1200.059      1632.38     1737.442     77.44609     154.5845     309.2614      1.379     3.45     824.1376     54.54491     221.0591        10     1.069     0.642  78.69   0
       491    319.2469    366.5448 307.8060301  +6.5233703     582.9446     572.1592     818.7183     77.56892     154.7692     309.5076      1.131     3.52     824.3213     54.54491     111.3911         6     1.007     0.444  56.72   0
       492    979.8748    359.4878 307.5318786  +6.5483454     690.7988     726.4693       1284.6     77.56892     155.0765     309.5384      1.249     4.44     826.3996     54.54491     121.8698         6     0.996     0.563 -72.52   0
       493    213.2884    358.4479 307.8503086  +6.5231610      1085.42     1333.186     961.1625     77.56892     154.6461     309.5384      1.390     3.88     826.0719     54.54491     174.1606         9     1.029     0.570  83.50   0
       494    419.5604    357.7564 307.7646618  +6.5303583     480.5833     682.3235     888.5659     77.32306     154.7692      309.323      1.346     3.44     824.1044     54.54491     78.85114         5     0.767     0.446  69.58   0
       495     18.5816    356.8671 307.9312256  +6.5172762     1229.464     2593.416     4291.964     77.19984     154.7077     309.3538      3.552     5.48     828.6853     54.54491      146.093        20     1.354     1.130 -43.60   0
       496    512.6166    353.7404 307.7261467  +6.5351298     3678.756     4607.764     4626.555     77.07642     154.7077     309.1999      1.306     2.96     824.3139     54.54491     564.0494        20     1.190     0.828  79.87   0
       497    484.8118    354.3863 307.7376735  +6.5339332     2698.414     3324.872     3089.379     77.44609     154.4613     309.3846      1.241     2.72     824.0332     54.54491     509.1656        13     1.126     0.637  76.37   0
       498    941.3745    353.4258 307.5480721  +6.5495667     881.0963     1060.568     812.3276     77.07642     154.5845     309.3846      1.328     4.78     827.3345     54.54491     134.7595         9     1.058     0.611  87.10   0
       499    870.4540    350.4043 307.5776304  +6.5484521     38694.58        51670     53388.46      76.9528     154.5229     309.1383      1.390     3.27     828.0873     54.54491     5624.636        43     1.404     0.888  80.11   0
       500   1015.6865    350.4991 307.5173032  +6.5532484        588.6     893.8517     876.0782     77.56892     155.1992     309.5076      1.173     3.37     824.9449     54.54491     132.8604         5     0.800     0.412  24.45   0
       501    455.7256    348.7822 307.7499417  +6.5352738     577.2391     658.2006     521.6247     77.07642     154.5229     309.3538      1.169     2.95     823.8038     54.54491     108.4916         7     0.826     0.604 -61.79   0
       502    362.7439    346.0972 307.7886503  +6.5332696     1125.967     1123.879     1353.321     77.44609     154.7692     309.6614      1.253     2.62     823.2679     54.54491     209.4478         9     0.894     0.691  82.30   0
       503     88.2474    346.4919 307.9026417  +6.5239002     752.0918     999.4478      1056.95     77.56892     154.7077     309.5692      1.474     4.93     827.7192     54.54491     115.8397         9     1.239     0.556  75.83   0
       504    642.1992    342.9053 307.6726877  +6.5439340     3258.506     3918.643     4101.273     77.07642     154.3997     309.1075      1.256     2.88     825.7638     54.54491     605.0505        16     1.129     0.715  80.57   0
       505    609.4756    343.9926 307.6862430  +6.5423920      467.265     503.7671     700.9698     77.19984     154.2763     309.2614      0.967     2.53     825.5599     54.54491      95.4577         6     0.755     0.499  89.63   0
       506     50.3227    343.4951 307.9184931  +6.5238635     1282.431     1686.841     1712.022     77.32306     154.8922     309.5076      1.340     3.87     828.0908     54.54491     199.9872        10     1.083     0.696  80.77   0
       507    173.7405    341.3120 307.8673091  +6.5289090     583.9142     873.2233     767.9353     77.56892     154.7692     309.5384      1.615     4.27     826.3181     54.54491     106.9763         5     0.903     0.576  51.61   0
       508    726.8991    336.4048 307.6377245  +6.5494455     97100.35     122321.9     125960.1     77.32306     154.4613     309.1075      1.305     2.72     827.4404     54.54491     18576.92        68     1.317     0.966  75.85   0
       509    885.1056    337.7801 307.5719658  +6.5541526      1586.56       2151.8      2266.43     77.44609     154.5845     309.2614      1.418     2.74     827.6815     54.54491      314.601        12     0.990     0.716  63.18   0
       510    105.9174    336.1048 307.8956523  +6.5287821     1691.453     2301.934     2178.497     77.44609     155.0765     309.5692      1.434     3.12     827.2767     54.54491     271.5847        15     1.146     0.789  75.44   0
       511    968.5547    333.4065 307.5374496  +6.5587373      1042.96     1420.638     1911.951     77.07642     154.5229     309.1075      1.458     3.42     826.1396     54.54491     160.9124         9     0.997     0.591  82.72   0
       512    589.3016    333.1490 307.6949850  +6.5461950      3343.81     4408.711     4853.976     77.56892     154.7692     309.6614      1.340     2.91     824.6724     54.54491     572.6152        18     1.157     0.816  75.16   0
       513    416.6589    334.0091 307.7666626  +6.5400657     556.4647     748.9944     829.7319      76.9528     154.6461     309.1691      1.273     3.38     823.4573     54.54491     115.8593         5     0.782     0.422 -70.85   0
       514    126.5820    332.0023 307.8872078  +6.5311697     7383.791     9729.967     10207.28     77.19984      154.338     309.2307      1.368     2.87     826.8384     54.54491     1134.473        25     1.201     0.913  77.05   0
       515    787.6781    331.3571 307.6126479  +6.5535571     642.6497     891.8994     987.0656     77.44609     154.7692     309.4769      1.530     4.79     827.6232     54.54491     108.0889         5     1.081     0.602  63.75   0
       516    796.9270    330.5690 307.6088326  +6.5541909     544.8268     831.7516      927.811     77.44609     154.7692     309.4461      1.742     4.33     827.6447     54.54491     95.32892         5     1.187     0.450  66.46   0
       517    572.6093    329.2694 307.7020479  +6.5472389     8767.787     11208.27     11226.82     77.07642     154.5229      309.323      1.287     2.88     824.2178     54.54491     1581.749        26     1.227     0.841  72.56   0
       518    301.6490    327.0427 307.8146641  +6.5390898     3209.605     4194.481     3758.661     77.56892     154.7077     309.3846      1.372     2.88     823.2563     54.54491     451.2162        21     1.317     0.825  64.14   0
       519    435.5162    324.5283 307.7591480  +6.5446113     32123.38     40539.64     41218.46     77.81401     155.0765     309.4769      1.309     2.81     823.2592     54.54491     5170.173        42     1.283     0.916  75.64   0
       520    614.2972    323.7629 307.6849169  +6.5509054     714.7525     782.9706      462.821     77.56892     154.6461     309.5999      1.324     4.50     824.6836     54.54491     107.2224         8     1.035     0.557  73.12   0
       521    543.1895    323.2117 307.7144702  +6.5487566     1544.407     1975.361      1615.26     77.32306     154.5845     309.4153      1.334     3.16     823.5047     54.54491     257.5455        13     1.120     0.698  72.44   0
       522    415.2546    322.6015 307.7676281  +6.5447286      1465.83     2146.689     2536.041      76.9528     154.5229     309.1075      1.536     3.33      823.225     54.54491     296.1169        10     1.032     0.653  56.87   0
       523    514.7160    319.8114 307.7264105  +6.5492084     1566.966     2127.765     2346.465     77.19984     154.5229     309.2922      1.436     3.00     823.2615     54.54491     266.3885        13     1.085     0.738  75.25   0
       524    412.4908    317.3898 307.7689506  +6.5467879     978.4847     1352.657     1705.447     77.32306     154.3997     309.2307      1.671     3.73     823.0934     54.54491     133.9836        10     0.992     0.704  67.54   0
       525    830.3008    317.1045 307.5954196  +6.5608629     1101.107     1476.513     1407.866     77.56892     155.2605     309.2922      1.319     2.80     827.2577     54.54491     213.1765         7     0.751     0.612  60.79   0
       526    666.2975    316.5741 307.6635585  +6.5556103     770.5526     1036.337     1050.382     77.69156     154.5229     309.3538      1.199     4.04     825.2852     54.54491     160.2619         7     1.229     0.389  78.11   0
       527    524.6142    314.9480 307.7224621  +6.5515474     10418.07     13482.46     13734.16      76.9528     154.7077     309.1999      1.311     2.91     823.1487     54.54491     1689.295        26     1.230     0.828  77.45   0
       528    793.6855    313.6187 307.6107448  +6.5610813     3794.625     4897.825     5724.731     77.19984     154.5229     309.3538      1.344     2.80     826.9429     54.54491     712.0027        20     1.215     0.745  77.65   0
       529    949.1851    313.1956 307.5461688  +6.5664372     983.8325     1424.964     1415.589     77.19984     154.4613     309.2922      1.455     3.89     826.1396     54.54491      168.348         9     1.019     0.664 -79.13   0
       530    741.4565    313.2564 307.6324511  +6.5594887     877.9397     1011.614      1586.66       77.814     154.7692     309.5076      1.029     3.58     826.6719     54.54491     171.6842         7     1.056     0.420  74.00   0
       531    351.0250    311.8144 307.7946670  +6.5470315     1355.337     1813.444     1590.593     77.32306     154.5845     309.3846      1.393     2.90     822.8121     54.54491     259.5133        11     1.010     0.679  87.22   0
       532    463.4740    305.0254 307.7481891  +6.5535991     648.5893      699.198     910.4767     77.19984     154.6461     309.3846      1.385     4.80     822.7574     54.54491     107.2944         8     1.222     0.655 -81.97   0
       533    186.5934    305.5617 307.8631717  +6.5441003     1304.024     1573.553     1499.695     76.82898     154.4613     309.1999      1.177     2.82      824.954     54.54491     205.5044        10     0.917     0.716  63.21   0
       534    633.5930    304.2663 307.6775542  +6.5595997     603.1238     870.0949     799.2018     77.07642     154.5229     309.2922      1.420     3.99     824.2263     54.54491     101.3967         7     0.987     0.461  78.73   0
       535    286.8189    305.3066 307.8215528  +6.5475669     781.3383     991.3833     776.5645     77.44609     154.5229      309.323      1.394     4.34     822.9357     54.54491     104.7891         7     0.856     0.626  23.98   0
       536    535.9701    302.5776 307.7181594  +6.5570346      330.611     221.4338     61.87319      76.9528     154.5229     309.2614      1.003     4.26     822.7845     54.54491     71.53973         5     0.789     0.656  84.82   0
       537      9.9047    302.8685 307.9366458  +6.5392783     648.4807     811.7412     551.6617     77.44609     154.8307     309.4769      1.222     3.58     827.9966     54.54491      114.311         5     0.999     0.370  56.43   0
       538    414.4707    299.1094 307.7687409  +6.5544016     9048.747     11736.65     11745.53     77.44609     154.9536     309.4461      1.338     2.81     822.7444     54.54491     1444.387        28     1.248     0.880  71.02   0
       539    270.3114    299.8263 307.8285930  +6.5492761     2665.878     3431.884     3865.946     77.69156     154.5229      309.323      1.330     2.91     823.1788     54.54491     415.1351        16     1.151     0.750  80.58   0
       540    703.1953    299.6283 307.6487989  +6.5638387     485.3565     760.6776     682.9157     77.07642     154.5845     309.2614      1.400     3.63      825.501     54.54491      87.7019         5     0.979     0.388  84.82   0
       541    768.0798    298.8802 307.6218728  +6.5663125     1234.191     1486.003     1918.245       77.814     155.0151     309.5999      1.256     2.94     826.1776     54.54491     231.7521        10     0.929     0.666  80.43   0
       542    782.3600    294.9579 307.6160721  +6.5684083     65286.53     82611.23     85007.55     77.32306     154.7692      309.323      1.282     3.04     826.0909     54.54491     11437.54        57     1.305     0.905  77.15   0
       543    454.0343    294.4004 307.7524658  +6.5576700     2887.569     3616.135     3719.029     76.70496     154.5845     309.2307      1.322     2.73     822.5239     54.54491     533.2799        17     1.135     0.797  70.34   0
       544   1017.1724    292.0434 307.5186331  +6.5774334     1777.624     2319.288     2450.707     77.19984     154.8307      307.161      1.312     2.86     825.2539     54.54491     326.0174        14     1.133     0.703  66.46  16
       545    958.1682    291.2169 307.5431700  +6.5758110       2648.7     3316.594      3601.85     77.19984     154.5229      309.323      1.270     2.94     825.5754     54.54491     455.5093        15     1.213     0.704  68.47   0
       546    600.0914    291.7694 307.6918875  +6.5636402     1523.276     1968.245     2221.624     77.69156     154.5845     309.4153      1.288     2.67     822.9919     54.54491     277.7613        11     0.954     0.674  70.50   0
       547    491.0207    290.7616 307.7372251  +6.5604098     1431.026     1964.891     1990.765     77.19984     154.5845     309.1999      1.447     3.04     822.3607     54.54491     278.9477        11     1.003     0.673  72.72   0
       548    440.5387    290.1392 307.7582140  +6.5589777     2318.798     2948.988      3108.86     77.56892     154.7692     309.4769      1.314     2.86     822.4785     54.54491     365.4783        17     1.107     0.839  73.87   0
       549    320.2106    289.5816 307.8082113  +6.5551783     752.5634     979.7074      543.011     77.19984     154.4613      309.323      1.248     2.80     822.5779     54.54491     149.3066         7     0.838     0.596  77.93   0
       550    861.9957    284.5636 307.5833402  +6.5753548     1308.857     1753.199     1758.563     76.70496     154.5229     309.2614      1.472     3.61      826.611     54.54491     259.5864        12     1.205     0.686  65.66   0
       551    490.7445    284.7854 307.7375399  +6.5628680     964.9345      1468.22     1493.329      76.9528     154.7077     309.1691      1.628     4.02     822.1773     54.54491     151.1343         8     0.923     0.593 -88.77   0
       552    471.1489    281.6667 307.7457836  +6.5635000      1426.84     1844.268     2411.843     77.44609     154.6461     309.4461      1.293     3.14     822.1119     54.54491     212.5988        12     1.080     0.686  79.97   0
       553    216.9836    281.3731 307.8513617  +6.5551064      2736.31     3555.239     3952.554     77.19984     154.5845     309.3538      1.380     2.75     823.7269     54.54491     466.1384        17     1.225     0.726  81.28   0
       554    780.8004    279.5176 307.6172355  +6.5747313      7469.26     9553.714     9824.674     76.82898     154.2763     309.1075      1.288     2.76     825.4371     54.54491     1399.699        25     1.199     0.821  77.16   0
       555    371.4926    279.4942 307.7872495  +6.5610610     741.2225     957.8294     1060.103     77.56892     155.2605     309.4461      1.461     3.69     822.1812     54.54491      111.132         6     0.933     0.419 -70.89   0
       556    252.3980    279.5723 307.8367130  +6.5570377      878.558     932.5778     637.3157     77.07642     154.5229     309.2614      1.297     3.28     823.1174     54.54491     128.6812         9     0.973     0.628  89.90   0
       557    113.1261    278.7660 307.8945855  +6.5526971     1341.218     1857.007     2224.284     77.44609     154.7077     309.4461      1.446     3.07       825.86     54.54491     268.2094        13     1.010     0.893 -77.84   0
       558    797.1656    277.3189 307.6105111  +6.5761849      3208.02     4160.971     4629.805     77.44609     154.7692     309.4461      1.347     2.92     825.4064     54.54491     573.3037        16     1.181     0.711  75.70   0
       559    499.6273    276.3523 307.7341327  +6.5666469     649.3987     850.5362     351.5902     77.19984     154.8307     309.3846      1.181     2.93     821.8865     54.54491     155.9811         7     0.954     0.467  81.41   0
       560    100.1917    272.9593 307.9001529  +6.5546601     1550.449     2041.043      2028.28      76.9528     154.5845     309.1691      1.343     3.17     826.0129     54.54491      257.993        12     1.102     0.724  73.62   0
       561    388.4927    271.9967 307.7804397  +6.5647259     1271.955     1956.531     2215.701     77.19984     154.4613     309.1999      1.691     3.77     821.9194     54.54491     179.4927        11     1.092     0.697  67.81   3
       562    385.5194    272.0751 307.7816721  +6.5645939     1852.214      2304.07     2880.688       77.814     155.0151     309.5076      1.371     3.44     821.9201     54.54491     272.7185        16     1.187     0.877  61.79   3
       563    513.4574    268.2863 307.7286582  +6.5704398     2632.107     3358.885     3394.622     77.56892     154.7692     309.5999      1.334     2.78     821.6287     54.54491     417.6107        17     1.267     0.733  66.01   0
       564    284.5376    265.1130 307.8238490  +6.5640850     664.0427     992.0924     1216.838     77.56892     154.9536     309.4769      1.484     4.15     822.4655     54.54491     104.6947         7     1.034     0.475  80.48   0
       565    275.9741    263.9009 307.8274466  +6.5642983      6953.93      8833.62     8960.896     77.69156     154.5229     309.3538      1.330     2.81      822.571     54.54491     1284.433        25     1.213     0.852  74.75   0
       566    943.7566    262.8960 307.5501004  +6.5870244     704.7465     579.4421     662.0622     77.56892     154.7077     309.5692      1.141     2.13     824.4612     54.54491     146.8204         7     0.716     0.619 -81.64   0
       567    840.8401    262.1249 307.5928766  +6.5839142      667.519     837.7104     733.2806     77.44609     154.7692     309.4769      1.296     3.48     825.0905     54.54491     145.2579         6     0.886     0.502 -60.92   0
       568      6.3331    256.6805 307.9396833  +6.5582272     78329.85     103102.5     106911.3     77.69156     155.0151     296.5638      1.399     2.79     827.3327     54.54491     12059.36        68     1.365     1.063  75.73  16
       569    795.4032    257.3702 307.6119092  +6.5843625      1016.04     1286.282     939.1021     77.07642     154.5845     309.2614      1.191     2.58     824.5032     54.54491     175.2584         9     0.923     0.614  82.41   0
       570    147.6135    257.8367 307.8809648  +6.5624959     569.7048     682.9884     250.3824     77.07642     154.5845     309.1691      1.139     3.47     824.7516     54.54491     101.5234         5     0.749     0.464  75.42   0
       571    252.7664    256.6778 307.8373284  +6.5665024     682.0908     728.4097     497.9745     77.44609     154.7692     309.4153      1.147     4.34     822.7554     54.54491      114.108         7     0.973     0.552  60.87   0
       572    410.2569    254.6537 307.7719810  +6.5726150     2063.182      2688.75     2976.631     77.69156     154.7692     309.4461      1.395     3.37     821.2764     54.54491     336.8844        17     1.285     0.786  69.16   0
       573    997.1312    253.3561 307.5282469  +6.5927400     1354.616     1645.555     1687.809     77.56892     154.7077     309.4769      1.297     2.89     823.3216     54.54491     230.6345        11     0.989     0.687  72.18   0
       574    216.3621    251.9017 307.8526094  +6.5672533     556.8113     673.4094     951.4772     77.56892     154.6461     309.6614      1.391     4.43      823.165     54.54491     85.28491         6     0.879     0.635 -55.70   0
       575    180.0261    250.5332 307.8677477  +6.5665991     2225.989     2841.721     2553.878     77.19984     154.6461     309.3538      1.338     2.96     823.9865     54.54491     366.6202        15     1.143     0.779  68.90   0
       576    332.5524    250.7136 307.8043887  +6.5716392     1594.425     1772.045     1741.177     77.56892     154.7077     309.4461      1.285     3.26     821.5318     54.54491     224.8282        11     1.046     0.663  65.97   0
       577    933.3107    245.3169 307.5550257  +6.5939347     2138.804      3031.07     3243.051     77.32306     155.0151     309.4769      1.477     3.57     823.8405     54.54491     325.9304        17     1.262     0.831  69.63   2
       578    589.5610    246.1411 307.6977879  +6.5821272     2753.158     3615.416     3601.622     77.56892     154.8307     309.5076      1.267     2.96      821.551     54.54491     499.1371        16     1.187     0.735  68.35   0
       579    870.9125    245.9681 307.5809239  +6.5915873     588.5567     703.3496     418.7193     77.69156     154.5845     309.4153      1.510     5.59     824.3046     54.54491     88.13544         8     1.005     0.876  83.10   0
       580    753.2610    243.6572 307.6298725  +6.5886187     6386.427     8032.467     7998.062     77.69156     154.7077     309.4769      1.280     2.94     823.7355     54.54491     1110.604        21     1.214     0.729  76.03   0
       581    694.0504    243.6146 307.6544693  +6.5866603     2774.014      3421.14     3576.652      76.9528     154.7692     309.1999      1.270     3.01     823.0358     54.54491     505.6733        13     1.079     0.652  72.04   0
       582    991.2570    243.3857 307.5310192  +6.5966611     853.5688     1204.384     1027.286      76.9528     154.6461     309.1383      1.550     5.35     822.8491     54.54491     130.0044        12     1.269     0.791 -71.30   0
       583    408.9192    237.5308 307.7731105  +6.5796397     968.2355     1341.563     1089.338       77.814     155.0151     309.4769      1.500     5.98     820.6427     54.54491     141.4376        12     1.362     0.739  81.25   0
       584    949.3982    235.7039 307.5486634  +6.5984394     1212.601     1595.806     1787.841     77.07642     154.5229     309.1075      1.126     3.14     823.1926     54.54491     243.1139         7     0.942     0.443  75.47   0
       585    252.7303    229.0096 307.8382722  +6.5779244     2820.177     3795.398     3779.274     77.07642     154.5229     309.2922      1.341     3.09     822.3346     54.54491     472.0115        17     1.158     0.763  79.60   0
       586    895.4583    227.9415 307.5713290  +6.5998480     2148.229     2618.426     2952.428     77.56892     154.7692     309.4769      1.241     3.07     823.2496     54.54491     340.0735        14     1.074     0.683  73.93   0
       587    785.8654    227.3208 307.6168744  +6.5964512     2119.587     2751.053     2535.125       77.814     154.8307     309.4153      1.346     2.91      823.135     54.54491     375.5716        14     1.158     0.685  81.49   0
       588    274.3985    222.9220 307.8294763  +6.5811643     700.5092     750.5533     470.2946     76.82898     154.2146     309.2614      1.051     2.83     822.1967     54.54491     180.8175         7     0.868     0.643 -87.55   0
       589    486.6380    218.8819 307.7414527  +6.5899404     27925.57     36248.06     37574.76     77.56892     154.8307     309.4153      1.329     3.02      820.088     54.54491     4497.244        41     1.293     0.913  76.15   0
       590    347.8687    220.6353 307.7990356  +6.5845707     871.8337     1227.498     1488.079     77.44609     154.8307     309.5384      1.475     4.92     820.3791     54.54491     133.4883         9     1.042     0.658  88.20   0
       591    812.6799    217.9318 307.6060492  +6.6012219     16123.08     21158.28     22348.25     77.69156     155.0151     309.4461      1.340     2.87       822.79     54.54491     2600.814        44     1.261     1.187  56.34   0
       592    309.6219    219.9310 307.8149459  +6.5835799     649.8356     798.5701     626.7051     77.19984     154.7077     309.4153      1.435     4.21     821.5141     54.54491     92.21582         7     0.864     0.627  17.82   0
       593    492.3026    213.4698 307.7392809  +6.5923644     1874.534     2589.866     2859.133     77.44609     154.9536     309.4461      1.421     3.21     819.9403     54.54491     292.7079        12     1.155     0.616  80.84   0
       594    751.4856    213.8374 307.6316060  +6.6008714     894.5552     1250.891      1249.14     77.56892     154.7077     309.4461      1.341     3.81      822.485     54.54491     151.9197         9     1.078     0.548  59.82   0
       595    174.6508    212.1621 307.8712693  +6.5822607     2829.652     3644.353     3971.028     77.32306     154.7077     309.3846      1.351     2.86     823.4539     54.54491     476.1188        18     1.150     0.841  69.81   0
       596    149.3969    211.2236 307.8817904  +6.5818005     1252.575     1690.182     1359.018     77.19984     154.4613     309.2922      1.392     3.20     823.9138     54.54491     207.4015        10     1.083     0.591 -80.16   0
       597    201.6270    210.4731 307.8601211  +6.5838633     664.4187     827.5339     728.4355     77.32306     154.7077     309.3846      1.345     4.10     822.8409     54.54491     110.9739         5     0.993     0.483 -89.23   0
       598    804.3543    210.1712 307.6097667  +6.6041485     765.8776     966.1428     1145.808     77.07642     154.8307     309.3538      1.307     3.83      822.452     54.54491     147.4625         6     0.922     0.455  51.03   0
       599    949.0757    208.3168 307.5497104  +6.6097364     1690.272     2242.315     2496.745     77.69156     155.0765     309.5384      1.362     3.05     821.9819     54.54491     313.2288        12     1.155     0.620  65.14   0
       600    647.1530    206.5460 307.6751893  +6.6003991     529.9377     614.6714     588.8729     77.56892     154.7692     309.4769      1.319     3.58     821.1191     54.54491     104.9316         6     1.002     0.458  58.50   0
       601    610.7483    204.6674 307.6903744  +6.5999586     5660.936     7248.943     7366.446     77.44609     154.7077     309.4153      1.311     2.99     820.6555     54.54491     1005.498        22     1.257     0.766  74.35   0
       602     12.7787    205.5543 307.9387265  +6.5795516     5967.532     7734.726      7756.94     77.19984     154.7692     309.2922      1.385     3.03     827.1976     54.54491     937.2324        24     1.214     0.877  84.67   0
       603    573.3422    204.6541 307.7059131  +6.5987140     2469.054     3063.623     2955.073     77.69156     154.7692     309.4461      1.267     2.77     820.1354     54.54491     454.0726        12     1.026     0.657  80.38   0
       604    331.1975    205.4139 307.8064710  +6.5902966      1445.53     1852.036      1553.51     77.19984     154.4613     309.2922      1.314     3.42     820.8725     54.54491     237.1174        12     1.099     0.722  70.02   0
       605    415.2933    203.8885 307.7715904  +6.5937430     1866.405     2498.986     2529.594     77.56892     155.1992     309.5076      1.354     3.06     819.9127     54.54491     326.3912        15     1.217     0.771 -87.94   0
       606    917.7460    201.1252 307.5629649  +6.6116624     13213.94     16853.01     17185.05     77.44609     154.7692     309.4769      1.298     2.86     821.9015     54.54491     2142.624        29     1.274     0.824  73.28   0
       607    971.5326    201.7217 307.5406014  +6.6132070     3099.668     3710.219     3994.395     77.69156     154.8307     309.4153      1.254     2.86      821.474     54.54491     484.9607        17     1.092     0.777  68.13   0
       608    345.5063    201.5731 307.8006562  +6.5923617     1169.258     1750.584     2132.555     77.69156     154.5229     309.2922      1.800     3.18     820.4153     54.54491     156.8364        10     0.981     0.661  79.79   0
       609    236.7125    201.3737 307.8458532  +6.5887971      784.016     959.9834     1021.672     77.69156     154.5845     309.3538      1.263     4.78     822.3074     54.54491     130.1259        10     1.266     0.671  66.40   0
       610   1004.4196    198.9338 307.5270326  +6.6154526     11310.65     14923.31     14915.41     77.19984     154.7692     309.3538      1.354     2.85     821.0567     54.54491     1830.579        32     1.263     0.932  74.52   0
       611    715.8018    198.9648 307.6469260  +6.6058212     3504.934     4574.525     4800.944     76.70496     154.5845     309.2922      1.329     2.81     821.6417     54.54491     668.1372        20     1.255     0.752  82.86   0
       612    592.7477    200.9447 307.6979763  +6.6008941     1084.272     1415.121     1939.825     77.56892     154.7692     309.4153      1.257     2.90     820.2919     54.54491     193.9227        10     0.991     0.630  75.65   0
       613    290.1248    198.7561 307.8237550  +6.5916688     1418.146     1698.422     1633.178     77.44609     154.8307     309.4769      1.294     3.15     822.1118     54.54491     240.0226        11     1.088     0.604  73.82   0
       614     43.8435    197.8385 307.9260831  +6.5837813     30810.28      40644.4     41956.63     77.32306     154.7692      309.323      1.376     2.90     826.3681     54.54491      5232.79        47     1.326     0.979  75.12   0
       615    524.3804    193.9729 307.7266090  +6.6014870      2464.06     3043.726     3064.971     77.19984     154.5845     309.3538      1.261     2.84     819.4732     54.54491     400.5858        14     1.057     0.734  82.41   0
       616    856.3116    190.6061 307.5888364  +6.6139587     2311.131     2982.691     3316.945     77.07642     154.4613     309.2307      1.276     2.81     821.4365     54.54491     417.1141        16     1.228     0.707  69.27   0
       617    908.5801    189.6692 307.5671546  +6.6160870      2334.13      2991.27     2733.771     77.19984     154.6461     309.3538      1.259     2.84     821.3527     54.54491     372.6823        15     1.131     0.708  71.16   0
       618    656.1961    190.0430 307.6719845  +6.6075148      411.464     510.1517     30.57734      76.9528     154.4613     309.1691      0.978     3.73     820.7588     54.54491     82.99585         5     1.422     0.280  78.37   0
       619    536.3302    189.8716 307.7217824  +6.6035799      3345.04     4442.644     4519.358     77.69156     154.8922     309.3846      1.348     3.07     819.3749     54.54491     525.6671        17     1.227     0.737  77.54   0
       620    767.9264    187.1015 307.6256695  +6.6124586      48721.3     61960.95     63753.41     77.19984     154.8922     309.4153      1.294     2.74     821.4266     54.54491     9209.579        54     1.300     0.927  77.95   0
       621    370.9325    186.5568 307.7905982  +6.5994132     6879.722     12681.88      13345.5     77.56892     154.7077     309.4769      1.932     6.25     820.0486     54.54491     926.7698        38     1.946     0.967 -83.69   0
       622   1001.6254    185.7083 307.5286340  +6.6208202     3261.575     4262.428     4501.994     77.69156     154.5229     309.2922      1.379     3.07     820.7974     54.54491     535.6097        19     1.423     0.747  70.53   0
       623    935.8470    184.1478 307.5560116  +6.6192748     8934.945     11518.02     11854.71     77.69156     154.7077     309.4769      1.338     2.84     821.0247     54.54491     1502.135        28     1.280     0.864  75.72   0
       624    479.3004    183.3353 307.7456912  +6.6043710     6208.765     8184.331     8451.517     77.56892     154.8922     309.4153      1.345     2.85     819.2123     54.54491     1036.576        24     1.215     0.849  77.44   0
       625    253.8443    180.1126 307.8394509  +6.5981496     977.9955      1244.06     1361.738     77.56892     154.6461     309.4769      1.306     3.06     822.2381     54.54491     156.9722         8     0.851     0.600  51.74   0
       626    136.6465    174.6413 307.8883159  +6.5964758     5710.229     7431.276     7768.072     77.44609     154.7692     309.2922      1.369     3.07     823.2947     54.54491     913.2756        25     1.295     0.855  71.79   0
       627    956.1566    173.8041 307.5479195  +6.6242218     1083.225     1461.971      2093.26      76.9528     154.3997     309.1691      1.379     3.15      820.549     54.54491     189.3115        12     1.077     0.811  85.34   0
       628    306.9697    171.3498 307.8176775  +6.6035485     41327.42     53828.38     55058.34     77.19984     154.8922     309.3538      1.375     2.86     821.5847     54.54491     6727.286        50     1.321     0.967  76.09   0
       629    282.2598    172.4570 307.8279046  +6.6022630     8081.573     10250.43      10228.3     77.69156     154.7692     309.4769      1.330     2.85     822.1602     54.54491     1306.588        23     1.199     0.835  77.69   0
       630    633.2066    172.7574 307.6821125  +6.6138837      926.093     1248.197     1000.336     77.07642     154.4613     309.1691      1.458     3.91     819.9662     54.54491     144.3122         9     0.971     0.604  69.26   0
       631    736.3842    170.7206 307.6393196  +6.6181695     1134.626      1494.77     2033.111     77.19984     154.5229     309.2614      1.363     3.09     820.7498     54.54491     222.7671         7     0.944     0.452  77.39   0
       632    431.0591    166.8484 307.7662828  +6.6095635     61111.99     79077.49     81375.48     77.56892     154.7692     309.5076      1.349     2.91     819.3279     54.54491     10666.89        54     1.326     0.945  77.17   0
       633    186.9791    168.1728 307.8676263  +6.6008359     4894.846     6274.421     5915.826     77.07642     154.5845     309.4153      1.373     2.92     822.4158     54.54491     828.0682        24     1.258     0.861  75.27   0
       634    448.4564    167.3409 307.7590395  +6.6099425     1788.384      2471.05     2913.077     77.69156     154.7692     309.4769      1.485     3.43     819.1494     54.54491     295.3369        12     1.095     0.655  78.87   0
       635    315.6822    167.5264 307.8141868  +6.6054191     515.3131     548.7968     691.7522       77.814     155.0765     309.5076      0.989     3.67     821.3043     54.54491     121.3227         6     0.905     0.466 -89.29   0
       636    342.6139    164.0690 307.8031156  +6.6077490     2353.872     3713.445     4595.162     77.07642     154.7077     309.3538      1.734     5.45     820.4617     54.54491     377.8047        25     1.875     0.865 -81.65   0
       637    335.0638    164.5572 307.8062355  +6.6072944     22763.39     29217.39     29663.91     77.56892     154.7077     309.4769      1.371     2.80     820.7117     54.54491     3774.917        37     1.306     0.900  79.08   0
       638    770.3441    163.0062 307.6254699  +6.6224877     40228.34     50865.79     52058.51     77.07642     154.6461     309.1691      1.287     2.87     820.4427     54.54491     7236.059        44     1.269     0.869  75.00   0
       639    718.3979    164.7186 307.6469919  +6.6200474     1230.872     1546.026     1412.868      76.9528     154.3997     309.1691      1.232     3.56     820.4651     54.54491     219.3157         9     1.043     0.579 -87.82   0
       640    568.6605    164.8828 307.7091888  +6.6149780     543.8868     687.4954      678.998     77.69156     154.7692     309.4769      1.304     3.26     818.9837     54.54491     107.5705         5     0.759     0.427  71.04   0
       641    818.6542    163.4810 307.6053852  +6.6239028     1445.601     1604.144     1894.777     77.56892     154.7692     309.5076      1.094     2.66     820.3222     54.54491     261.6797         9     0.939     0.562  81.91   0
       642     57.6149    163.4388 307.9215201  +6.5984462     646.1851     868.4702     570.2075     77.32306     154.5845     309.1999      1.525     5.00     826.1439     54.54491     88.19379         9     1.097     0.644  85.83   0
       643     87.0864    160.3444 307.9093825  +6.6007139     11182.29     14559.12     14603.65     77.56892     154.7692     309.5692      1.362     2.95     824.6021     54.54491     1777.651        29     1.241     0.913  74.22   0
       644    120.9631    158.4122 307.8953759  +6.6026495     1861.203     2380.505     2613.719     77.07642     154.5845     309.1691      1.384     3.28     823.3172     54.54491     304.0638        15     1.185     0.764  64.41   0
       645    996.1401    156.1045 307.5318992  +6.6328606     633.9934     895.0303     423.2506     77.44609     154.7692     309.5384      1.507     2.87     819.9165     54.54491     132.5685         6     0.815     0.596 -85.74   0
       646    601.5950    165.9928 307.6954705  +6.6156205      544.433     789.3882     1880.139      76.9528     154.5229     309.2922      1.285     2.60     819.3305     54.54491     125.9084         6     0.766     0.490  87.97   0
       647    603.9841    147.7108 307.6950897  +6.6232485     1019.362     1356.314     1499.086     77.32306     154.5229     309.2922      1.366     3.15     818.7277     54.54491     186.6227        11     1.105     0.624  77.01   0
       648     20.4200    145.6354 307.9375688  +6.6045463     1082.255     1320.112     619.3976     77.07642     154.5845     309.2614      1.290     3.01     827.2815     54.54491     162.0035        11     0.993     0.724  70.23   0
       649    612.8123    141.2531 307.6916384  +6.6262096     1292.302     1708.838     2206.507      76.9528     154.7077     309.1691      1.365     3.55     818.5485     54.54491     215.2073        10     1.119     0.606  81.95   0
       650    621.1411    139.3983 307.6882405  +6.6272538     2525.393     3290.574     3564.216      76.9528     154.4613     309.1691      1.372     2.97     818.5762     54.54491      452.701        16     1.272     0.741  67.50   0
       651    305.8878    137.6237 307.8192586  +6.6174365     37391.63     48486.29     50651.66     77.56892     154.5845      309.323      1.349     2.86     821.7256     54.54491     6411.596        54     1.343     0.971  74.36   0
       652    869.7992    139.2525 307.5849469  +6.6356110     495.7971      755.344      641.472      76.9528      154.338     309.0151      1.684     4.43     819.1391     54.54491     92.94147         5     1.266     0.442  61.28   0
       653    365.3264    139.2741 307.7945125  +6.6187469     1211.007     1441.175     1418.435       77.814     155.0151     309.5384      1.296     3.08     820.2411     54.54491     206.8419         8     0.920     0.585  75.30   0
       654     51.1815    136.1411 307.9251106  +6.6095000     5353.932     7000.605      7382.54     77.19984     154.6461     309.2614      1.347     2.86     825.1696     54.54491     912.4722        22     1.227     0.853  71.64   0
       655    737.5339    134.1909 307.6400626  +6.6332901     9803.496     12340.03     12678.45     77.07642     154.5845     309.3538      1.240     3.00     819.1856     54.54491     1651.431        23     1.211     0.766  77.50   0
       656    214.9171    135.3738 307.8571229  +6.6153148     1046.237     1135.876     1440.999     77.44609     154.5229     309.3846      1.234     2.82     822.1254     54.54491     184.7991         9     0.922     0.617  72.74   0
       657    291.7725    132.3364 307.8252995  +6.6191463     957.5397     1146.615     843.3245     77.19984     154.7692     309.3538      1.261     3.96     822.0738     54.54491     151.2122         9     1.042     0.675  75.88   0
       658    148.2355    131.3473 307.8849571  +6.6147392     5914.776     7847.481     7796.964     77.44609     154.7692     309.4461      1.349     2.92     821.6802     54.54491     952.0412        24     1.191     0.888  76.19   0
       659    444.0334    131.0577 307.7620926  +6.6247747     513.4522     758.8874     571.3713     77.44609     154.8307     309.4153      1.430     3.66     818.4679     54.54491     106.7266         5     1.174     0.329 -65.25   0
       660    610.2724    129.4778 307.6930874  +6.6309865     916.1219     1135.171     1958.264       77.814     155.0151     309.4461      1.440     3.00     818.0612     54.54491     155.1162         9     0.936     0.671  43.61   0
       661    676.2561    128.5946 307.6657059  +6.6335552     878.1998     1017.292     983.7238     77.07642     154.6461     309.1691      1.119     3.34      818.803     54.54491     159.1869         8     0.976     0.518  71.77   0
       662    487.1976    128.5249 307.7442466  +6.6272648     1803.402     2258.856     2423.456     77.07642     154.2763      309.323      1.317     3.40     818.1216     54.54491     291.5276        12     1.110     0.681  87.96   0
       663    419.0474    127.2827 307.7725986  +6.6254968     4639.627     6737.188     6787.166     77.56892     154.7692     309.4461      1.544     3.84     818.5769     54.54491     721.9101        30     1.542     0.930  80.62   0
       664    595.3443    125.9496 307.6994069  +6.6319443     726.9847     1055.041     1478.469     77.56892     154.7692     309.4769      1.785     5.13     817.9388     54.54491     130.4832         8     1.244     0.597 -79.05   0
       665    383.4533    126.1710 307.7874219  +6.6247639     3909.108     5021.712     5185.847     77.32306     154.8922     309.3538      1.289     2.94     819.7524     54.54491        617.1        18     1.152     0.768  74.93   0
       666    137.7762    126.2043 307.8894747  +6.6165114     2115.026     2805.832     2850.957     77.19984     154.5229     309.2922      1.364     2.74     821.6837     54.54491     336.3585        16     1.087     0.811 -87.09   0
       667    181.0694    126.2154 307.8714906  +6.6179601     602.5975     693.7266     543.4073     77.07642     154.6461     309.3538      1.062     2.72     821.5826     54.54491     120.7554         6     0.732     0.566  50.27   0
       668    699.4532    124.2623 307.6562141  +6.6361184     935.5109      1209.48     1420.686     77.56892     154.7077     309.4153      1.243     3.80     818.6422     54.54491     139.7038         9     1.156     0.488  84.54   0
       669    773.9420    124.2750 307.6252689  +6.6385989     638.6991     566.9877     608.5759     77.69156     154.7692     309.4153      1.138     2.82     818.8179     54.54491     130.9796         6     0.879     0.556  61.21   0
       670    756.0897    120.2760 307.6328189  +6.6396544      773.994     981.4951     908.6812     77.56892     155.0151     309.5076      1.275     2.51     818.6138     54.54491     162.5605         5     0.789     0.450  52.80   0
       671    235.2511    115.1875 307.8493542  +6.6243311     6698.214     8941.241     8376.542      76.9528     154.6461     309.1691      1.340     2.96     822.1777     54.54491      1122.18        26     1.258     0.861  78.81   0
       672    117.9611    115.0735 307.8980798  +6.6204414     2556.254     3349.938     3411.159     77.44609     154.7692     309.5076      1.364     2.94      821.545     54.54491     448.2914        15     1.188     0.728  84.20   0
       673    697.0646    113.9475 307.6575511  +6.6402974     7618.438     9566.773     10173.29     77.56892     154.7077     309.4153      1.308     2.80     818.1913     54.54491     1410.782        26     1.231     0.810  74.04   0
       674    874.1625    115.4173 307.5839296  +6.6455975     474.1503     811.9144     1076.412     77.19984     154.6461     309.1999      1.057     2.05     818.3026     54.54491     105.1835         5     0.678     0.462  20.27   0
       675    845.0916    113.5217 307.5960700  +6.6454112      1446.66     1719.968     1589.758     77.32306     155.0151     309.4769      1.222     2.93     818.3295     54.54491     262.2427        11     1.063     0.622  72.13   0
       676    649.2593    111.1865 307.6775031  +6.6398409     11333.11     14521.64      15600.7      76.9528     154.7077     309.1383      1.271     2.81     817.7569     54.54491     2095.231        25     1.208     0.790  75.05   0
       677    283.9576    111.7431 307.8292370  +6.6273865     1019.896     1447.778     1337.859     77.44609     154.7077     309.4461      1.412     3.59     822.1448     54.54491     185.2652        10     0.983     0.680  68.47   0
       678    587.0745    110.3603 307.7033640  +6.6381043      796.466     1045.358     1204.422     77.44609     154.7692     309.4769      1.434     4.08     817.4368     54.54491     136.2614         9     1.205     0.597  56.64   0
       679     48.0584    110.0870 307.9272844  +6.6201516     1206.499     1816.899     1883.753     77.56892     154.7692     309.5384      1.719     5.98     823.9066     54.54491     163.6533        16     1.507     0.864 -86.91   0
       680    376.4836    106.9097 307.7909631  +6.6324828     4385.671     6250.944     6396.563     77.32306     155.0151     309.5384      1.519     3.41     820.0591     54.54491     802.1908        27     1.477     0.995 -69.72   0
       681   1022.5997    105.6415 307.5225884  +6.6545763     966.3217     1266.887     1503.439     76.82898     137.4359     249.2601      1.486     4.43     816.2759     54.54491     149.3304         9     1.151     0.688  79.14  24
       682    558.2238    106.2567 307.7154866  +6.6388342     2169.712     2650.905     2661.112     77.19984     154.7692     309.2614      1.323     3.05     817.4656     54.54491     350.3513        14     1.150     0.714  79.49   0
       683    652.8254    102.7145 307.6763050  +6.6434579     66687.31      83548.8     86102.35     77.69156     154.5229      309.323      1.300     2.83     817.4536     54.54491     12160.27        50     1.284     0.888  74.29   0
       684    331.8370     96.5216 307.8098583  +6.6352758     4312.122     5461.318     5583.921     77.44609     154.8307     309.4461      1.328     2.85     821.6007     54.54491     752.1877        19     1.150     0.835  72.96   0
       685    527.2650     93.5690 307.7287725  +6.6430374     604.9016     659.2465     748.5362     77.32306     154.8307     309.3846      1.209     2.86     817.3582     54.54491     131.6885         6     0.874     0.441 -89.07   0
       686    731.6946     91.2267 307.6439240  +6.6508341     1255.927     1581.856     1729.996     77.69156     154.5229     309.2922      1.355     3.15      817.332     54.54491     205.3425        10     0.883     0.761  85.58   0
       687    919.2136   1017.5978 307.5351453  +6.2745999     1346.492     2289.152     2113.706     77.19984     154.4613     304.7025      1.764     6.10     844.4708     54.54491     157.4053        19     1.323     1.062  78.57  16
       688    703.1607     89.8005 307.6558257  +6.6504706     1621.809     2114.731     2098.753     76.70496     154.5845     309.1691      1.271     3.17     817.2057     54.54491     338.2131        12     1.133     0.630  80.15   0
       689    717.2161     86.6337 307.6500924  +6.6522472     3988.598     4851.318     4603.367     77.19984     154.5229      309.323      1.263     2.97     817.1396     54.54491     722.9447        18     1.166     0.696  73.71   0
       690     89.0058     85.0236 307.9111181  +6.6318750     570.3432      718.812     452.6398     77.07642     154.5229     309.2922      1.353     2.83     820.9948     54.54491     94.90314         5     0.612     0.607 -88.61   0
       691    458.9758     77.7306 307.7576722  +6.6472918     5137.739     6797.305     6762.681     77.19984     154.6461     309.3846      1.374     2.82     817.2648     54.54491     927.4264        26     1.282     0.887  70.71   0
       692    913.4980     73.9413 307.5689716  +6.6640326      2446.68     3052.418     3386.382     77.32306     154.7077     309.5692      1.293     2.96     816.4019     54.54491     377.2662        15     1.147     0.696  71.05   0
       693    931.4436     73.0014 307.5615473  +6.6650183     4592.778     6091.648     5787.204      76.9528     154.4613     309.0767      1.356     2.97     816.2875     54.54491     751.1631        20     1.217     0.789  69.32   0
       694    611.4373     73.5424 307.6944748  +6.6541196     903.5666     1209.971     1230.749     77.56892     154.8307     309.4461      1.370     4.45     816.2964     54.54491     151.4987        10     1.228     0.612  67.64   0
       695    623.5538     71.6915 307.6895031  +6.6552886     2079.401     2321.129     2391.145     77.56892     154.7077     309.5692      1.166     3.17     816.2997     54.54491     376.4559        14     1.149     0.688  77.29   0
       696    269.4459     71.3491 307.8366213  +6.6435771     1020.453     1458.998      2157.84     77.69156     154.6461     309.4769      1.602     5.01     821.7224     54.54491      166.123        10     1.129     0.710  75.58   0
       697    643.5234     71.1712 307.6812244  +6.6561706     613.4136     733.8779     777.5079     77.44609     154.8307     309.4769      1.080     3.39     816.3522     54.54491     127.5494         6     0.780     0.496  84.04   0
       698    422.4057     69.7104 307.7731332  +6.6493789     2397.914     2976.058     3068.026     77.07642     154.4613     309.1999      1.305     3.09      817.313     54.54491     397.4828        14     1.108     0.713  74.82   0
       699    170.2687     66.4542 307.8779853  +6.6422705     3688.013     4843.932     5147.317     77.56892     154.7077     309.3846      1.392     3.13     820.2249     54.54491     586.9186        21     1.344     0.867  84.52   0
       700    318.4865     64.9246 307.8164645  +6.6478736     1637.152      2386.58     3551.656     77.56892     155.0765     309.5076      1.656     3.53     821.5566     54.54491     238.4215        14     1.159     0.772  73.58   0
       701     52.0827     64.3093 307.9271528  +6.6391863     15217.77      20074.5     20998.43     77.32306     155.0151     309.5384      1.366     2.84     821.7238     54.54491     2543.637        35     1.312     0.913  73.35   0
       702    787.1016     63.5135 307.6218313  +6.6641248       911.72     1283.649     1751.046     77.56892     155.1992     309.5076      1.822     3.25     816.0614     54.54491     149.0323        10     1.026     0.613  62.35   0
       703    591.5517     63.9922 307.7030557  +6.6573980     812.1841     926.0511     754.5374     77.07642     154.6461     309.1075      1.238     4.92     816.2007     54.54491     128.9483         9     1.044     0.658  56.65   0
       704    579.1104     63.8068 307.7082305  +6.6570587      910.947     676.6909     804.6838     77.07642     154.4613     309.2614      1.150     3.62     816.3244     54.54491     162.2464         9     0.922     0.653  76.32   0
       705    972.8730     62.9942 307.5446689  +6.6705296      564.647      643.666     757.3209     77.19984      154.338     309.3538      1.310     2.48     814.9744     54.54491     154.2287         6     0.881     0.431  53.32   0
       706    181.2305     62.2840 307.8735718  +6.6443601      567.636     873.9072     1125.023     77.56892     154.5845      309.323      1.582     3.00     820.3908     54.54491     92.19922         5     0.818     0.631  44.12   0
       707    853.8565     58.7867 307.5942556  +6.6683022      7178.23     9350.461      9765.35      76.9528     154.6461     309.1691      1.327     2.80     815.6772     54.54491      1379.52        23     1.261     0.767  75.92   0
       708    921.0572     59.7969 307.5663028  +6.6701243     785.0462     1069.874     1091.661      76.9528     154.5845     309.1691      1.376     3.40     815.6108     54.54491       130.32         7     0.967     0.570  87.61   0
       709    798.9779     59.1742 307.6170422  +6.6663125     4072.218     5026.379     5007.131     77.07642     154.5845     309.3846      1.291     2.87     815.7261     54.54491      728.571        16     1.133     0.738  72.95   0
       710    443.9236     59.4963 307.7645364  +6.6543163     1448.138     1830.896     1630.603     77.19984     154.8922     309.5076      1.369     3.58     816.9343     54.54491      244.463        12     1.137     0.664  78.96   0
       711    123.3289     59.4177 307.8977212  +6.6435995     736.1749      908.955     904.1987     77.07642     154.7077     309.3846      1.133     4.17     820.0392     54.54491     112.8324         7     0.945     0.525  63.10   0
       712    785.8282     58.2419 307.6225364  +6.6662589     763.6534     1285.606     1692.325     77.19984     154.7077      309.323      1.838     2.36     815.7643     54.54491     131.9364         6     0.721     0.550 -49.61   0
       713    561.3647     57.4217 307.7158165  +6.6591017     1416.861     1492.408     1705.066     77.07642     154.5229     309.1999      1.219     3.01     816.3402     54.54491     225.1789        11     1.031     0.690  65.89   0
       714     76.8272     57.1787 307.9171137  +6.6429618     1147.707      1492.56     1255.172     77.07642     154.5845     309.4153      1.361     4.17     820.6832     54.54491     187.0068        10     1.085     0.623  82.02   0
       715    681.2366     56.4702 307.6660482  +6.6634998     761.1391       851.83     1296.972     77.44609     154.8307     309.5076      1.230     3.10     815.9673     54.54491     148.6932         6     0.899     0.425  89.27   0
       716     92.3996     56.1712 307.9106787  +6.6439009     3872.798     5051.021     4910.837      76.9528     154.5845     309.2614      1.331     3.01        820.2     54.54491     615.1518        20     1.168     0.853  69.44   0
       717    453.7025     55.6573 307.7606026  +6.6562287     1344.047     1705.119     1458.026     77.44609     154.7077     309.6306      1.451     3.30     816.7945     54.54491     202.6555        12     1.013     0.766  72.33   0
       718    616.0942     52.9111 307.6932305  +6.6627933     1580.392     2105.243     1786.987     77.56892     155.1992     309.5076      1.373     3.17     815.7755     54.54491     274.2751        12     1.074     0.669  77.96   0
       719    287.1734     52.9771 307.8298736  +6.6517566     504.7242     1021.881     2022.175     77.07642     154.6461     309.3846      2.110     4.00     821.5725     54.54491     86.67255         6     0.944     0.485  56.91   0
       720     34.6517     51.7255 307.9348171  +6.6437957     3043.064     4044.436     4596.317     77.56892     154.8307     309.4461      1.374     2.90     821.7422     54.54491     497.6459        19     1.185     0.801  73.44   0
       721    793.5692     46.5990 307.6197093  +6.6713241       2354.4     3196.283     3618.824      76.9528     154.5845     309.2614      1.361     3.06     815.1296     54.54491     387.4796        17     1.289     0.734  81.25   0
       722    743.3964     49.0133 307.6404731  +6.6686535     621.0159     745.3913     1216.456     77.19984     154.4613      309.323      1.383     3.73     815.7178     54.54491     109.4736         6     0.818     0.487 -86.31   0
       723    107.1963     47.5368 307.9048223  +6.6479627     1151.003     1255.796     1200.767      76.9528     154.5229     309.2307      1.271     3.22     819.8639     54.54491     205.1409        11     1.079     0.654  57.74   0
       724    685.0080     46.7482 307.6648064  +6.6676396     669.4443     693.1516      794.413     77.07642     154.6461     309.1383      1.212     2.73     815.6605     54.54491     150.8953         5     0.783     0.467  68.75   0
       725    434.3171     46.6097 307.7689592  +6.6593152     1412.176     1742.281     1857.688     77.19984     154.4613     309.2922      1.294     3.42     816.7539     54.54491     235.1094        12     1.125     0.672  75.40   0
       726    131.2816     45.5460 307.8948839  +6.6495936     1029.518     1041.167      1154.67     77.56892     154.7692     309.5076      1.110     2.94     819.7904     54.54491     204.5255         8     1.022     0.492  72.05   0
       727    449.2698     40.1642 307.7629633  +6.6624768     3262.491     4348.152     4501.696     77.44609     154.8307     309.5076      1.327     2.80     816.4756     54.54491     580.8557        17     1.175     0.743  77.20   0
       728    120.1294     40.4880 307.8996867  +6.6513072     11669.66     14903.99      15103.4     77.69156     155.0151     309.4461      1.354     2.95     819.6942     54.54491      1823.47        28     1.263     0.855  74.83   0
       729    270.2484     39.9178 307.8373431  +6.6565807      873.423     1299.784     1725.608     77.56892     154.7692     309.4769      1.614     3.76     821.2321     54.54491     135.7947         8     0.933     0.596  81.16   0
       730    286.8315     34.5363 307.8306347  +6.6593586     1915.504     2513.875     3441.178     77.32306     154.8307     309.4153      1.346     3.45     821.3395     54.54491     322.8915        14     1.219     0.717  63.13   0
       731    662.9338     32.4072 307.6744568  +6.6728235     22953.43     28958.76     29726.66     77.07642     154.5229     309.2922      1.301     2.77     815.1573     54.54491     4129.328        32     1.251     0.836  75.98   0
       732    692.5660     33.6175 307.6621055  +6.6733133     738.9965     825.3581     821.1441     77.19984     154.5845     309.2922      1.353     3.32     815.2104     54.54491     112.2672         9     0.891     0.757  64.77   0
       733    241.7295   1016.2392 307.8164295  +6.2525326     2313.727     3411.447     3348.542     77.44609     154.7692     309.5076      1.579     3.40     846.7157     54.54491     336.0234        19     1.308     0.833  77.64  16
       734    798.8726     26.8937 307.6181640  +6.6796368     614.4985     863.1802     993.4215     77.44609     154.8922     309.4769      1.484     4.86     814.0021     54.54491      106.895         8     1.313     0.509  78.99   0
       735    719.2443     27.8136 307.6512157  +6.6766002     639.5105     733.0577     981.2163      76.9528     154.5845     309.1999      1.281     3.14     814.9929     54.54491     132.1169         6     0.993     0.389  78.42   0
       736    112.5335     27.9423 307.9032640  +6.6562317     484.5481     712.1223     325.9861     77.69156     154.7077     309.4461      1.291     3.76     819.4671     54.54491     77.46472         6     0.813     0.498 -88.02   0
       737    778.6343   1015.2792 307.5935822  +6.2708741     851.3605     1510.546      1656.53     77.44609     154.8307     309.5076      2.083     6.43      845.337     54.54491     89.05255        14     1.227     0.948  26.35   0
       738     30.0869     26.8243 307.9375513  +6.6539227     1493.874     1778.411     1618.019     77.56892     154.5845      309.323      1.233     2.67     820.6884     54.54491     279.0146        10     0.899     0.697  80.37   0
       739    468.2476     24.0898 307.7556177  +6.6697486     27909.99     36048.64     36622.66     77.56892     154.6461     309.5999      1.314     2.89     815.9288     54.54491      4813.83        39     1.283     0.901  78.21   0
       740    745.0251   1013.2650 307.6076016  +6.2705852     7721.054     11624.56     11986.71     77.19984     154.7692     309.3538      1.575     3.28     845.2645     54.54491     1050.176        35     1.467     1.076  70.63   0
       741    946.0750     24.0511 307.5571011  +6.6857161      2321.59     3005.213     2647.509     77.56892     154.8307     309.4461      1.338     3.09     813.3451     54.54491     379.5265        14     1.143     0.729  70.55   0
       742    348.8822     24.6919 307.8051870  +6.6655028       1262.3     1715.218     2483.384     77.32306     155.0765     309.5076      1.378     2.52       821.33     54.54491       212.19        11     0.938     0.685  76.88   0
       743     54.1428     24.1373 307.9276486  +6.6558406     2856.086     3572.527     3217.175     77.69156     154.7077     309.4769      1.341     3.40     820.1255     54.54491     465.0055        16     1.210     0.740  79.27   0
       744    581.3983     23.5042 307.7086289  +6.6737749     834.8182     986.9997      709.391     77.07642     154.5229     309.0767      1.330     3.35      815.373     54.54491     126.6542         8     0.907     0.671 -89.51   0
       745    280.8182     28.7906 307.8333256  +6.6615291     2272.211     2987.528     4152.369     77.32306     154.5229      309.323      1.363     2.84     821.1893     54.54491     432.9965        16     1.182     0.759  81.35   0
       746    276.6841     21.1257 307.8353004  +6.6645550     3707.533     4636.411      5063.24     77.69156     155.0765     309.5076      1.307     2.80     821.0233     54.54491     600.7518        18     1.157     0.803  82.36   0
       747    329.8723     19.4778 307.8132594  +6.6670185     1155.356     1507.451     1386.384       77.814     155.0151     309.4461      1.291     2.72     821.2729     54.54491     227.2643         9     0.993     0.567  67.57   0
       748    601.0365   1012.4166 307.6674039  +6.2661305     4540.568     6548.316     7216.517     77.19984     154.6461     309.2307      1.571     3.59     848.3954     54.54491      630.521        26     1.354     0.974  86.16   0
       749    459.8567   1013.6184 307.7259705  +6.2609165     4460.505     6614.094     6965.246     77.07642     154.7077     309.1999      1.604     3.22     847.6954     54.54491     641.7242        25     1.283     0.991  68.41   0
       750    737.2850   1012.2791 307.6108477  +6.2707342     1246.592      2159.85     2931.463     77.44609     155.0765     309.5384      2.140     5.88     845.2518     54.54491     162.5595        18     1.503     0.883  59.73   0
       751    777.3937   1009.1067 307.5943031  +6.2733813     1499.768      2366.61      2350.42     77.19984     154.4613     309.2922      1.760     4.65     845.2802     54.54491     219.1051        17     1.366     0.882  65.20   1
       752    226.1623   1007.8020 307.8231744  +6.2554944     545.8423      817.843     649.7481     76.70496     154.5845     309.2614      1.506     4.46     846.1092     54.54491     70.18182         5     0.792     0.716  46.73   0
       753    984.5901   1002.8057 307.5084972  +6.2828831     5971.125     10665.92     11311.57     77.07642     154.5845      309.323      1.864     4.14     841.9187     54.54491     682.2925        38     1.552     1.270  76.24   0
       754    738.8782   1003.2818 307.6104865  +6.2745021     1145.035     1597.137     1999.826     77.69156     155.0151     309.5692      1.620     4.53     845.2505     54.54491      153.127        11     1.151     0.753  82.98   0
       755    268.9331   1003.0027 307.8055809  +6.2589091     1679.201     2426.937     2287.726      76.9528     154.4613     309.2614      1.485     3.21      846.923     54.54491     276.9902        16     1.140     0.881 -78.07   0
       756    759.9278   1000.0981 307.6018543  +6.2765185     1178.606     1733.932     2363.077     77.32306     154.8922     309.4769      1.796     5.29     845.2226     54.54491     173.9542        12     1.422     0.763  83.03   0
       757    744.4344   1000.8558 307.6082609  +6.2756891     3212.652     4543.763      4916.15     77.44609     154.7692     309.4461      1.558     3.17     845.2444     54.54491     430.9534        21     1.201     0.957  60.20   0
       758    467.5748   1001.6584 307.7231667  +6.2661126     929.3976     1224.635     1158.885     77.19984     154.7692     309.2922      1.372     4.07     847.3533     54.54491     136.8911         7     0.964     0.491 -86.31   0
       759    391.2350    998.5099 307.7549622  +6.2648590     1996.077     2805.469     2485.051     77.69156     154.7077     309.4461      1.498     3.16     847.2017     54.54491     307.2023        15     1.029     0.902  51.66   0
       760    239.1703    996.4340 307.8181559  +6.2606239     514.8436     761.0827     796.0465     77.07642     154.5229     309.1999      1.470     4.18     846.0447     54.54491     95.06268         5     0.926     0.538 -49.89   0
