#   1 NUMBER                 Running object number                                     
#   2 X_IMAGE                Object position along x                                    [pixel]
#   3 Y_IMAGE                Object position along y                                    [pixel]
#   4 ALPHA_J2000            Right ascension of barycenter (J2000)                      [deg]
#   5 DELTA_J2000            Declination of barycenter (J2000)                          [deg]
#   6 FLUX_APER              Flux vector within fixed circular aperture(s)              [count]
#   9 FLUXERR_APER           RMS error vector for aperture flux(es)                     [count]
#  12 FLUX_RADIUS            Fraction-of-light radii                                    [pixel]
#  13 FWHM_IMAGE             FWHM assuming a gaussian core                              [pixel]
#  14 BACKGROUND             Background at centroid position                            [count]
#  15 THRESHOLD              Detection threshold above background                       [count]
#  16 FLUX_MAX               Peak flux above background                                 [count]
#  17 ISOAREA_IMAGE          Isophotal area above Analysis threshold                    [pixel**2]
#  18 A_IMAGE                Profile RMS along major axis                               [pixel]
#  19 B_IMAGE                Profile RMS along minor axis                               [pixel]
#  20 THETA_IMAGE            Position angle (CCW/x)                                     [deg]
#  21 FLAGS                  Extraction flags                                          
         1    591.8967     65.7677 307.6898230  +6.6550773     915.0421      2330.36     2343.284     89.09073     177.3363     354.9549      2.364     8.60     1095.319     62.54792     124.5281        18     1.769     1.168  89.09   0
         2    631.5914     26.2608 307.6746582  +6.6727168     11249.73     24746.21     28157.06     88.24357     177.3363      354.602      2.306     5.74     1093.696     62.54792     1136.806        67     2.151     1.465  50.80   0
         3    531.4099     22.4162 307.7164455  +6.6709559     3227.084     7276.468     8611.633     88.66816     177.1951     354.7079      2.431     6.02     1095.358     62.54792     326.0758        41     2.005     1.305  41.54   0
         4    436.9652     18.0687 307.7558641  +6.6695912     13137.57     30702.61     35840.25     88.80923      177.548     354.9549      2.408     5.70     1100.098     62.54792     1235.905        73     2.154     1.581  47.37   0
         5    257.5544     18.5073 307.8304483  +6.6633989     5401.664      12405.4     15097.12      88.9501     177.4069     354.9902      2.469     5.73     1118.646     62.54792     550.0394        56     2.085     1.508  51.69   0
         6    914.3871     18.1668 307.5573393  +6.6854921      1417.97     2550.215     2415.514     88.38532     177.1951     354.7432      1.885     7.33     1083.992     62.54792     165.1221        19     1.472     1.022  56.09   0
         7    617.9569     16.6020 307.6806554  +6.6762496     2049.679     4767.923     6069.931     88.24357     177.0537     354.4961      2.585     7.54     1093.759     62.54792      214.231        36     1.994     1.375  63.65   0
         8     22.8420     17.8326 307.9280614  +6.6557966     1340.853     3063.382     3672.002     88.66816     177.4774     354.6726      2.461     7.00     1123.644     62.54792      176.072        22     1.680     1.079  59.75   0
         9    245.6114     15.3821 307.8355206  +6.6642888     1703.281     3826.994     4890.004     88.52686     177.1244     354.7432      2.525     5.82     1118.819     62.54792     207.0677        29     1.570     1.301  73.07   0
        10    935.5246      8.0940 307.5488904  +6.6903554     695.7411     1136.121     1021.065     88.80923     177.6889     353.6121      1.806     5.10      1082.74     62.54792     113.5375         7     1.191     0.618  52.05  16
        11    686.7420      7.3760 307.6523660  +6.6823566     1025.972     2273.652     2465.778     88.52686     177.4774     349.1586      2.281     7.25      1091.35     62.54792     136.6176        16     1.628     0.904  57.63  16
        12    175.4608      2.0219 307.8651439  +6.6674516     4907.571     8522.856     8446.629     85.65183     152.4323     279.5437      1.838     6.77     1119.748     62.54792     585.7462        28     1.753     1.006   5.93  24
        13    520.4191      1.2616 307.7217341  +6.6793234     577.7801     661.1086     938.1545     76.21613     139.7495     265.5334      1.159     3.95     1094.934     62.54792     110.1072         6     1.016     0.439   1.26  24
        14    707.2265    997.1782 307.6103175  +6.2743207     889.6926     1505.307     2154.708     88.38532     177.2657     354.7785      1.892     5.12      1144.52     62.54792     124.5254         8     1.223     0.607  48.20   0
        15    794.1798   1023.7628 307.5732895  +6.2662422     1605.787     2004.713     2657.895     75.88689     139.2109      264.967      1.082     2.42     1145.926     62.54792     469.4607         8     0.983     0.425  -0.19  24
        16    578.7349   1017.7017 307.6630092  +6.2615573     127303.6     231118.1     251067.7      88.9501      177.548     348.7281      1.967     4.81     1148.685     62.54792     14851.04       105     2.030     1.258  49.38  19
        17    580.4259   1010.5726 307.6625483  +6.2645576     58920.03     108806.1     119652.1     88.38533     177.2657     354.6726      1.970     4.93     1148.419     62.54792     7035.241        85     2.010     1.268  49.25   3
        18    212.7333   1020.5223 307.8149766  +6.2481473     3060.319     5563.598     6130.086     89.09073      177.548     317.9699      1.954     4.85     1151.647     62.54792     397.9498        28     1.678     1.023  54.12  24
        19     64.9062   1023.7454 307.8762822  +6.2418582     682.1649     888.3118     934.7878     75.88689     139.6599      265.769      1.103     2.27     1151.569     62.54792     176.3107         5     0.828     0.435  -0.94  24
        20    237.6775    996.6771 307.8054241  +6.2588293     1109.789     1791.186     1438.714     89.23114     177.7594     354.9196      1.772     6.11     1151.302     62.54792     162.5073        13     1.374     0.814  45.45   0
        21    712.7620    994.5731 307.6081057  +6.2755811     2320.938     4342.038     5352.786     88.52686     177.2657     354.6726      2.064     4.77     1144.461     62.54792     302.5472        25     1.592     0.991  49.52   0
        22    728.5739    993.4670 307.6015733  +6.2765652     897.1355     1640.371     1366.821     88.52686     177.3363     354.7432      1.992     5.28     1144.389     62.54792     141.3867        10     1.417     0.555  47.84   0
        23    435.3629    994.9233 307.7233503  +6.2661715      698.069     1166.077      1187.79     88.80923      177.548     354.8491      1.665     4.66     1149.012     62.54792     113.9678         6     1.006     0.614  57.22   0
        24    359.4785    991.9163 307.7549808  +6.2648742     1509.267     3017.188     3647.465     89.09073     177.8298     354.9902      2.150     7.28      1150.07     62.54792      202.181        19     1.884     0.787  51.07   0
        25    746.3564    981.6721 307.5945838  +6.2820287     6394.148     11526.23     12296.48     88.80924     177.4774     354.8843      1.904     4.99      1143.83     62.54792     765.0771        37     1.822     1.071  47.10   0
        26    541.6752    982.3522 307.6796053  +6.2749162     3486.828     6777.575     7474.158     88.80924      177.548     354.8491      2.139     5.11     1148.541     62.54792     481.7266        35     1.838     1.144  50.39   3
        27    538.9520    974.5125 307.6810026  +6.2780625     6527.918     12225.94     13726.07      88.9501     177.3363     354.9196      2.066     4.66     1148.263     62.54792     881.3579        43     1.894     1.156  50.60   3
        28    511.7251    983.0917 307.6920243  +6.2736100     830.4584     1681.825     1665.805      88.9501     177.6185     354.8843      2.039     4.34     1148.644     62.54792     120.3433         9     1.035     0.761  53.20   0
        29    291.9018    981.1201 307.7834243  +6.2670697     11445.46     21952.09     25328.86     88.80923     177.9002     354.8843      2.079     4.92     1150.976     62.54792     1468.892        56     1.994     1.216  48.83   2
        30    415.5985    981.5632 307.7320156  +6.2710271     671.4728     1319.866     1572.335     87.95937     177.2657      354.602      2.144     6.37     1149.013     62.54792     94.43701         7     1.298     0.879  66.46   0
        31    807.1727    980.8036 307.5693438  +6.2844145       965.48     1382.978     1282.133     88.38532     177.1951     354.6726      1.601     5.62     1143.385     62.54792     139.7201        12     1.455     0.613  32.68   0
        32    263.6672    978.9194 307.7952299  +6.2670327     793.5748     1571.227     1644.221     89.09073     177.7594     354.8843      2.138     6.08     1150.941     62.54792     122.6232        11     1.557     0.669  52.73   0
        33    907.5639    975.1066 307.5278229  +6.2901108     7764.278     13410.38     14242.96     89.09073     177.3363     354.9549      1.842     5.05     1139.885     62.54792     966.7576        37     1.783     0.989  52.45   0
        34    881.1453    971.1992 307.5389322  +6.2908447     10537.84     18862.09      20505.5     88.24357     177.1244     354.4254      1.908     5.08     1140.665     62.54792     1340.307        46     1.793     1.143  42.65   0
        35    594.0391    971.9654 307.6582005  +6.2809543      1109.06     1707.206     1722.998     88.66816     177.3363     354.6373      1.489     4.05     1146.781     62.54792     164.5985        11     1.072     0.811  58.49   0
        36   1002.8892    970.6082 307.4883658  +6.2951403     4516.585     7715.852     8216.685     88.38532     177.1244     354.5314      1.811     4.90     1136.857     62.54792     636.4286        28     1.664     0.958  42.52   0
        37    525.5921    970.3391 307.6866951  +6.2793393     3395.319     6516.831     7343.716     88.24357     177.2657      354.602      2.068     5.05     1148.121     62.54792     394.9047        34     1.905     1.070  37.98   0
        38    635.2256    969.9457 307.6411559  +6.2831634     1017.053     1850.551     2170.919     88.52686      177.548     354.6726      2.077     5.93     1145.389     62.54792     138.4359        12     1.533     0.646  48.17   0
        39     60.0445    968.3589 307.8801886  +6.2645648     740.0152     1598.972     1835.676     88.66816     177.4774     354.7079      2.163     6.13     1150.818     62.54792     131.3953         8     1.422     0.743  43.08   0
        40    478.6501    966.8954 307.7063160  +6.2791924      1546.81     3118.714      3268.08     88.80923     177.4069     355.0254      2.080     5.95      1148.27     62.54792     236.5537        22     1.714     0.923  41.59   0
        41     49.3763    963.9567 307.8847709  +6.2660244     3670.988     3601.812     3090.596     88.38532     177.3363     354.6373      0.831     2.05     1150.835     62.54792     1087.608         6     0.725     0.466  76.19   0
        42    912.8926    958.7495 307.5261614  +6.2970426     37840.09     66645.94      71370.4     88.80923     177.3363     355.0607      1.878     5.01     1138.995     62.54792     4786.904        68     1.903     1.139  49.02   0
        43    220.2261    957.0211 307.8140234  +6.2746193     1410.653      2639.26     2825.387     88.52686     177.2657     354.7785      2.009     5.91     1150.345     62.54792     178.1213        19     1.453     1.043  60.94   0
        44    618.9174    954.6609 307.6484498  +6.2889305     700.3661     1222.259     574.7565     89.09073     177.4774     354.8843      1.838     5.13     1145.621     62.54792     114.1487         7     1.191     0.624  28.15   0
        45    810.9482    952.7337 307.5687243  +6.2961314     2008.998     3644.546     3895.399     88.80923     177.4069     354.8138      1.933     5.49     1141.738     62.54792      241.184        22     1.525     0.980  39.30   0
        46    759.0834    950.4119 307.5903534  +6.2953614     5463.114     10209.42     11186.89     88.52686     177.2657     354.6726      2.006     4.82      1142.17     62.54792     658.8574        37     1.769     1.111  49.08   0
        47    228.5193    949.8286 307.8108224  +6.2778671     1101.915     2074.657     2081.445     88.80924     177.2657     354.8138      2.158     5.17     1150.183     62.54792      174.955        13     1.264     0.864  76.72   0
        48    546.3184    950.0429 307.6787716  +6.2884128     684.1392       1252.7     1246.334     88.95009     177.4774     354.8138      1.510     4.18     1147.173     62.54792     98.61841         5     1.069     0.467 -24.30   0
        49     53.5221    947.8522 307.8835971  +6.2728134     2316.443     4163.887     4373.835      88.9501     177.4774     354.8491      1.941     4.54     1150.505     62.54792     293.2284        26     1.667     0.943  55.37   0
        50    192.6976    948.8733 307.8257381  +6.2770608     595.2476     1318.567     938.0786     88.52686     177.6185     354.8491      2.208     4.85     1150.313     62.54792     88.49951         5     1.110     0.601  29.35   0
        51    947.2402    945.4150 307.5123396  +6.3036922     6111.387     10737.51     10879.07     88.38532     177.2657      354.602      1.868     5.10     1137.533     62.54792     786.8018        36     1.876     0.990  53.95   0
        52    920.9581    937.4676 307.5235289  +6.3060992     1865.925      3340.97      3360.37      88.9501     177.4069     354.9196      1.895     5.21      1137.78     62.54792      277.037        19     1.574     0.802  51.34   0
        53    641.8930    933.2820 307.6396275  +6.2985255     3494.439     6477.304     6342.679     88.66816     177.8298     354.9549      1.928     5.39     1144.398     62.54792     387.6466        31     1.753     1.036  49.27   0
        54    254.0296    933.6915 307.8007719  +6.2853853     3137.086     6310.291     7423.723     89.09073     177.1951     354.7785      2.169     5.57     1149.996     62.54792     393.2894        34     1.875     1.110  51.07   0
        55     23.1796    931.2742 307.8967685  +6.2786399     1631.201     3081.056     3371.019     88.52686     177.3363     354.7785      2.074     7.06     1150.036     62.54792     220.1946        21     2.091     0.728  55.41   0
        56    780.6663    933.8212 307.5819466  +6.3029318     1054.923      1713.99     1973.599     88.52686     177.4774     354.7785      1.865     5.60      1141.15     62.54792     172.0281        12     1.320     0.717  38.79   0
        57    464.1658    931.6323 307.7135307  +6.2932692     945.0726     1871.021     1946.277     88.52686     177.1951     354.5667      2.034     5.41     1147.705     62.54792      156.845        12     1.419     0.830  19.06   0
        58    873.2169    929.3791 307.5436399  +6.3078497     808.7095     1196.702     1317.894     88.66816     177.2657     354.7432      1.583     5.46     1138.819     62.54792     104.9589         9     0.946     0.889 -18.99   0
        59    566.6895    926.1201 307.6711183  +6.2989718     1400.643      2490.11      2582.62     88.66816     177.7594     354.9549      1.852     5.06     1145.906     62.54792     176.0859        19     1.329     1.039  48.60   0
        60    997.1730    925.3518 307.4922686  +6.3136383     1534.449     2218.873     2299.001     88.52686      177.548     354.7785      0.728     0.00     1136.053     62.54792     932.6281         6     0.855     0.269  47.43   0
        61     55.6069    922.2401 307.8836035  +6.2834589     677.5327     1157.762     1400.199     88.24357     177.1244     354.4961      1.739     5.09     1150.133     62.54792      107.434         6     1.097     0.667 -74.05   0
        62    605.5483    922.0168 307.6551109  +6.3019639      928.576     1510.783     1431.552     88.38532      177.548     354.5667      1.678     5.14     1145.111     62.54792     126.1672         7     1.156     0.645  21.37   0
        63    285.5371    919.7824 307.7881536  +6.2921842     1315.516     2320.729     2857.849     88.52686     177.4069     354.6726      2.050     6.38     1150.091     62.54792     180.4797        16     1.549     1.005  47.96   0
        64    752.7534    916.3469 307.5941362  +6.3092170     784.6527     1430.202     1874.472      88.9501     177.4774     354.8843      2.536     7.18     1140.793     62.54792     105.8204        12     1.456     0.993  56.80   0
        65    889.8915    912.4326 307.5372839  +6.3154029      5813.85     10313.54      11265.7     89.09073     177.3363     354.8843      1.887     5.12     1137.526     62.54792     688.7349        37     1.842     1.001  48.65   0
        66    425.7457    909.8947 307.7302324  +6.3009603     1499.416     2833.719     3157.041     88.80923     177.4774     355.0959      2.156     8.50     1148.106     62.54792     184.7903        23     2.042     0.988  45.72   0
        67    327.6062    908.1443 307.7710694  +6.2983987     7003.848     13822.79     15392.08     88.38532     177.3363     354.5314      2.105     5.10     1149.782     62.54792     919.7896        47     1.965     1.214  50.84   0
        68    247.7347    907.0679 307.8042928  +6.2961678     5223.069     9866.749     11072.13      88.9501     177.4774     354.8843      2.030     4.73     1149.755     62.54792     722.3073        40     1.858     1.144  47.59   0
        69    576.0818    902.1251 307.6680290  +6.3091937     891.7827     1798.816     1632.101     89.23114     177.8298     354.9196      2.009     7.69     1145.111     62.54792     116.9141        16     1.623     1.020  46.77   0
        70    972.8694    892.9484 307.5034616  +6.3262105     600.5504     959.9722      1188.37     88.80923     177.3363     354.8138      1.741     5.74     1134.665     62.54792     99.20813         9     1.631     0.569  50.80   0
        71    741.7700    890.5286 307.5995739  +6.3195120     1316.707      2280.99     2336.131     88.80924     177.4774     354.8138      1.891     7.13     1140.259     62.54792     156.6171        18     1.517     0.939  43.79   0
        72    905.1508    897.6116 307.5314439  +6.3220310     892.4888     1647.461     1980.454     88.24357     177.4069     354.4961      1.900     4.95     1136.603     62.54792     137.1869         9     1.323     0.524  53.03   0
        73    973.3380    886.2916 307.5034917  +6.3289749     1160.653     1833.538         1866      88.9501     177.6185     354.9549      1.759     6.68     1134.283     62.54792     146.3092        15     1.467     0.853  56.03   0
        74    660.4586    883.7669 307.6335903  +6.3195916     2068.868     3889.972     4198.677     88.80924      177.548     354.7785      2.086     5.56     1142.039     62.54792     273.0667        24     1.694     1.049  42.94   0
        75    526.8265    885.9976 307.6890425  +6.3142077     752.0255     1439.826     1267.433     88.38532     177.1244     354.6373      1.885     4.39       1145.9     62.54792     119.7428         5     1.070     0.511  49.41   0
        76     57.4088    880.3651 307.8842815  +6.3008102     2259.928     4339.958     4135.013     88.38533     177.2657     354.6373      1.986     5.20     1149.917     62.54792     306.1852        27     1.565     1.139  55.17   0
        77    949.2220    881.0060 307.5136914  +6.3303551     414.1616     861.4988     1066.779     88.52686     177.1951     354.6373      2.825     3.84     1134.892     62.54792     73.90674         5     0.829     0.510  33.25   0
        78    200.9861    879.3079 307.8246611  +6.3060635     1675.824     3021.208     3584.452     88.66816     177.1951      354.602      1.886     5.65     1149.642     62.54792     219.2869        21     1.460     1.074  44.27   0
        79     74.4719    879.1916 307.8772318  +6.3018675     1462.057     2811.106     3018.867     88.38532      176.983     354.7432      2.067     6.39     1149.839     62.54792      183.901        21     1.705     0.898  40.85   0
        80    236.5291    876.7047 307.8099814  +6.3083299     698.0542     865.5159     536.2223     88.80924      177.548     354.8138      1.391     3.36     1149.605     62.54792     131.7415         5     0.738     0.444  67.19   0
        81    792.9737    875.4193 307.5788081  +6.3274583     417.4797     713.9102     389.5103     88.52686     177.2657     354.7432      1.466     4.29      1138.69     62.54792     77.37231         5     1.147     0.456 -64.20   0
        82    655.2236    873.1255 307.6361260  +6.3238110     5213.959     9931.721     11100.49     88.52686     177.2657     354.7785      2.051     5.05     1141.766     62.54792      569.223        39     1.811     1.147  47.58   0
        83    338.3487    866.4773 307.7680216  +6.3159636     11619.39     23156.23     26473.04      88.9501      177.548     354.8491      2.161     4.99     1149.619     62.54792     1478.099        66     2.328     1.379  62.85   0
        84     15.1747    871.6879 307.9021252  +6.3029749     1037.254     1812.873     1762.473     89.09073     177.2657     354.7079      1.890     5.28     1150.115     62.54792     137.9313         9     1.121     0.701  65.30   0
        85    892.9777    869.3533 307.5374572  +6.3332947     2339.557     4307.755     4697.631     88.52686     177.4774     354.7079      1.994     5.32     1135.473     62.54792     295.8838        25     1.614     1.002  50.07   0
        86     28.2381    869.6349 307.8967674  +6.3042613     706.5778     1303.098      1380.45     88.66816     177.3363      354.602      2.287     5.95     1150.042     62.54792     119.1135         7     1.252     0.795  42.49   0
        87    209.3162    865.9632 307.8216540  +6.3118531     988.4722     1839.632     1860.066     88.95009     177.4069     354.7785      2.224     6.01     1149.559     62.54792     135.7201        11     1.161     0.874  52.08   0
        88     73.0719    866.9474 307.8782307  +6.3068763     824.6536     1542.862     1341.667     88.80924     177.4774     354.8843      2.165     3.91     1149.742     62.54792     134.3429         6     0.924     0.473  51.55   0
        89    101.6859    857.4480 307.8666650  +6.3117592     1037.459     2037.099     2274.124      88.9501     177.4069     354.8491      2.066     7.65     1149.287     62.54792     129.4005        18     1.706     0.960  54.55   0
        90    416.6631    857.3270 307.7357910  +6.3223630     702.9987     1254.027     1395.364     89.09073     177.4774     354.9196      1.876     3.90     1146.613     62.54792     102.0359         6     0.868     0.503  47.16   0
        91    669.9213    852.9373 307.6307024  +6.3326379     649.8047     930.2208     1301.341     89.23114      177.548     354.8491      1.511     4.96     1140.316     62.54792     102.9932         8     1.201     0.579  84.70   0
        92    883.5400    851.2750 307.5419900  +6.3404457     1544.398     2466.318     2350.154     89.23114     177.4774     354.8138      1.747     6.74     1134.546     62.54792     194.6991        19     1.627     0.829  48.79   0
        93     85.3799    850.8137 307.8736662  +6.3139513     1722.519     3320.168      3583.18     88.66816     177.1244     354.7432      2.058     5.72     1149.156     62.54792     241.0603        23     1.758     0.944  44.49   0
        94    854.2694    850.7732 307.5541704  +6.3396780     1619.282     2734.089     2201.882     88.52686     177.3363     354.7785      1.815     5.13     1135.177     62.54792     201.4208        20     1.486     0.974  42.47   0
        95    817.6234    850.1661 307.5694192  +6.3387077     2331.508     4291.035     5158.304     88.38532     177.1951      354.602      2.032     5.32     1136.352     62.54792      304.407        26     1.723     1.008  37.88   0
        96    553.3572    841.5128 307.6795267  +6.3334633       241212     475588.5     528222.3      88.9501     177.3363     354.8843      2.126     5.09      1143.63     62.54792     26293.36       168     2.153     1.485  50.08   0
        97    397.6662    844.2482 307.7441289  +6.3271280     5377.928     11038.98     12335.12     88.80924     177.4069     354.8491      2.218     5.09     1147.121     62.54792     606.8013        47     1.902     1.351  53.23   0
        98    340.7812    842.5103 307.7678253  +6.3259416     8813.611     18026.82     20018.24     88.66816     177.1951     354.7432      2.173     5.15     1148.706     62.54792     1098.385        53     1.991     1.317  49.07   0
        99    640.9062    844.5340 307.6430440  +6.3351395     883.1265     1507.778     1425.257      88.9501     177.6889     354.8491      1.597     4.12     1140.457     62.54792     127.3389         7     0.992     0.487  -7.03   0
       100    659.2822    838.7028 307.6356055  +6.3381608     2658.406     4968.097     5561.512     88.80924     177.9002     354.9196      2.037     5.05     1139.702     62.54792      316.708        28     1.703     1.043  51.11   0
       101    891.6263    837.5648 307.5390931  +6.3463764     4145.159     7803.582     8497.304     88.24357     177.1951     354.5667      1.995     5.25      1133.65     62.54792     476.9912        34     1.785     1.046  44.93   0
       102    731.1623    835.5702 307.6058420  +6.3418525     606.6293     1001.109     421.2288     88.52686     177.1951     354.7079      1.537     3.65     1137.592     62.54792     88.62512         5     1.059     0.362  85.95   0
       103    633.9978    832.6935 307.6463160  +6.3397982     2421.156     4713.279     5856.196     88.52686     177.1244     354.4961      2.261     5.24     1139.719     62.54792     282.8793        32     1.812     1.126  44.30   3
       104    626.5449    828.4835 307.6495557  +6.3412878     1438.219     3782.871     5112.226      88.9501     177.4774     354.9549      2.863     9.13     1139.446     62.54792     207.5708        34     2.185     1.575 -62.37   2
       105    822.4678    832.1541 307.5680153  +6.3463070     1268.617     2344.008     2569.738      88.9501     177.4069     354.8491      1.886     6.48     1134.995     62.54792     151.3383        15     1.391     0.848  61.51   0
       106   1023.6279    830.7334 307.4844692  +6.3535899     2215.337     2895.436     2911.843     77.68039     141.5298     267.5999      1.253     3.46     1128.918     62.54792     455.5677        11     1.202     0.535  83.97  24
       107    948.7184    830.5159 307.5156061  +6.3511877     671.0927     1029.933     906.2653     88.66816     177.7594     354.9196      1.938     5.82     1131.601     62.54792     114.0278         9     1.166     0.818  50.34   0
       108    910.5500    825.5565 307.5316350  +6.3519651     2752.222      4740.94     4684.923     89.09073     177.4069     354.8843      1.821     5.00     1132.399     62.54792     322.7194        25     1.704     0.909  50.51   0
       109    321.3648    825.7136 307.7764641  +6.3322272     746.4909     1432.705     1080.312      88.9501     177.3363     354.8491      2.014     4.26     1148.546     62.54792     99.78394         6     0.959     0.538  47.42   0
       110    368.7792    821.4808 307.7569057  +6.3355625     1797.858     3830.846     4151.801     88.66816     177.1244     354.8138      2.250     5.79     1147.156     62.54792     263.4811        27     1.734     1.174  54.69   0
       111    504.9809    811.3196 307.7006532  +6.3443142     2135.537     4385.166     4215.758     88.52686     177.1244     354.7785      2.101     6.41     1142.915     62.54792     241.8529        29     1.805     1.155  51.92   0
       112    551.7993    807.4935 307.6813277  +6.3474588     4215.354     8731.907     11045.58     88.38532      176.983     354.4961      2.359     5.24     1141.583     62.54792     507.4517        43     1.945     1.281  46.32   0
       113    849.7414    810.0112 307.5574302  +6.3563593      808.999     1423.374      1925.13     88.24357     177.3363     354.5314      2.274     5.28      1133.13     62.54792     117.2034         8     1.318     0.598  31.23   0
       114    469.6302    806.4265 307.7155091  +6.3451528      1011.22     2071.537     1916.846     88.38533     177.2657     354.6726      1.987     5.63     1143.583     62.54792     161.3403        15     1.454     0.910  28.53   0
       115    887.7623    805.3197 307.5417886  +6.3595629     1200.746     2169.155     2295.234     88.80924      177.548     354.8138      1.915     4.76     1131.798     62.54792     212.1656        13     1.477     0.844  50.50   0
       116    111.0984    805.4268 307.8645257  +6.3335554     1123.225     1886.354     2103.206     89.09073     177.1951     354.8138      1.966     5.13     1147.559     62.54792     169.9058        12     1.189     0.958  49.82   0
       117    522.5047    801.2549 307.6937127  +6.3490560     13578.73     27470.64     30597.99     88.80924     177.4069     355.0959      2.158     5.05     1142.062     62.54792     1625.517        61     2.055     1.325  51.72   0
       118    687.2175    803.4219 307.6251919  +6.3536617     748.3618     1216.378     1234.945     88.66816     177.3363     354.7785      1.756     4.61     1136.836     62.54792     107.7472         5     0.820     0.736 -74.07   0
       119    936.0718    799.3718 307.5219137  +6.3636274     3136.417     5639.277     6007.347     88.66816     177.4774     354.7432      1.894     4.90     1129.555     62.54792     353.1848        28     1.769     0.929  52.39   0
       120     33.6840    791.8364 307.8971562  +6.3365682     1002.849     1589.172     1724.167      88.9501     177.4774     354.8138      1.775     4.72     1147.291     62.54792     162.9219        11     1.287     0.654  44.11   0
       121    315.2120    790.0820 307.7802319  +6.3467343     2233.037      4778.23     5206.245     88.52686     177.1951     354.6726      2.247     5.59     1147.538     62.54792     282.3584        31     1.815     1.216  41.69   0
       122    780.5621    785.6563 307.5870026  +6.3641109     41114.06     78466.47     86402.67      88.9501      177.548     354.8491      2.056     4.98     1132.541     62.54792     4565.776        85     2.039     1.340  49.89   0
       123     15.1661    788.1865 307.9049752  +6.3374533     1515.837     3064.365     3837.716     88.38532     177.1951     354.7432      2.322     5.71     1147.295     62.54792     227.9865        20     1.539     1.111  36.98   0
       124    237.3615    762.3265 307.8135260  +6.3555868     777462.9      2266398      2745085     88.80924     177.4774     354.9196      2.703    14.90     1146.788     62.54792     63718.88       606     2.955     2.089  66.73   4
       125    708.9894    780.0085 307.6169372  +6.3640562     14419.94     24781.71     27382.23     88.38532     177.2657     354.7785      1.823     5.22     1134.381     62.54792     1650.462        23     1.700     0.870  37.54   3
       126    702.5863    776.8386 307.6197054  +6.3651516     62508.16       125877     149574.9     88.52686     177.2657     354.5314      2.263     5.24     1134.383     62.54792     6745.627       126     2.754     1.498  40.31   2
       127    905.8157    780.9598 307.5351094  +6.3702232     6750.198     12633.78     13651.58     88.38532     177.2657      354.602      1.975     4.87     1129.648     62.54792     799.1315        41     1.859     1.121  49.66   3
       128    902.9199    772.4570 307.5366002  +6.3736379     5340.855     9607.883     11085.36     89.09073     177.4774     354.8491      2.032     5.40     1129.236     62.54792     637.7184        39     1.981     1.026  48.27   3
       129    347.4697    777.7707 307.7672458  +6.3528981     13681.49     28530.06     32403.27     88.66816     177.4774     354.7785      2.226     5.07     1145.558     62.54792     1553.097        63     2.062     1.411  51.30   0
       130    409.3587    775.6569 307.7415996  +6.3558424      14771.8     30772.44     34915.94     88.80924     177.4774     354.8843      2.193     5.17     1144.861     62.54792     1689.006        67     2.102     1.383  52.19   0
       131    396.8494    777.6462 307.7467303  +6.3546023     886.3853     1464.726     1657.255      88.9501     177.3363     354.8843      1.727     4.24      1145.04     62.54792     142.1141         7     1.174     0.438  37.57   0
       132    946.3899    774.5128 307.5184655  +6.3742361     1558.143     2792.294     3032.582     88.52686     177.1244     354.6726      1.959     6.65      1127.99     62.54792     188.7185        17     1.528     0.818  53.84   0
       133    643.3907    771.4684 307.6444871  +6.3653936     4425.055     8760.393     9519.074     88.38533     177.2657     354.7079      2.135     5.37     1135.514     62.54792     513.9379        41     1.990     1.177  48.52   0
       134    432.0197    768.8612 307.7324134  +6.3594066     989.4736     2208.982     2618.376     88.52686     177.4069     354.7432      2.138     7.90      1143.58     62.54792     145.1178        16     1.884     0.927  34.74   0
       135    872.3607    764.3835 307.5495729  +6.3759541     537.9916     907.7983      1298.04     88.52686     177.3363      354.602      1.901     3.92     1129.896     62.54792     90.83984         5     1.057     0.415  15.07   0
       136    678.4891    761.4417 307.6302410  +6.3707054     1795.588     3557.729     4178.113      88.9501     177.4069     354.8843      2.150     6.69     1134.036     62.54792     193.1895        22     1.564     1.037  45.72   0
       137    412.2962    758.2763 307.7409691  +6.3631176     35108.73     73761.48     83258.73     88.52686     177.6185     354.9196      2.225     5.22      1143.87     62.54792      4299.75        88     2.126     1.483  52.34   0
       138    122.5753    761.7104 307.8612456  +6.3519917     751.9466     1499.805     1476.892     89.09073     177.2657     354.6726      2.002     8.09     1145.795     62.54792     107.8889        10     1.649     1.110  53.66   0
       139    529.9833    757.3896 307.6920928  +6.3674192     4658.123      9777.34     10504.07     88.66816     177.1951     354.7079      2.185     5.54     1138.681     62.54792     571.5236        43     1.973     1.300  54.77   0
       140    446.6952    755.6761 307.7267625  +6.3653420      2970.92      6415.04     8187.159     88.66816     177.6185     354.9196      2.409     8.35      1141.98     62.54792     323.9952        49     2.614     1.252  55.83   3
       141    443.9786    749.1060 307.7281145  +6.3679641     1461.064     2724.811     3016.995     88.80923     177.2657     354.6726      1.954     6.13     1141.753     62.54792     190.5043        19     1.720     0.887  27.53   3
       142    775.1291    753.7900 307.5903387  +6.3770885     8469.967     16706.64        18535     88.38532     177.0537     354.6726      2.088     5.04     1130.516     62.54792     938.4424        48     1.933     1.221  46.30   0
       143      4.9861    750.0830 307.9105043  +6.3528448     741.5715     1358.561     756.4815     88.52686     177.1951      324.517      1.868     4.60     1146.758     62.54792     94.05579         7     0.880     0.683  60.95  16
       144    797.1641    748.1081 307.5813736  +6.3801693     845.1564      1668.53     2101.158     89.09073     177.3363     354.8843      2.195     7.00     1129.359     62.54792     107.6798        12     1.527     0.899  47.93   0
       145    141.2723    746.2397 307.8540030  +6.3590072     2076.467     4433.656     5688.781     88.80924     177.4774     354.9196      2.420     7.20     1145.124     62.54792     246.4984        33     2.169     1.101  52.64   2
       146    133.1129    746.0871 307.8573988  +6.3587964      7817.01        16312     19178.46     88.66816     177.9002     354.9549      2.516     5.16     1145.123     62.54792     1029.171        72     3.788     1.350  52.90   3
       147    125.4350    743.4356 307.8606796  +6.3596336     2187.192     4694.609     6859.247     88.66816     177.1951     354.5667      3.075    12.43     1144.995     62.54792     245.6932        45     3.400     1.265  73.82   3
       148    920.7054    742.4124 307.5302241  +6.3866367     4972.249     9275.413     10009.22     88.66816     177.1951     354.6726      2.021     4.91     1126.871     62.54792     561.2952        36     1.841     1.068  53.28   0
       149    969.9127    742.4537 307.5097727  +6.3882574     1157.394     1923.781      2566.02      88.9501     177.3363     355.0254      1.794     5.46     1125.678     62.54792     157.6326        13     1.378     0.770  11.92   0
       150    676.0325    739.5986 307.6320018  +6.3796432     967.3729     2047.612     2698.239     88.10159     177.2657     354.5667      2.128     5.27     1132.492     62.54792     117.0161        12     1.140     0.843  70.18   2
       151    563.1266    739.1710 307.6789374  +6.3760497     1432.254     2914.687     3402.591     88.80923     177.4774     354.8138      2.136     6.60      1136.27     62.54792     175.2659        22     1.542     1.088  45.88   0
       152    411.1198    738.6860 307.7421233  +6.3711675     836.8494     1734.721     1550.006     88.66816     177.8298     354.9902      2.391     5.25     1142.853     62.54792     95.73962         9     1.155     0.674  41.43   0
       153    914.9767    734.3573 307.5328771  +6.3897722     2223.751     4396.447     4916.017     88.52686     177.3363     354.6726      2.079     5.69     1126.607     62.54792     288.5676        29     1.856     1.056  50.02   0
       154    944.4183    733.7975 307.5206604  +6.3909834     2533.618     4532.811     4227.824     88.52686      176.983     354.5667      1.908     5.23     1125.803     62.54792      308.839        28     1.802     0.960  53.98   0
       155    975.1042    733.4655 307.5079187  +6.3921417     1576.919     2590.558      2635.45      88.9501     177.6185     354.8843      1.714     5.01     1125.016     62.54792     204.4227        16     1.316     0.883  51.95   0
       156    812.9791    730.8736 307.5753842  +6.3878132     622.9846     1372.445      1510.91     88.52686     177.3363     354.7785      2.710     4.88      1128.18     62.54792     98.90295         6     1.132     0.597 -69.72   2
       157    666.9517    732.8569 307.6360040  +6.3821240     903.7088     1689.251     1905.668      88.9501     177.4774     354.9902      2.400     6.53     1132.289     62.54792     107.6115        13     1.674     0.714  38.21   0
       158    890.2538    730.3140 307.5432884  +6.3906186     666.7081     1369.356     1886.063      88.9501     177.4069     354.9902      2.075     5.28     1127.184     62.54792     105.8179         7     1.001     0.786 -67.21   0
       159    240.0287    728.5781 307.8135657  +6.3696116     1075.825     2448.768      3486.62     88.24357     177.2657     354.7079      2.815     7.19     1145.235     62.54792     139.1868        18     1.672     1.037  34.15   0
       160    932.5236    724.4030 307.5259212  +6.3944668     818.8433     1485.346      1747.94     88.38533     176.9122     354.7079      1.922     4.38      1125.45     62.54792     134.4202         7     0.995     0.717  53.99   0
       161    906.5253    723.2516 307.5367649  +6.3940767     839.3483     1672.191     1878.951      88.9501      177.548     354.8491      2.000     6.89      1126.21     62.54792     141.2072        13     1.609     0.826  30.57   0
       162    155.7485    723.8422 307.8487500  +6.3687411     616.4701     1218.851     1005.349      88.9501     177.4774     354.8491      2.087     4.47     1144.423     62.54792     95.05859         5     0.827     0.688 -55.98   0
       163    959.3232    721.6276 307.5148770  +6.3965049     2133.285     3837.098      4385.58     88.80924     177.4069     354.8138      1.885     4.92     1124.635     62.54792     269.8458        23     1.596     0.907  45.14   0
       164   1001.0303    715.0300 307.4977664  +6.4006169      1246.33     2283.781     2094.911     88.38532     177.1951     354.5667      1.865     6.53     1122.947     62.54792     164.7296        15     1.647     0.727  46.35   0
       165    802.5950    713.3549 307.5802924  +6.3947012     862.9052     1580.526     2025.014     88.24357     177.1244     354.4961      1.946     5.33     1127.539     62.54792     141.3998         8     1.492     0.538  30.45   0
       166    889.3892    711.2736 307.5442914  +6.3984524     834.8382      1198.17     1918.064     88.38533     177.0537     354.7079      2.071     3.53     1126.073     62.54792     123.9503         8     0.820     0.719 -33.67   3
       167    887.3984    709.2976 307.5451856  +6.3992020     749.3688     1361.488     1604.383     88.38533     177.1951     354.4961      1.658     3.70     1126.017     62.54792     130.4183         5     0.844     0.465 -75.68   3
       168    862.7199    705.7211 307.5555629  +6.3998569     776.2458     1486.644     1763.126     89.23114     177.7594     355.0254      2.201     7.50     1126.569     62.54792     106.8132        12     1.798     0.876  58.60   0
       169    845.1696    702.1091 307.5629790  +6.4007638      996.525     2183.145     2413.721     89.09073     177.2657     354.8138      2.396     6.07     1126.571     62.54792     117.1786        11     1.477     0.702  58.81   0
       170     44.7801    701.6981 307.8956176  +6.3741601     1737.287     3626.953     3988.319     88.80924     177.3363     354.5667      2.127     5.61     1144.767     62.54792     201.7985        28     1.715     1.145  41.48   0
       171    108.6188    699.3560 307.8691690  +6.3772705     777.4442     1788.421     2220.812     88.38533     177.3363      354.602      2.531     8.44     1143.809     62.54792     105.6431        15     1.896     1.050  56.24   0
       172    657.2675    689.6812 307.6414914  +6.3996294     4389.344     8929.605     10096.29     89.09073     177.7594     354.9196      2.168     5.57     1129.746     62.54792     496.9874        42     1.962     1.225  46.33   0
       173    604.4387    689.2789 307.6634604  +6.3980317     1005.805     2210.646     2274.593     88.80924      177.548     354.8491      2.145     7.03     1131.659     62.54792     124.8401        13     1.500     0.924  52.49   0
       174    994.4055    684.9338 307.5015360  +6.4128245     1990.382     3810.518     4174.483     88.38532     177.1244     354.6373      2.071     6.04     1120.775     62.54792     230.1554        27     1.821     1.024  54.37   0
       175    120.2826    685.7177 307.8647865  +6.3832934     2599.556     5293.982     6514.855     88.66816     177.7594     354.9549      2.233     5.81      1143.49     62.54792     317.9849        31     1.802     1.126  51.96   0
       176    774.1329    681.8238 307.5931882  +6.4067727     13984.48     28108.23     31314.48     88.52686     177.4069     354.7785      2.147     5.10     1126.939     62.54792     1485.094        63     2.026     1.369  48.81   0
       177    631.0488    684.8566 307.6525512  +6.4007464     1195.045     2483.161     2401.788      88.9501     177.4774     354.9549      2.199     8.00     1130.364     62.54792     160.1619        18     1.614     1.108  25.37   0
       178    904.0720    681.4124 307.5391986  +6.4112721     2894.264     5681.383     5976.258     88.38532     177.0537     354.6373      2.106     5.15      1123.79     62.54792     352.0289        34     1.830     1.212  53.04   0
       179    472.2792    681.5894 307.7186454  +6.3967901     848.3358     1815.553     1663.597     88.52686     177.1951     354.7079      2.498     7.04     1136.417     62.54792     138.3064        13     1.464     0.948  51.23   2
       180    247.7229    675.5848 307.8121711  +6.3917515     3895.109     8426.634     9874.024     88.52686     177.1244     354.6726      2.347     5.27     1141.795     62.54792     491.1957        46     2.021     1.371  47.03   0
       181    654.6672    674.6481 307.6430814  +6.4057503     4493.437     9360.549     10150.19      88.9501     177.4069     354.8843      2.193     5.35     1128.803     62.54792     490.9325        46     1.966     1.315  46.41   0
       182    637.4638    675.7338 307.6501944  +6.4047276     775.1222     1254.699     984.0516      88.9501     177.4774     354.8491      1.763     5.37     1129.534     62.54792     93.50012         8     1.000     0.813  60.85   0
       183    914.4351    667.4488 307.5353635  +6.4173833      1099.54     1752.887     1915.398     88.80924     177.4774     354.7785      1.837     5.92     1122.748     62.54792     116.7062        13     1.225     0.805  52.03   0
       184    726.5881    663.1920 307.6135788  +6.4128809      2590.95     5413.188     6822.747     88.52686     177.2657     354.7785      2.374     5.87     1126.897     62.54792     270.4615        37     1.939     1.225  47.77   0
       185    681.8398    663.0280 307.6321821  +6.4114556     795.9124     1438.094     1569.362     88.52686     177.2657     354.7079      2.245     6.27     1127.494     62.54792     92.50403        10     1.293     0.853  60.32   0
       186    992.7087    659.6302 307.5030958  +6.4232169      6941.86     13013.43     14123.04     89.09073     177.1951     354.8138      1.994     5.11     1119.456     62.54792     834.1927        41     1.918     1.093  46.99   0
       187    931.2318    660.0324 307.5286332  +6.4210050     1823.973     3320.887     3467.197     88.38532     177.1951     354.4961      2.050     5.63     1121.901     62.54792     223.9397        21     1.584     0.995  46.23   0
       188     11.5953    659.6330 307.9108419  +6.3904147     1239.444     3028.894     3379.439     88.10159     177.3363      354.602      2.468     8.70     1144.075     62.54792     162.6721        23     1.774     1.193  33.52  16
       189     70.2097    654.6937 307.8866521  +6.3944228     16601.38     35405.96     40225.62     88.52686     177.0537     354.6726      2.252     5.28      1143.03     62.54792     2034.874        70     2.160     1.412  53.58   0
       190    531.2974    655.8102 307.6949926  +6.4094082     1227.774     2798.846     2678.373     88.66816     177.0537     354.6726      2.160     7.90     1133.034     62.54792     141.2102        24     1.586     1.241  29.14   0
       191    921.3203    651.8430 307.5330293  +6.4240567     757.1921     1186.031     902.3208      88.9501     177.4774     354.8138      1.686     5.70     1121.907     62.54792     94.77258        10     1.301     0.703  51.10   0
       192    500.5536    652.4324 307.7078844  +6.4097753     767.1389     1854.092     1450.823     88.66816     177.4774     354.7432      2.268     7.41     1134.133     62.54792      90.6062        12     1.465     1.050  21.50   0
       193    716.1063    646.8045 307.6184901  +6.4192982     2291.765     4681.588     4722.559     88.66816     177.1244     354.5667      2.103     5.81     1126.456     62.54792     256.4313        29     1.682     1.174  59.21   0
       194    540.6139    648.4078 307.6913718  +6.4127763     555.7163     1091.842     1579.578     88.52686     177.1951     354.6726      2.153     5.03     1132.196     62.54792     83.42908         5     1.329     0.539  46.04   0
       195    738.1600    645.0384 307.6093841  +6.4207631     2694.302     5652.706     6290.729     88.66816      177.548     354.7079      2.230     5.40     1126.111     62.54792     315.6124        35     1.805     1.222  62.81   0
       196    405.5005    642.4254 307.7477280  +6.4107280     937.7206     2147.059     2797.323     89.09073     177.1951     354.7432      2.827     6.75     1136.045     62.54792     121.5803        14     1.293     0.988 -88.44   2
       197    569.5750    642.8516 307.6795239  +6.4160383     2248.116     4591.977     5427.702     88.52686     177.4774     354.7432      2.208     6.25     1130.779     62.54792     229.4972        26     1.641     1.120  52.98   0
       198    230.6563    642.6495 307.8203842  +6.4047791     1050.563     2597.361     3539.013      88.9501     177.4774     354.9196      2.909     8.03     1140.776     62.54792     147.1307        22     1.789     1.266  55.52   0
       199   1010.8986    641.0916 307.4961617  +6.4314773     3865.054      7450.85     8155.396      88.9501     178.0409     354.8138      2.047     5.45     1118.197     62.54792     459.6073        36     1.884     1.106  56.46   0
       200    976.2948    639.9069 307.5105839  +6.4308154     6287.727     11568.16     12209.67      88.9501     178.1112     354.7785      1.973     5.02     1119.442     62.54792     717.9072        39     1.859     1.093  50.67   0
       201    314.2100    641.5844 307.7856964  +6.4080188     854.1897     1795.672     1822.873     88.66816     177.1951     354.7079      1.909     4.69     1138.505     62.54792     115.6068         8     1.416     0.440  38.56   0
       202    134.9262    633.6184 307.8604755  +6.4052974     14952.52     32529.67     36086.38     88.38532     177.4069     354.7432      2.255     5.20     1141.947     62.54792     1801.657        68     2.098     1.456  51.71   0
       203    421.9518    634.5530 307.7411583  +6.4145292     1640.766     3653.323     4486.649      88.9501     177.3363     354.8491      2.378     6.25     1135.408     62.54792     194.4144        29     1.691     1.290  32.93   0
       204    802.7997    633.4595 307.5829106  +6.4276997     770.3824     1532.947     1614.918     88.10159     177.1244     354.4961      2.009     6.17     1124.734     62.54792     127.9133        10     1.240     0.863  39.69   0
       205    971.3149    622.9615 307.5132261  +6.4376470     5404.165      10591.3      11815.4     88.95009     177.4774     354.8491      2.140     5.16     1119.028     62.54792     617.0969        43     1.982     1.153  45.58   0
       206    564.8479    618.2934 307.6823214  +6.4260212     29816.33     65141.99     75228.41     88.80923     177.3363     354.9902      2.326     5.41     1129.779     62.54792      3115.94        91     2.186     1.552  49.20   0
       207     16.2749    621.8517 307.9101855  +6.4061722     683.1608       1090.5     479.4382      88.9501      177.548     354.8491      1.550     3.49     1142.987     62.54792     107.0311         5     1.005     0.349  45.66   0
       208   1023.6645    616.7859 307.4916765  +6.4419387     9275.932     12246.77     13120.47     76.70732     140.7314     266.9441      1.244     3.28     1117.077     62.54792     2467.648        26     1.577     0.629 -89.25  24
       209    172.4877    615.0878 307.8454965  +6.4142092      1778.82     4137.077     4794.721     88.66816     178.0409     354.9549      2.440     6.90     1141.176     62.54792     211.4202        35     1.973     1.307  52.17   0
       210     64.9762    609.2413 307.8903761  +6.4130150     901.4448     1499.755     1806.511     88.52686     177.2657      354.602      2.042     5.73     1141.745     62.54792     118.5181         9     1.026     0.900 -72.39   0
       211    462.1598    602.0606 307.7255509  +6.4292913     37489.52     84674.66      97999.9      88.9501     177.4774     354.9196      2.371     5.52     1133.073     62.54792     4246.142        98     2.234     1.590  49.69   0
       212      5.9439    604.0887 307.9150846  +6.4131597      1123.46     2361.956     2730.916      88.9501     177.3363     336.1146      2.202     6.77     1142.711     62.54792     165.8441        19     1.604     1.144  44.59  16
       213    136.9738    597.5801 307.8608520  +6.4202469     1097.459     2032.155     1775.438     88.38532     177.2657     354.7432      1.930     7.32     1140.512     62.54792      162.097        17     1.296     1.159 -72.09   0
       214    307.6066    591.4228 307.7901464  +6.4285104     1369.126     3042.725     3498.331     88.38533     177.2657     354.6726      2.401     6.96     1134.956     62.54792     191.0581        27     1.841     1.200  40.41   0
       215    734.1306    585.6521 307.6130697  +6.4451513     3441.348     6898.756     7928.687     88.80923     177.3363     354.7785      2.131     5.11     1123.868     62.54792     354.3728        40     1.805     1.330  47.13   0
       216    787.6321    580.8174 307.5909961  +6.4489319     9369.907     19104.47     21055.71     88.52686     177.2657     354.7079      2.153     5.24     1122.734     62.54792       924.16        52     1.973     1.301  48.71   0
       217    530.2343    580.6318 307.6979852  +6.4404160     806.4148     1846.372     2297.474     88.52686     177.1951     354.5667      2.484     6.36     1128.762     62.54792     124.8457         9     1.294     0.878  88.47   0
       218   1004.3384    581.1772 307.5009116  +6.4560001     634.2029     1140.032     921.1058     88.52686     177.4069     354.7432      1.663     2.09      1115.71     62.54792     136.0055         5     0.715     0.430  69.75   0
       219    611.5616    578.7784 307.6642461  +6.4438986     1791.166     4046.685     3488.512     88.52686     177.1951      354.602      2.277     7.04     1126.578     62.54792     188.0518        31     1.786     1.255  42.40   0
       220    928.6838    575.1418 307.5325611  +6.4559747     915.5097     1677.071     2007.824      88.9501     177.4774     354.9196      2.171     5.51     1116.963     62.54792     122.3585        10     1.239     0.739  65.61   0
       221    369.5471    572.3494 307.7650515  +6.4384606     636.4005     1247.562     960.9349     89.09073     177.3363     354.8843      1.913     3.67     1132.878     62.54792      87.3927         5     1.374     0.282  44.68   0
       222    223.7386    571.7574 307.8256716  +6.4338199     676.1273     1267.702     1647.622      88.9501     177.4774     354.9549      1.995     4.30     1137.879     62.54792     91.39905         7     1.202     0.439  31.01   0
       223    863.7982    564.0068 307.5599070  +6.4584120     2083.536      4173.61     4359.271     88.24357     177.1244     354.6373      2.098     4.89      1118.84     62.54792     295.9934        29     1.769     1.051  47.82   0
       224    822.1927    561.5895 307.5772820  +6.4580238       1744.7     3654.834     3790.219     88.38532     177.2657     354.7432      2.191     6.28     1120.569     62.54792     188.5398        26     1.715     1.062  48.22   0
       225    793.5485    557.9077 307.5893125  +6.4585894     1659.457     3933.005      5477.33     88.80923     177.3363     355.0607      3.074     6.97     1121.433     62.54792      190.345        30     1.809     1.321  60.65   0
       226    803.0751    552.7089 307.5855287  +6.4610537       104684     217976.3     245510.9      88.9501     177.6889     354.8843      2.226     5.30     1120.933     62.54792     10705.87       136     2.183     1.539  50.93   0
       227    250.6026    556.7071 307.8150187  +6.4409351     4598.374      10582.8     11710.18     88.38533     177.1244     354.5314      2.316     5.87     1135.488     62.54792     555.2416        51     2.079     1.426  49.17   0
       228    184.7631    551.1746 307.8425709  +6.4410119     34556.78     79006.87     93067.64     88.52686     177.2657      354.602      2.408     5.53     1137.283     62.54792     3986.679        97     2.226     1.639  51.74   0
       229    108.8019    547.5320 307.8742652  +6.4399670     3794.903     8869.431     10376.22     88.24357      176.983     354.6373      2.411     5.78     1137.561     62.54792     471.2292        52     2.122     1.467  46.58   0
       230    974.1968    544.4802 307.5146796  +6.4701509     857.8748     1714.851     1468.882     88.24357     176.9122     354.5667      2.019     5.97     1113.749     62.54792     117.6295        11     1.323     0.758  49.29   0
       231    839.6376    540.0191 307.5707608  +6.4675123     3135.868     6039.403     6671.929     88.52686     177.3363     354.5667      2.013     5.17     1118.354     62.54792     341.3661        31     1.729     1.115  43.70   0
       232    358.1843    538.2459 307.7709332  +6.4521623     9753.116     22770.58        26919     88.38532     177.2657     354.5667      2.423     5.72     1131.104     62.54792     1154.068        70     2.203     1.560  49.40   0
       233    160.0747    537.3940 307.8533010  +6.4458739     1114.519     2517.444     3723.873     88.52686     176.9122     354.6726      2.942     8.26     1136.782     62.54792       182.29        18     1.441     1.324  20.12   0
       234    793.6017    533.3744 307.5901206  +6.4687218     3878.529     8013.079     8905.979     88.52686     177.1244      354.602      2.188     5.52     1119.932     62.54792     432.9786        44     1.954     1.304  49.58   0
       235    525.4530    532.9291 307.7015911  +6.4599540     3290.686     5909.378      6611.69     88.80923     177.4069     354.7785      2.002     5.58     1125.496     62.54792     411.4639        27     1.847     0.972  66.99   3
       236    523.0000    532.9972 307.7026084  +6.4598439     2676.827     4788.843     5356.156     88.10159     176.9122     354.5314      1.879     6.21     1125.508     62.54792     333.9026        21     1.934     0.756  73.43   3
       237    171.5679    526.4753 307.8488960  +6.4507679     4075.645      8896.15     10457.65     88.80924      177.548     354.8138      2.362     5.43     1135.696     62.54792     466.9332        50     2.028     1.456  46.34   0
       238    568.6879    527.2921 307.6838121  +6.4637266     1137.328     2224.103     2640.836      88.9501     177.9705     354.9549      2.195     4.55     1124.595     62.54792     168.6632        12     1.321     0.715  47.00   3
       239    569.0008    524.2322 307.6837858  +6.4650006     1014.448     2156.688     3607.404     88.24357     177.2657     354.5667      3.176     7.60     1124.401     62.54792     136.4711        18     2.218     0.729  43.08   2
       240    382.3906    528.3127 307.7612099  +6.4570744     748.7127     1343.916     1472.327     88.52686     177.1244     354.6726      2.064     4.42      1129.72     62.54792     93.91333         7     0.999     0.556  29.20   0
       241    266.7741    522.8021 307.8094511  +6.4554771     48839.37     115149.2     136354.5     88.52686     177.1244     354.6373      2.474     5.80     1132.068     62.54792     5488.364       117     2.318     1.685  52.26   0
       242     43.1809    525.1498 307.9023008  +6.4470054     3274.033     7162.963     8170.333     88.38532      177.548     354.6726      2.306     6.10     1138.826     62.54792     415.5111        42     2.037     1.300  52.17   0
       243    810.1746    525.5251 307.5834977  +6.4725155     977.0085     2027.432     2131.528     88.52686     177.2657     354.8138      2.075     6.16     1118.867     62.54792     113.4453        13     1.334     0.800  68.29   0
       244    493.5034    513.5590 307.7155282  +6.4668842     24303.34     57094.67     69367.45      88.9501     177.3363     355.0254      2.527     5.84      1124.51     62.54792     2469.921        99     2.329     1.700  45.26   0
       245    251.2864    517.2663 307.8160766  +6.4572438      848.853     1937.654     2461.373      88.9501     177.6889     354.9196      2.516     6.46     1132.384     62.54792     122.3101         8     1.558     0.751  64.80   0
       246    966.1476    516.3679 307.5189752  +6.4814917     1171.694     2342.175     2078.944     88.80923     177.4774     354.7432      1.980     6.58     1112.356     62.54792     160.4561        14     1.457     0.834  64.00   0
       247    789.7991    515.1264 307.5923189  +6.4761303     10609.22     22159.27     24977.23     88.10159     176.8415     354.6726      2.210     5.25     1118.788     62.54792     1072.243        60     2.074     1.361  48.56   0
       248    653.3763    508.5058 307.6492483  +6.4743127      1906.04     4187.306     5071.202     89.09073     177.1951     354.7079      2.258     5.65     1121.545     62.54792     227.6715        30     1.701     1.227  36.16   0
       249    205.9385    509.6057 307.8351852  +6.4588866     1151.365     2608.692     3558.582     88.24357     177.2657      354.602      2.606     6.59     1133.583     62.54792     159.1666        18     1.491     1.068  37.06   0
       250     42.3506    510.1286 307.9031580  +6.4531800       802.83     1487.998     2401.013      88.9501     177.4774     354.8843      2.480     5.53     1138.119     62.54792     131.5935         8     1.169     0.738  31.53   0
       251    715.5729    507.5150 307.6234294  +6.4767977     843.7779     1690.927     1570.538     89.09073     177.1951     354.7079      2.270     6.35     1120.019     62.54792     106.3889        11     1.360     0.833  61.60   0
       252    664.5081    508.2076 307.6446315  +6.4748074     921.1062     1706.168     2136.082     88.52686     177.1244     354.6373      2.393     5.63     1121.181     62.54792      92.9939        11     1.073     0.831  45.14   0
       253    390.4247    506.0592 307.7586269  +6.4665324     653.0956     1005.083     1334.226     88.52686     177.4774     354.6726      2.315     3.41     1127.645     62.54792     119.9363         5     0.763     0.626  -8.49   3
       254    391.6951    503.6573 307.7581805  +6.4675667     819.2051     1788.676     1877.454     88.80924     177.4774     355.0254      1.931     5.06     1127.432     62.54792     145.5499         9     1.893     0.382  33.56   2
       255    322.9855    502.8330 307.7867670  +6.4656062     2113.958     4946.185     5719.034     88.52686     177.1951     354.7432      2.368     6.57     1128.676     62.54792     250.6237        34     1.869     1.295  55.55   0
       256    137.9267    501.2342 307.8637378  +6.4600616     15356.28     34656.88     40406.65     88.80923     177.4069     354.8491      2.391     5.62     1135.085     62.54792     1784.457        78     2.235     1.549  52.40   0
       257    502.7452    502.4312 307.7120646  +6.4717882     1181.901     2731.769      2906.75     88.80924      177.548     354.8138      2.294     6.61     1123.718     62.54792     150.1318        19     1.400     1.317 -89.08   0
       258    865.9025    501.1394 307.5611586  +6.4844423     947.1446     1752.576     1208.171     88.66816     177.4774     354.9549      1.918     4.55     1114.701     62.54792     124.9749        10     0.956     0.787 -58.93   0
       259    103.1115    499.3654 307.8782715  +6.4596647      1538.56      3521.29     3813.488     89.09073     177.4069     354.8491      2.355     7.52     1136.609     62.54792      163.063        27     1.770     1.244  61.80   0
       260    963.3588    495.5896 307.5208365  +6.4899791     3825.109     7162.157     8086.404     88.24357     177.2657     354.5667      2.012     5.09     1111.463     62.54792     448.5492        32     1.705     1.111  49.20   0
       261      2.7855    485.9054 307.9204281  +6.4618527     15371.82     30000.18     32417.99     88.66816     162.7593     292.2856      2.070     5.58     1137.075     62.54792     1990.347        50     1.983     1.236  68.85  24
       262    536.4947    487.6666 307.6985376  +6.4790132     797.2643     1702.858     2068.035      88.9501     177.6185     354.8491      2.366     6.17     1122.666     62.54792     111.6461         9     1.430     0.749  74.30   0
       263    434.8428    482.2762 307.7409726  +6.4778395     24440.73     56444.79     65637.73     88.80923     177.4774     354.8843      2.427     5.70      1124.37     62.54792     2611.337        88     2.214     1.628  51.08   0
       264    642.8180    481.9053 307.6545386  +6.4849443     7086.799     16014.03     18234.37     88.80923     177.2657     354.7079      2.338     5.69     1119.956     62.54792      701.376        59     2.102     1.479  45.09   0
       265    200.0405    479.9595 307.8386458  +6.4709302     11189.48     26436.41      31958.8     88.66816     177.4774     354.7079      2.484     5.84     1131.296     62.54792     1288.404        74     2.258     1.587  52.53   0
       266    165.4685    480.7634 307.8529878  +6.4694385      975.798       2455.6     2484.817     88.80924      177.548     354.9549      2.408     8.75      1132.43     62.54792     123.4489        20     1.667     1.321  47.66   0
       267    977.6885    481.6159 307.5153522  +6.4962262     643.6664     1086.428     725.6134     88.66816     177.1951     354.6726      1.622     3.56     1109.634     62.54792     122.3921         5     0.801     0.457 -76.19   2
       268    975.4068    479.6986 307.5163654  +6.4969420     760.4672     1191.949     1047.934     88.66816     177.0537      354.602      1.426     5.60     1109.727     62.54792     130.7235         6     1.339     0.660  59.42   3
       269    564.7114    478.7454 307.6871118  +6.4836401     1428.549     3546.052     4306.789      88.9501     177.3363     354.9902      2.553     8.20     1121.548     62.54792     152.1735        35     1.920     1.422  45.63   0
       270    938.3179    475.7071 307.5319174  +6.4973558      3306.25     6399.055     7403.266     88.66816     177.8298     354.9549      2.065     5.68     1112.135     62.54792     360.4705        32     1.802     1.129  53.44   0
       271    611.6114    474.2685 307.6677690  +6.4870556     3726.944     8371.525      10037.8     88.38533     177.2657     354.7079      2.393     5.92     1120.129     62.54792     426.0132        46     2.026     1.395  45.02   0
       272    961.0298    467.8354 307.5227425  +6.5013623     2431.762     4606.161      5119.02     88.52686     177.1951     354.6373      2.049     6.03     1109.859     62.54792     280.6838        29     1.737     1.111  53.67   0
       273    523.8521    465.5568 307.7045429  +6.4877204     4301.079     9965.453     11688.89      88.9501     177.4774     354.8843      2.392     6.15     1121.019     62.54792     409.4353        49     1.974     1.491  47.52   0
       274    880.2679    461.2677 307.5565359  +6.5013853     2146.086     4338.159     5545.558      88.9501     177.6185     354.8843      2.311     5.89     1112.285     62.54792     232.4492        29     1.836     1.074  49.46   0
       275    370.1391    465.6928 307.7684304  +6.4825214     1433.288     3429.421     3802.217     88.80923     177.4774     354.9196      2.543     7.48      1124.82     62.54792     176.3262        26     1.890     1.223  60.80   0
       276    887.4125    455.7042 307.5537541  +6.5039206     1386.337     2690.262     2914.303     88.66816     177.1951      354.602      2.047     7.62     1111.837     62.54792     140.2162        20     1.775     0.915  55.44   0
       277    927.2045    455.3015 307.5372268  +6.5054120     747.5861     1306.565     1406.512     88.66816     177.1244     354.4608      1.875     6.16     1110.821     62.54792     134.4395         7     1.650     0.646   4.28   0
       278    711.8369    451.6930 307.6268733  +6.4997237     1801.252     4002.843     4674.685     89.09073     177.3363     354.9196      2.391     5.75     1116.831     62.54792     209.2804        33     1.734     1.399  47.75   0
       279    382.5242    449.9964 307.7638160  +6.4894175     2114.344     5081.302     5765.436     88.38532     176.9122     354.7432      2.424     6.39     1123.358     62.54792     227.6318        37     1.813     1.485  45.19   0
       280     73.9181    450.9341 307.8920558  +6.4786824     1146.341     2685.427     3444.927     89.23114     177.7594     354.9196      2.582     8.32     1135.024     62.54792     127.2527        21     1.649     1.173  51.41   0
       281    610.3065    446.5020 307.6692530  +6.4984776     5900.014     13113.85     14967.29      88.9501     178.1112     354.7432      2.332     5.54     1118.366     62.54792     595.2511        53     2.003     1.455  48.94   0
       282    773.1479    442.8582 307.6016867  +6.5054170      10296.5     21994.26     26208.14      88.9501     177.4774     354.8491      2.346     5.48     1114.846     62.54792      1008.67        73     2.045     1.811  55.19   0
       283    292.8820    443.5118 307.8012969  +6.4890926     1379.942     3374.731      3609.16     88.66816     177.6889     354.9549      2.455     8.48     1124.976     62.54792      155.769        25     1.658     1.332  61.97   0
       284    376.3452    440.1555 307.7667188  +6.4932741     873.1738     2372.034     2724.705      88.9501     177.4774     354.8843      2.483     6.89     1122.852     62.54792     117.4618        12     1.456     0.914 -71.90   2
       285    802.1009    440.3718 307.5897356  +6.5074091     753.7402     1415.598     1446.266      88.9501     177.1951     354.8138      2.312     6.52     1114.044     62.54792      109.946         9     1.288     0.926  60.21   0
       286    958.1620    437.9615 307.5249442  +6.5136029     1395.437     2624.359     2471.528     88.66816     177.3363     354.7079      2.006     6.16     1107.718     62.54792     164.7579        17     1.555     0.796  52.30   0
       287    110.6003    435.2077 307.8773452  +6.4864077     2526.549     5862.216     7226.538     88.24357     177.1244     354.6373      2.503     6.21     1133.094     62.54792     278.2278        40     1.968     1.364  62.98   0
       288    748.2617    433.8281 307.6123373  +6.5083159     1463.668      2916.51     3855.249     88.52686     177.4774     354.8138      2.367     6.47     1114.893     62.54792     151.1223        22     1.510     1.093  50.94   0
       289   1012.1088    432.6935 307.5026968  +6.5175733     3203.903     6134.409     7276.241      88.9501     178.0409     354.8491      2.058     5.47     1104.836     62.54792     389.1578        33     1.898     1.035  44.17  16
       290    269.1013    432.7529 307.8115476  +6.4927382      764.586     1972.277     2520.847      88.9501     177.3363     355.0607      2.703     8.71     1125.557     62.54792     99.70581        14     1.767     1.198  63.47   0
       291    346.6067    429.7922 307.7794323  +6.4965576     1754.546     4290.039     4563.867     88.24357     177.2657     354.6726      2.480     7.21     1123.049     62.54792     220.1497        31     1.946     1.235  48.79   0
       292    701.4297    427.1695 307.6320303  +6.5095029     937.5716     2277.677     2377.625     88.38532     177.1951     354.5667      2.150     7.41     1115.899     62.54792     118.6786        13     1.495     1.027  68.20   0
       293    828.3776    417.5269 307.5795858  +6.5177184     989.0876     1918.413     2147.294     88.52686     177.2657     354.8138      2.014     7.69     1111.967     62.54792     138.7224        14     1.963     0.842  58.05   0
       294    466.2481    418.5631 307.7300826  +6.5051989      838.906      1602.33     2158.737     88.66816     177.4774     354.7432      2.345     6.47     1117.878     62.54792      113.801        12     1.261     0.931  17.06   0
       295    814.4892    416.6633 307.5853884  +6.5176121     1373.471     2629.001     3084.447     88.80924     177.6185     354.8843      2.036     6.33     1112.427     62.54792     141.3242        21     1.441     1.114  37.80   0
       296    711.4535    414.6412 307.6282880  +6.5150108     8838.251     19465.52     22745.88     88.80924      177.548     354.9196      2.345     5.48     1114.896     62.54792     886.4951        64     2.112     1.497  51.37   0
       297    632.2109    410.4506 307.6613702  +6.5140959     1426.899     3464.188     4246.515     88.24357     177.3363     354.5314      2.530     6.02      1115.77     62.54792     175.7159        25     1.685     1.261  27.90   0
       298    604.9473    405.8941 307.6728579  +6.5150668     8683.897     22329.35     29555.57     88.80923     177.3363     355.1312      2.787     7.22     1115.539     62.54792     916.9904        85     2.789     1.558  39.79   0
       299    936.7469    404.5187 307.5349768  +6.5266998     2758.217     5344.766     5867.338      88.9501     177.4774     354.9196      2.050     5.45     1106.249     62.54792     311.3187        27     1.649     1.081  53.82   0
       300    375.8902    400.7140 307.7682486  +6.5095452     15636.14     37942.27     44850.21     88.66816     177.9705     354.9902      2.483     5.97     1120.117     62.54792     1681.044        77     2.236     1.622  51.22   0
       301    121.2535    401.5117 307.8740654  +6.5006788     847.7079     1532.276     1602.247      88.9501     177.3363     354.9902      1.884     5.71     1131.229     62.54792     121.5145        11     1.485     0.896  28.90   3
       302    122.6874    399.3646 307.8735426  +6.5016135     1175.925      2484.09     2712.043      88.9501     177.3363     354.8491      2.160     6.98     1131.069     62.54792     160.8573        16     1.874     0.728  36.95   2
       303    891.9443    399.5021 307.5537710  +6.5272794     1020.232     2488.597     2897.046     88.80923     177.4774     355.0959      2.558     7.72       1108.2     62.54792     132.1382        19     1.738     0.958  64.70   0
       304     55.0810    395.9139 307.9017612  +6.5007681     909.0941      2315.16     2548.219     88.66816     177.7594     354.9902      2.477     8.23     1133.309     62.54792     135.9232        14     1.607     1.179  47.76   0
       305    905.4506    394.9112 307.5483116  +6.5296250     3347.881      6725.65     7584.803      88.9501     177.2657     354.9902      2.148     5.89     1107.265     62.54792      336.309        37     1.972     1.179  46.27   0
       306    233.5074    391.3236 307.8277526  +6.5086518     7766.867     18420.21     21886.37     88.66816     177.6889     354.8491      2.497     5.92     1124.875     62.54792     871.7877        63     2.217     1.524  51.55   0
       307    956.7764    383.1171 307.5273738  +6.5362040     709.4527      1302.02      1642.75     88.80923     177.1951     354.7785      2.217     5.13     1104.472     62.54792     125.3104         7     1.226     0.607  -5.56   0
       308    133.7648    379.9330 307.8696003  +6.5100089     2851.119     6537.348     7518.982     88.80923      177.548     354.9196      2.397     6.10      1130.12     62.54792     344.8265        42     2.039     1.344  45.82   0
       309    346.0595    379.9148 307.7813556  +6.5171346     681.8456     1313.299      1305.14      88.9501      177.548     354.9549      1.974     4.01     1120.165     62.54792     113.1837         6     1.028     0.447  38.53   0
       310    238.8562    378.8896 307.8259525  +6.5139654     808.4704     1710.702     2123.785     88.80923     177.4069     354.9902      2.481     7.25      1123.71     62.54792     95.87634        11     1.387     1.060  56.41   0
       311    156.0947    375.7706 307.8604603  +6.5124771      1480.72     3480.954     4355.215     89.09073     177.1951     354.7432      2.646     8.51     1129.229     62.54792      178.738        30     2.090     1.221  52.77   0
       312    379.2679    370.2527 307.7678800  +6.5222364     1105.183     2519.383     2269.766     88.80924     177.4069     354.7785      2.297     6.94     1117.765     62.54792     161.0892        16     1.534     1.014  55.43   0
       313    967.3871    369.3195 307.5234291  +6.5422547     715.4731     1517.815     1167.003     88.52686     177.1951     354.6726      2.078     6.85     1103.456     62.54792     105.0116         9     1.475     0.892  36.89   0
       314    433.0890    364.0898 307.7457166  +6.5265828     4022.139     9799.512     11983.39      88.9501     178.0409     354.9549      2.511     6.31     1114.217     62.54792     417.1382        53     2.174     1.470  51.91   0
       315     29.2699    364.8554 307.9135491  +6.5127253     1912.703     4437.042     5590.279      88.9501     177.3363     354.7785      2.548     7.09     1134.034     62.54792     223.1337        33     1.928     1.299  55.11   0
       316    765.6651    362.9059 307.6075046  +6.5381824     1345.931     2907.822     3608.531      88.9501     177.6185     354.8843      2.489     7.64     1109.635     62.54792     131.2533        21     1.593     1.033  53.27   0
       317    773.5730    361.2668 307.6042727  +6.5391230     8048.244     17061.96     19944.83     88.52686     177.3363     354.7432      2.277     5.44     1109.317     62.54792     847.9496        57     2.019     1.417  50.82   0
       318   1017.3687    356.4069 307.5030871  +6.5492499     2687.743     4818.765      5364.65     88.24357     177.2657     350.8754      1.921     4.94     1101.167     62.54792     322.7249        27     1.668     1.007  57.58  16
       319    481.1171    347.6887 307.7263087  +6.5349621     1604.929     3784.484     4366.589     88.66816     177.6889     354.8843      2.364     7.42     1111.109     62.54792     192.2043        29     1.806     1.209  47.48   0
       320    453.5577    349.9938 307.7376867  +6.5330883     927.2924     1812.845     2611.009     88.24357     177.1244     354.5314      2.246     6.58     1112.267     62.54792      124.323        11     1.612     0.753  34.40   3
       321    453.9076    347.2174 307.7376356  +6.5342464     1033.746     2271.546     2835.586     88.66816     177.1951     354.7079      2.175     6.79     1112.068     62.54792     159.2686        16     1.848     0.699  36.26   3
       322    838.9570    344.1239 307.5776719  +6.5483815     21219.54      45591.3     52205.64     88.80923     177.4774     354.8843      2.291     5.32     1106.789     62.54792     2092.207        80     2.164     1.488  55.01   0
       323    610.5889    336.3623 307.6728709  +6.5439669     1483.275     3464.072     3433.958     88.38533     177.2657     354.4961      2.530     6.97     1109.422     62.54792     182.3884        28     1.847     1.244  40.44   0
       324     19.2291    336.0321 307.9187059  +6.5242893     553.3607     1149.651     1399.269     88.38532     177.1951      354.602      2.405     3.75     1134.011     62.54792     90.09717         5     0.819     0.494  33.94   0
       325    695.4564    330.1937 307.6377995  +6.5493478     47413.03     105521.5     122548.9     88.38532     177.3363     354.5314      2.348     5.64     1108.226     62.54792     4737.299       110     2.233     1.618  48.75   0
       326    853.5386    331.1145 307.5720502  +6.5542395     841.9541     1649.799     2053.193     89.09073     177.6185     354.8843      2.179     5.02     1105.535     62.54792     107.2825         7     1.202     0.594  34.34   0
       327    557.9065    327.0446 307.6950877  +6.5460541     1478.731     3645.051     4230.208     88.80923     177.4069     354.9902      2.464     8.93     1108.363     62.54792     161.3329        32     1.831     1.469  67.74   0
       328     95.1754    325.9618 307.8874802  +6.5309987     3504.573     8549.952      10237.9     88.52686     177.2657     354.6373      2.463     6.41     1129.963     62.54792     368.3345        50     2.085     1.457  52.75   0
       329    541.2672    323.3009 307.7021319  +6.5470437      4122.43     9463.199     11070.24      88.9501     177.6185     354.8138      2.373     5.66     1107.963     62.54792     422.7786        52     2.048     1.468  49.66   0
       330    404.1082    318.3841 307.7593170  +6.5444857     14080.29      34150.3     40896.75     88.66816     177.2657     354.6726      2.524     5.91       1112.8     62.54792     1463.128        87     2.294     1.695  51.35   0
       331    270.0781    320.9589 307.8149457  +6.5389327     1438.804      3531.38     3671.185     88.80923     177.4774     354.8843      2.498     9.66     1119.955     62.54792     160.3738        30     2.080     1.252  39.99   0
       332    493.2040    308.8920 307.7226015  +6.5513864     4730.547     11419.39     13523.63     88.52686     177.1244      354.602      2.441     6.00     1107.723     62.54792      491.905        54     2.110     1.494  50.94   0
       333    762.3765    307.3806 307.6107522  +6.5610008     1891.574     4132.563      4893.04     88.66816     177.3363     354.7785      2.440     6.51     1106.068     62.54792     213.2856        33     1.942     1.210  46.25   0
       334    155.7731    298.1883 307.8632370  +6.5445010     533.0818     1050.521     1551.444     88.52686     177.2657     354.7785      1.750     3.50     1125.811     62.54792     89.41199         5     1.021     0.347  47.15   0
       335    239.2321    292.3078 307.8287435  +6.5497290     1152.022      2844.46     4136.467     89.09073     177.2657     354.8843      3.111     9.58     1120.038     62.54792     156.6514        19     2.186     1.172  68.62   2
       336    383.1003    292.9743 307.7689138  +6.5542746     4017.151     9788.457     11691.38      88.9501     177.1951     354.7432      2.537     6.08     1112.515     62.54792     436.7927        54     2.110     1.555  50.32   0
       337    750.9215    288.7191 307.6161464  +6.5683246     33160.86     71980.78     82237.99     89.23114     177.7594     355.0254      2.304     5.52     1105.101     62.54792     3097.598        92     2.176     1.551  52.54   0
       338    422.7729    288.1074 307.7525868  +6.5576123     1262.358     2930.125     3304.634     89.09073     177.1951     354.7079      2.448     6.95     1110.093     62.54792     162.5286        22     1.631     1.207  41.97   0
       339    985.5306    285.7925 307.5187092  +6.5773498     1323.125     2354.066     2593.831     88.38532     177.0537     354.7432      1.878     6.08      1096.94     62.54792     159.4591        20     1.587     0.917  58.98   0
       340    926.4062    284.8379 307.5433221  +6.5757759     1575.323     3284.678     3578.477     87.95937     177.1951     354.5667      2.135     6.94     1099.033     62.54792     168.3668        28     1.829     1.079  54.66   0
       341    460.0235    284.6837 307.7372174  +6.5602726     726.9347     1616.719     2821.716     88.80923     177.1951     354.7785      3.151     5.97     1107.575     62.54792     89.24097         7     1.421     0.705  25.01   0
       342    408.8296    283.4269 307.7585423  +6.5590783      1124.59     2613.618     2801.949     88.38532     177.2657     354.6726      2.238     7.73     1110.573     62.54792     127.6825        18     1.504     1.110  29.83   0
       343    830.1010    278.4763 307.5835754  +6.5751944     845.1846     1705.789      1603.05     88.52686     177.6185     354.8491      1.953     6.31     1102.779     62.54792     102.9464        12     1.494     0.750  63.85   0
       344    185.4754    274.7874 307.8516870  +6.5551602     1284.157     3378.799     3775.413     88.52686     177.1244     354.6373      2.543     7.96     1122.985     62.54792     177.1367        30     1.848     1.550  53.35   0
       345    749.4413    273.3038 307.6172840  +6.5746407     3651.473     8185.565     8486.981      88.9501     177.4069     355.0254      2.287     5.90      1104.17     62.54792     344.2942        42     1.923     1.342  47.51   0
       346    765.6941    271.3623 307.6105928  +6.5759845     1692.357     3534.789     4078.447     89.09073     177.3363     354.9902      2.200     7.15     1103.854     62.54792     164.6255        26     1.598     1.217  42.49   0
       347     81.5685    272.3289 307.8949650  +6.5526873     757.0314     1487.047     1921.354     88.80924     177.4774     354.8138      2.197     5.60     1129.242     62.54792     120.2903         7     1.305     0.677 -54.66   0
       348    355.8148    265.9897 307.7811743  +6.5645033     1143.767     2557.889     3075.791     88.66816     177.1951     354.7432      2.459     7.85     1112.456     62.54792     139.0948        18     1.600     1.077  13.21   0
       349     69.1958    266.1769 307.9003180  +6.5548119     787.6446     1646.751     2223.674     88.52686     177.1951     354.6726      2.434     6.26     1129.825     62.54792     87.11487        11     1.603     0.687  18.13   0
       350   1004.0046    262.2603 307.5118238  +6.5876818     4391.756     8265.376     9138.914     88.24357     177.3363      354.602      2.017     5.23     1093.833     62.54792     524.6407        35     1.853     1.056  46.91   0
       351    480.9852    262.9852 307.7292402  +6.5699337     898.1746     1278.847     1518.647     88.66816     177.1244     354.7785      1.731     6.49     1104.804     62.54792     127.3201        12     1.502     0.787  39.40   3
       352    483.0461    261.3806 307.7284379  +6.5706652     989.3942      1667.45     1644.975     88.52686     177.4069     354.6726      1.738     5.67     1104.603     62.54792     162.1085        11     1.552     0.583  34.08   3
       353    244.7302    257.9494 307.8276276  +6.5641004     3110.317      7869.41     9273.052     88.80923     177.4069     354.8843      2.482     6.26     1119.357     62.54792     343.1781        50     2.037     1.567  62.32   0
       354    378.5878    248.5214 307.7723010  +6.5724789     823.0655     2182.346      2247.63     88.52686     177.1244     354.6726      2.448     9.36     1110.239     62.54792     132.9104        16     1.758     1.391  41.10   0
       355    965.0720    247.0149 307.5285255  +6.5926815     773.6641     1268.925     1404.793     88.38532     177.3363     354.7079      1.869     4.61     1094.929     62.54792      105.948         8     1.028     0.656  14.02   0
       356    300.1427    243.9482 307.8050681  +6.5717394     665.0206      1142.22     750.1099      88.9501     177.4774     354.8491      1.710     4.90     1115.986     62.54792     94.92871         6     1.312     0.517  70.27   0
       357    148.4308    243.6260 307.8681484  +6.5667840     1075.499     2693.776     3010.157     88.38533     177.1951     354.6726      2.487     8.59      1124.39     62.54792     137.9418        18     1.747     1.180  54.64   0
       358    558.0250    239.8640 307.6979971  +6.5820571     1153.708     2887.209     3341.382     88.52686     177.4774     354.8138      2.416     9.13     1101.366     62.54792     136.3994        22     1.844     1.263  22.37   0
       359    901.5982    238.8873 307.5551900  +6.5939242     1233.641     2526.277     2807.515     88.10159     177.0537     354.5314      2.186     7.22     1098.077     62.54792     151.3824        19     1.579     0.934  71.47   0
       360    721.7661    237.6039 307.6299993  +6.5884588     3111.703     6867.155     7813.451     88.10159     177.3363      354.602      2.318     5.97     1101.889     62.54792      318.048        43     1.970     1.360  54.62   0
       361    662.4586    237.7150 307.6546525  +6.5864333     1247.375      2686.44     3044.558      88.9501     177.4774     354.9549      2.357     8.73     1101.142     62.54792      130.493        22     1.695     1.303  26.58   0
       362    918.2062    229.3553 307.5486075  +6.5984134     739.8977     1397.365     1379.736     88.38532     177.2657     354.4608      1.990     3.37     1097.046     62.54792     133.8409         5     0.981     0.390  60.63   2
       363    221.8091    222.4180 307.8383661  +6.5780032     1211.496     3036.807      3527.14     88.66816     177.1951     354.6373      2.771     8.33     1120.241     62.54792     170.7133        20     1.889     1.026  28.28   2
       364    863.9122    221.6945 307.5714400  +6.5997682     1153.654     2357.126     2080.414      88.9501     177.9705     354.9196      2.095     7.11     1098.541     62.54792     117.1414        18     1.408     1.005  68.48   0
       365    754.2481    220.9519 307.6170590  +6.5964187     897.1624     2213.879     2738.196      88.9501     177.3363     354.8491      2.389     7.36     1101.079     62.54792     104.4164        14     1.927     0.787  59.23   0
       366    455.2644    212.7243 307.7416406  +6.5898269     12661.85     30552.88     37006.07     89.09073     177.4774     354.8138      2.504     5.89     1103.384     62.54792     1268.474        80     2.252     1.654  51.89   0
       367    144.2542    205.5251 307.8711830  +6.5823761     1237.743     3223.317     4162.626     88.80924     177.4774     354.8843      2.817     7.85     1123.786     62.54792     160.9995        17     1.703     1.012  41.11   2
       368    781.2728    211.7548 307.6061348  +6.6011178     8296.778     18105.97     21449.98     88.80924      177.548     354.8843      2.351     5.56     1100.346     62.54792      770.958        65     2.054     1.556  45.84   0
       369    117.3720    203.7767 307.8824182  +6.5821955     560.3961     1379.654     1840.973     88.38532     177.3363     354.6726      2.253     4.10     1125.479     62.54792     89.33118         5     1.467     0.328  49.57   0
       370    917.3857    202.3724 307.5498612  +6.6095282     1021.187     1822.656     2103.655     88.52686     177.2657     354.7432      1.992     5.18     1094.959     62.54792     152.1382        11     1.509     0.502  46.80   0
       371    542.0495    198.5728 307.7060405  +6.5985731     1164.668         2540     2465.641     88.52686      177.548     354.7785      2.242     7.62     1100.292     62.54792     177.9564        23     1.886     1.185  82.32   0
       372    579.3359    198.5387 307.6905397  +6.5998335     2631.438     6374.726     7120.024      88.9501     177.4774     354.8843      2.469     6.31      1100.06     62.54792     247.7899        44     1.940     1.501  45.45   0
       373    383.7121    197.5324 307.7719043  +6.5937048     749.2221     1818.778      1714.18     89.09073     177.6889     354.8843      2.236     5.45     1107.251     62.54792     97.71716         8     1.542     0.542 -79.57   2
       374    940.1118    195.6905 307.5406384  +6.6130441     1828.662     3692.453     4271.487     88.80923     178.0409     354.9549      2.150     6.18     1093.465     62.54792     244.5934        28     1.822     1.111  47.37   0
       375    886.2946    194.9577 307.5630388  +6.6115544      7552.67     15174.64     16522.83      88.9501     177.4069     354.9902      2.126     5.33     1095.569     62.54792     759.1343        49     1.998     1.235  51.15   0
       376    972.9451    192.7081 307.5270879  +6.6153686     6994.208     13407.46     15014.23     88.80923     177.3363     354.9902      2.097     5.12     1091.822     62.54792     807.3076        47     2.022     1.181  46.44   0
       377    684.7001    193.1204 307.6469174  +6.6055902     1562.649     3816.805     3987.239     88.66816     177.7594     354.8843      2.337     7.65     1099.868     62.54792     170.2283        31     1.778     1.307  43.44   0
       378     12.5783    191.7585 307.9263930  +6.5836372     15166.95     34915.25     41168.82     88.52686     177.2657     354.6373      2.423     5.64     1132.867     62.54792     1803.636        78     2.212     1.610  50.95  16
       379    493.2442    187.5381 307.7267061  +6.6014975     961.0125     2412.861     2704.219      88.9501     177.4069     354.9549      2.485     8.00     1100.576     62.54792     108.4087        16     1.783     1.003  -0.03   0
       380    824.8989    184.6152 307.5889154  +6.6137791     1382.589     2760.104     3070.682      88.9501     177.1951     354.5314      2.249     6.06     1096.951     62.54792       161.64        20     1.578     1.018  55.11   0
       381    504.7862    183.5999 307.7220412  +6.6035097     1451.473     3364.844     3435.249     88.52686     177.1244     354.6373      2.313     8.06     1100.316     62.54792     146.4126        24     1.698     1.069  76.55   0
       382    876.7916    183.3536 307.5673825  +6.6160294     1400.817     3024.466     3521.088     88.38532     177.3363     354.4608      2.391     7.94     1094.959     62.54792     151.5651        24     1.879     1.047  46.09   0
       383    736.4965    180.9245 307.6257956  +6.6123548     24713.83     53661.22     61069.45     88.52686     177.6185     354.8843      2.288     5.48     1099.675     62.54792     2363.876        84     2.141     1.522  50.01   0
       384    339.7440    180.5433 307.7907616  +6.5992472     3901.103     10156.72     13350.78     89.09073      177.548     354.9196      2.841     6.52     1110.949     62.54792     394.1281        71     2.308     1.813  81.23   0
       385    970.3888    179.7294 307.5285895  +6.6206428     2125.122     4007.876     4898.945     88.38533     177.1244     354.6373      2.136     5.74     1091.547     62.54792     246.3137        26     1.798     0.948  47.87   0
       386    904.2856    178.0391 307.5561310  +6.6191398     5356.084     10407.12      11458.7      88.9501     177.4774     354.8491      2.089     5.06     1093.454     62.54792      558.728        44     1.973     1.163  50.60   0
       387    448.0645    177.3279 307.7458366  +6.6042019     2658.487     6454.757     7035.845      88.9501     177.4774     354.8843      2.404     6.57     1101.838     62.54792     290.2689        41     1.984     1.370  52.74   0
       388   1008.2894    178.1779 307.5128836  +6.6225448     1268.847     2301.406     2328.775      88.9501     177.2657     354.7079      2.078     5.94     1090.607     62.54792     151.5249        15     1.446     0.858  38.52   0
       389    105.4566    168.5403 307.8885730  +6.5963447     2949.024     6775.148     7562.722     89.09073     177.4774     354.8843      2.439     5.66     1125.325     62.54792     365.8657        45     1.999     1.435  47.09   0
       390    251.0095    166.3814 307.8281345  +6.6021207     3621.481     8942.225     10223.78     88.66816     177.1951     354.7079      2.534     6.18     1119.748     62.54792     381.1982        56     2.146     1.626  52.03   0
       391    275.7057    165.2950 307.8179041  +6.6033973     19038.77     45829.69     54000.54      88.9501     178.1814     354.7785      2.501     5.87     1119.436     62.54792     1945.716        87     2.210     1.703  50.15   0
       392    399.7461    160.7273 307.7664895  +6.6094392     27500.58     66609.84      78784.3     88.80924     177.3363     354.8138      2.492     5.95     1103.908     62.54792     2756.462        96     2.253     1.702  51.01   0
       393    155.6759    162.0422 307.8679165  +6.6007140     2226.211     5382.088     6212.046     88.80923     177.4774     354.8843      2.495     6.70     1122.534     62.54792     250.0049        39     2.008     1.355  46.92   0
       394    303.8264    158.5328 307.8064431  +6.6071321     10171.38     24562.24     29713.75     88.52686     177.3363     354.7432      2.512     5.87     1116.864     62.54792     1047.896        75     2.208     1.674  44.40   2
       395    311.2195    158.0709 307.8033852  +6.6075706     1251.591     3341.331     4684.148     88.52686     177.3363     354.7785      3.040     9.55     1115.656     62.54792      131.955        23     2.069     1.229  49.05   3
       396    738.9782    156.8311 307.6255801  +6.6223865     20374.44     44604.41     50574.42     88.38532     177.2657     354.6726      2.278     5.52     1098.558     62.54792     1984.747        76     2.149     1.484  49.21   0
       397    787.1064    158.0712 307.6055274  +6.6234798     763.4127     1374.209     2127.474     88.80923      177.548     354.8491      2.174     7.04     1096.247     62.54792     102.1903        10     1.446     0.961  51.57   0
       398     55.9494    154.4507 307.9096353  +6.6004994     5488.162     12447.39     13657.37      88.9501     177.3363     354.7785      2.360     5.65     1129.128     62.54792     642.1093        50     1.990     1.463  49.88   0
       399     89.9481    152.0105 307.8955841  +6.6026491     856.7332     1613.355     1457.893     88.24357     177.3363     354.5667      1.853     5.10     1125.793     62.54792     115.4246        11     1.156     0.907 -83.04   0
       400    997.1378    150.4605 307.5184570  +6.6336191     802.5079     1320.096     1105.866      88.9501     177.4774     354.8843      1.915     5.03     1090.168     62.54792     108.1798         7     0.946     0.756  50.17   0
       401    998.5406    137.4513 307.5183135  +6.6390377     1748.822     3042.546     3092.031      88.9501     177.4774     354.8491      1.901     5.87     1089.235     62.54792     230.7032        23     1.800     0.876  44.83   0
       402    274.5703    131.5222 307.8195258  +6.6173045     17282.86     41207.86     49090.45     88.80924      177.548     354.8491      2.493     5.86     1119.554     62.54792      1801.74        88     2.271     1.655  50.95   0
       403    589.3705    132.7697 307.6885995  +6.6273264     1066.061     2312.636     3120.413     88.38532     177.1951     354.5667      2.313     7.82     1097.987     62.54792     153.2721        18     1.620     1.055  53.18   0
       404    334.4855    133.3024 307.7945549  +6.6185775     674.8899     1325.874     1349.174      88.9501     177.9002     354.9196      2.061     5.81     1111.891     62.54792     84.46973         6     1.249     0.762 -52.94   0
       405     19.8120    130.2076 307.9254861  +6.6092950     2685.214     6008.033     6335.589     88.52686     177.2657     354.7432      2.249     5.81     1132.795     62.54792     308.7378        42     1.896     1.440  64.50   0
       406    706.1479    127.9939 307.6402076  +6.6331985     5053.976     11288.29     13449.67     88.38532     177.2657     354.4608      2.357     5.75     1096.891     62.54792     515.2378        49     2.046     1.351  50.89   0
       407    183.3828    128.8948 307.8575270  +6.6153307     650.5803     936.3415     1634.831     88.80923     177.2657     354.6726      1.410     4.10     1120.986     62.54792     94.14392         6     0.763     0.628  37.41   0
       408    117.0706    125.3473 307.8852172  +6.6145694     2887.625     6975.623     7705.637     88.80923     177.4069     354.7785      2.398     6.79     1123.139     62.54792     295.2572        45     2.031     1.447  65.99   0
       409    456.3607    123.4833 307.7442170  +6.6267130     885.4601     1698.134     1488.641      88.9501     177.4069     354.8138      2.093     6.98     1099.674     62.54792     115.7877        10     1.325     1.032   7.91   0
       410    387.6770    121.3605 307.7728459  +6.6252902     2306.275      5596.54     6456.669     88.80924     177.4774     354.8843      2.495     6.58     1104.887     62.54792     213.8441        41     1.873     1.490  47.01   0
       411    352.3487    120.2606 307.7875716  +6.6245611     1795.252     4506.916     5242.974      88.9501     177.4069     354.8491      2.480     7.72     1109.018     62.54792     230.9432        37     1.931     1.457  53.63   0
       412    106.6898    119.8631 307.8897200  +6.6164853     936.9938     2200.631     2609.381      88.9501     177.6185     354.9196      2.508     7.05     1123.305     62.54792     146.7786        13     1.725     0.900  16.41   0
       413    999.0175    114.2323 307.5188999  +6.6486414     1029.026     2121.844     1784.031     88.52686     177.2657     354.7079      2.048     7.30     1087.592     62.54792      125.843        18     1.784     0.836  46.68   0
       414    665.7183    107.7221 307.6577050  +6.6402195     3825.745     8379.297     9882.827     89.09073     177.7594     354.9902      2.320     5.74     1095.949     62.54792     402.8336        46     2.023     1.338  53.52   0
       415     86.8261    108.6333 307.8983613  +6.6204550     1097.491      2425.24     2935.383     88.38532     177.2657      354.602      2.487     7.91     1124.438     62.54792     128.4948        18     1.811     0.967  23.60   0
       416    617.8436    105.1694 307.6776974  +6.6396745     5534.402     12847.62     15814.34     88.52686     177.4774     354.7079      2.428     5.80      1096.16     62.54792      542.425        59     2.211     1.442  53.52   3
       417    621.4280     96.5652 307.6764990  +6.6433471     31612.55     72328.53     83549.35     88.38533     177.1951      354.602      2.364     5.69      1095.65     62.54792     2974.118        85     2.185     1.575  50.08   2
       418    811.5828    107.6103 307.5970593  +6.6451326     466.8557     872.1891     1293.407     88.66816     177.1244     354.7079      2.142     3.42     1093.349     62.54792     90.12842         5     1.048     0.323 -21.52   0
       419    344.8265    100.6955 307.7913647  +6.6323878     2118.795     5453.141     7132.174     89.09073     177.1951     354.7079      2.684     7.33     1110.382     62.54792     233.1125        45     2.007     1.624  62.08   0
       420    527.6113    100.5249 307.7153724  +6.6385764     1047.445     2140.024     2123.978     88.52686     177.1244     354.6373      2.064     5.17     1096.988     62.54792     147.7255        13     1.196     1.072 -75.67   0
       421    204.0546    109.2381 307.8496022  +6.6241408       3285.6     7831.631     8986.506      88.9501      177.548     354.8491      2.394     6.44      1120.17     62.54792     355.7035        47     2.014     1.478  52.33   0
       422    300.6441     90.6221 307.8100773  +6.6350667     2134.908     5098.516     6231.399     88.38533     177.3363     354.6373      2.516     7.09     1117.443     62.54792     229.3333        42     2.032     1.505  45.33   0
       423    700.2919     85.4396 307.6440851  +6.6505747     695.8735     1400.232     1331.808     89.09073     177.4069     354.9196      2.031     6.64     1094.221     62.54792     98.20776         8     1.268     0.976  81.25   0
       424    672.1912     83.2787 307.6558426  +6.6505288     915.5657     2187.337     1887.039     88.52686      176.983     354.6726      2.328     7.23     1094.712     62.54792     100.7966        13     1.396     1.049  38.33   2
       425    685.7175     80.4541 307.6503141  +6.6521468     1897.999      4055.59     4475.503      88.9501     177.4774     354.9549      2.216     6.65     1094.305     62.54792     191.3071        28     1.744     1.223  65.95   0
       426      1.6561     74.3748 307.9349399  +6.6317381       224858     292045.3     315861.9     81.76332     146.5705     272.6974      1.324     9.89     1132.256     62.54792     56603.13       169     2.146     1.272 -82.79  28
       427    427.5681     71.6458 307.7579502  +6.6471539     2605.477     5671.425     6143.464     88.66816     177.4774     354.7079      2.267     5.92     1100.742     62.54792     293.8049        42     1.979     1.371  50.25   0
       428    900.1033     66.9462 307.5616285  +6.6648740      2942.31     5726.681     6362.152     88.80923     177.4774     355.1312      2.168     5.52     1086.925     62.54792     320.1138        33     1.877     1.074  57.03   0
       429    881.7140     67.7319 307.5692484  +6.6639369     1508.551     2902.199     3432.824     89.09073     177.7594     354.8843      2.080     6.73     1087.506     62.54792     191.4331        23     1.645     1.008  49.97   0
       430    753.9136   1019.7035 307.5901571  +6.2665762     593.4393     1027.114     840.7792      88.9501     177.9002     328.6189      1.522     4.21     1145.684     62.54792     111.5415         5     1.159     0.436  56.62  16
       431    139.0760     60.5859 307.8782760  +6.6420487     1884.992      4523.93      5414.33     88.38532     177.1951     354.6373      2.524     7.43     1121.076     62.54792     219.6609        39     2.067     1.355  57.43   0
       432     20.8336     58.2362 307.9275175  +6.6390465     7700.781     17415.91      20940.2     88.66816     177.1951     354.5667      2.411     5.70     1128.391     62.54792     819.8796        63     2.122     1.539  51.26   0
       433    286.6908     58.4547 307.8169737  +6.6478812     726.5558     1952.443     2570.392     88.80924     177.3363     354.9902      2.623     6.65     1118.803     62.54792     104.8273        10     1.541     0.805 -18.03   0
       434    822.4957     52.7398 307.5943798  +6.6681539     4258.819     8552.091     9761.662     88.80924     177.4774     354.9549      2.151     5.68     1088.552     62.54792     454.7352        40     2.043     1.177  52.54   0
       435    767.5245     53.0788 307.6172261  +6.6661808     2175.498     4501.446      5146.48     89.23113     177.7594     354.9549      2.341     6.74     1090.344     62.54792     237.6246        35     2.023     1.192  55.62   0
       436    412.4314     54.0222 307.7648430  +6.6539241     681.2999      1428.96     1394.379     88.38532     177.2657     354.6373      1.936     4.67     1102.361     62.54792     95.10474         6     1.296     0.478 -83.80   0
       437    529.9872     52.0101 307.7160320  +6.6586885     740.8942      1402.38     1743.073     88.66816     177.1951     354.7785      2.050     5.89     1095.929     62.54792     95.16199         9     1.045     0.935  60.08   0
       438     61.3012     50.4144 307.9109593  +6.6436362     2042.414     4225.164     4147.733     88.80924     177.1951      354.602      2.142     5.67     1124.578     62.54792     218.8386        29     1.613     1.273  57.19   0
       439      3.9741     46.0165 307.9349441  +6.6435252     1585.749     3611.619     4582.082     88.52686     174.7047     310.8021      2.492     7.48     1128.113     62.54792     183.7743        27     1.671     1.277  68.92  24
       440    391.4531     63.9604 307.7732277  +6.6491181     1183.009     2851.795     2749.615     88.80923     177.4774     354.8138      2.245     8.35     1104.712     62.54792     131.5818        21     1.672     1.166  46.21   0
       441    762.5187     40.6683 307.6197280  +6.6711384     1249.949         2679     3022.661     89.09073     177.7594     354.8843      2.341     6.83     1089.537     62.54792     163.3289        17     1.490     0.877  39.02   0
       442    402.3928     40.5605 307.7694747  +6.6591465     582.7355     1192.403      1207.81     88.24357     177.1951     354.5314      1.700     3.43     1103.663     62.54792     77.14709         5     1.085     0.314  68.90   0
       443     89.0229     34.4566 307.8999777  +6.6511566      5912.62     13243.46        15102     88.52686     177.4774     354.6373      2.344     5.82     1122.177     62.54792     616.5038        58     2.142     1.497  52.68   0
       444    418.2350     34.3037 307.7631003  +6.6622605      1486.72     3122.725     3333.625     89.09073     177.3363     355.0254      2.136     6.77     1101.953     62.54792     151.2723        23     1.547     1.107  49.10   0
       445    960.8393   1017.2904 307.5042620  +6.2744645     688.8297     1182.857     1549.135      88.9501     177.4069     351.5883      1.884     3.93     1139.429     62.54792     125.9263         5     1.279     0.345  48.23  16
       446    256.7794     29.1571 307.8304079  +6.6589755     624.3651     1479.051     2150.603     88.38532     177.3363     354.6726      2.702     4.36     1118.774     62.54792     88.80994         5     0.767     0.706  44.41   0
       447    789.5211   1014.5567 307.5755366  +6.2698884     5834.391     9795.465     10164.13     88.80924     177.4774     354.8843      1.825     4.84     1145.436     62.54792     820.3455        34     1.769     0.958  45.48  16
       448    249.8578     22.9104 307.8334986  +6.6613227     1130.418     2810.876      4478.38     88.80923     177.4069     354.9902      4.159     8.65     1118.824     62.54792     150.3302        25     1.820     1.186  22.06   1
       449    887.6860   1011.5410 307.5348514  +6.2744039     1470.424     2368.235     2473.636      88.9501     177.4774     354.9902      1.877     6.66     1142.397     62.54792     175.9922        17     1.567     0.794  37.39   0
       450    747.6862   1010.6036 307.5930524  +6.2701262     704.2584     1304.241     1928.303     88.38533     177.0537     354.5314      2.352     3.94      1145.24     62.54792     149.8284         6     1.466     0.303  63.73   0
       451    210.1978   1009.7390 307.8163968  +6.2525149     1635.064     2773.125     3614.806     88.24357     177.2657     354.5314      2.108     5.09     1151.377     62.54792     226.3062        19     1.579     0.820  56.44   0
       452    428.1471   1007.1184 307.7259344  +6.2608945     3089.931     5943.226     6620.226      88.9501     177.4774     354.8843      2.160     4.93     1149.065     62.54792     408.8749        33     1.901     0.991  51.98   0
       453    713.3967   1006.9784 307.6074221  +6.2704797     6034.247     10617.14     11839.81     88.52686     177.1244      354.602      1.925     4.74      1144.89     62.54792     753.2048        36     1.748     1.033  50.45   0
       454    569.7879   1006.4609 307.6671076  +6.2659001     3183.522     6167.375     7753.823     88.24357     177.2657     354.4961      2.223     5.55     1148.624     62.54792     422.2917        34     1.819     1.201  52.74   1
       455    705.4149   1005.3203 307.6107946  +6.2708981     922.8455     1603.748     2186.418     88.52686     177.1951     354.6373      1.877     5.19     1144.771     62.54792     168.0745         9     1.574     0.484  51.55   0
       456    745.7687   1001.9661 307.5941413  +6.2736290     886.2513     1548.395     2230.377     88.38532     177.1951      354.602      2.241     6.36     1144.803     62.54792     123.9336        11     1.227     0.927  50.30   0
       457    952.9896    996.4232 307.5082282  +6.2828203     6230.431     10647.16     11432.99     88.52686     177.2657     354.6726      1.830     4.97     1139.099     62.54792     808.9935        35     1.804     0.961  45.32   0
