#   1 NUMBER                 Running object number                                     
#   2 X_IMAGE                Object position along x                                    [pixel]
#   3 Y_IMAGE                Object position along y                                    [pixel]
#   4 ALPHA_J2000            Right ascension of barycenter (J2000)                      [deg]
#   5 DELTA_J2000            Declination of barycenter (J2000)                          [deg]
#   6 FLUX_APER              Flux vector within fixed circular aperture(s)              [count]
#   9 FLUXERR_APER           RMS error vector for aperture flux(es)                     [count]
#  12 FLUX_RADIUS            Fraction-of-light radii                                    [pixel]
#  13 FWHM_IMAGE             FWHM assuming a gaussian core                              [pixel]
#  14 BACKGROUND             Background at centroid position                            [count]
#  15 THRESHOLD              Detection threshold above background                       [count]
#  16 FLUX_MAX               Peak flux above background                                 [count]
#  17 ISOAREA_IMAGE          Isophotal area above Analysis threshold                    [pixel**2]
#  18 A_IMAGE                Profile RMS along major axis                               [pixel]
#  19 B_IMAGE                Profile RMS along minor axis                               [pixel]
#  20 THETA_IMAGE            Position angle (CCW/x)                                     [deg]
#  21 FLAGS                  Extraction flags                                          
         1    704.8317     21.5082 307.6381198  +6.6880819     2228.281     3158.175     3666.357     85.47251     170.0665     340.4715      1.587     3.96     997.7167     60.00768     287.7495        17     1.240     0.919  83.21   0
         2    968.5864     19.3575 307.5285822  +6.6977675     2567.474     3765.312     4442.962     84.65976     170.0665     340.1668      1.635     3.82     989.9587     60.00768     390.0179        20     1.293     0.866 -73.22   0
         3    687.9923     15.8123 307.6453093  +6.6898714     8175.352     11441.04     11627.98     84.93153     170.0665     340.3361      1.458     3.07      997.687     60.00768     1185.634        27     1.185     1.055 -87.86   0
         4    608.2515     15.1683 307.6784687  +6.6874723      3926.24     5745.617     5235.324     85.20245     170.3373       340.37      1.561     3.13     1001.368     60.00768      570.309        22     1.172     1.065 -81.18   0
         5    310.4030     14.5875 307.8022613  +6.6777382     995.4106      1427.39     1783.052     84.93154     169.9309     340.3023      1.836     5.03      1023.62     60.00768     127.0533         9     0.906     0.873  33.75   0
         6    408.4845     11.4486 307.7616093  +6.6823221     6746.911     9739.796     9208.504     85.33759     170.2696     340.4715      1.613     3.30     1012.257     60.00768     798.2679        30     1.335     1.107 -77.00   0
         7    364.0266     13.6723 307.7800089  +6.6799140     807.2557     1216.321     942.3663     84.93153     170.1342     340.3361      1.640     5.17     1018.156     60.00768     114.4291         9     0.916     0.826  65.81   0
         8      9.4743     11.0042 307.9274295  +6.6691093     9173.669     13161.83      13968.5     84.93153     169.7273     340.3361      1.525     3.01     1034.593     60.00768      1330.79        36     1.334     1.105 -66.66   0
         9    655.1960     10.5191 307.6591165  +6.6909614     949.2697      1223.93     929.3464     84.79575     169.7952     340.1329      1.511     3.30     998.6833     60.00768     161.0422         7     0.978     0.521 -47.49   0
        10    483.8319      8.3021 307.7304041  +6.6861450     835.9904     1044.996     1327.278     85.33759     170.1342     340.1329      1.434     4.78     1003.715     60.00768     106.6224         9     0.927     0.699  68.80   0
        11    305.0400      6.3589 307.8047677  +6.6809561      13303.2     19832.14     20673.52      85.0671     170.3373     326.4418      1.606     3.32     1023.817     60.00768     1599.427        39     1.382     1.162 -73.31  16
        12    399.7767      7.3687 307.7653655  +6.6837151     730.3755     953.7117     755.1143     84.65976     169.9987     334.8407      1.323     4.73     1013.324     60.00768     100.7092         7     1.072     0.593  74.05  16
        13     78.7209      6.7196 307.8988005  +6.6732074     2762.807     4236.154     4638.702     85.60722     170.5401     330.0226      1.691     3.71     1031.436     60.00768     323.2592        23     1.250     1.101 -81.34  16
        14    371.1716      4.3474 307.7773544  +6.6840041     2416.501     3465.691     3035.594      85.0671     169.9309     303.2757      1.506     3.68      1017.19     60.00768     310.3392        22     1.332     0.986 -83.43  24
        15     69.9739      5.3372 307.9024819  +6.6734841     1742.875     2346.661     2800.027     84.93153     170.2019     315.6016      1.434     3.02     1031.644     60.00768     252.7596        16     1.037     0.931 -79.92  16
        16    773.4501      5.0206 307.6101582  +6.6971814     940.2243     1164.779     1340.577     84.79575     170.3373     311.8922      1.056     2.05     994.6294     60.00768     176.7822         6     0.723     0.495 -85.10  16
        17    186.9214      5.7986 307.8538703  +6.6772233     1676.005     1783.323     2217.485     84.52354     169.6594     320.7443      0.549     0.81     1028.536     60.00768       1021.4         5     0.459     0.364  36.84  16
        18    631.6832      1.3447 307.6691965  +6.6939639     4406.198     4906.397     5365.455     74.68003      135.612     256.3276      1.024     2.60     999.4974     60.00768     1207.717        13     1.069     0.560  -7.66  24
        19    966.3117      1.4670 307.5301276  +6.7050795     718.6907     832.5771     1080.691     76.05604     137.7199     258.6547      0.924     2.47     988.3234     60.00768     151.2188         5     0.688     0.458  22.67  24
        20    986.0430    995.7331 307.4886106  +6.2951500     6159.762      7672.68     7920.659     85.33759     170.2019     340.4715      1.279     2.43     1034.204     60.00768     1054.778        21     1.072     0.882 -86.45   0
        21    936.1470   1021.4521 307.5084686  +6.2828679     8675.346     10661.08     10491.56     85.60722     164.2764     292.0494      1.290     2.43     1038.946     60.00768     1552.405        25     1.103     0.939 -77.63  24
        22    690.5730   1022.0104 307.6104221  +6.2744495     1405.136     1885.075     2472.021     84.93153      158.493      283.724      1.316     2.58     1045.426     60.00768     275.9479        11     0.895     0.771  62.66  24
        23    508.4533    995.1812 307.6869462  +6.2794436     5081.657     6696.216     7241.157     84.79575     170.2696     340.2345      1.331     2.40     1053.744     60.00768     854.2251        25     1.213     1.030  89.85   2
        24    618.0358    994.4296 307.6414687  +6.2834167     1786.164     2120.984     2100.566     84.93153     169.9987     340.2345      1.262     2.68       1047.8     60.00768     337.2098        11     1.040     0.621 -75.37   0
        25     43.3302    993.6283 307.8801269  +6.2644948     1220.261     1602.375      2036.48      85.0671     170.2696       340.37      1.254     3.21     1060.011     60.00768     207.1692         9     0.995     0.573 -83.90   0
        26    773.6275    992.9852 307.5769087  +6.2892069     703.1522     702.6732     583.6094     84.93153     170.0665     340.3361      1.139     3.25     1042.738     60.00768     127.1689         7     0.746     0.669 -62.48   0
        27    461.6992    991.7249 307.7064764  +6.2793069     2662.289     3409.932     3501.834     84.79575     170.4049     340.3361      1.249     2.44     1054.212     60.00768     486.7841        17     1.183     0.734 -72.47   0
        28    896.0615    983.8298 307.5263747  +6.2970691     55805.84     70051.61     72054.99      85.0671     170.2696     340.4038      1.272     2.33     1038.727     60.00768      10670.9        55     1.236     0.997 -79.59   0
        29    497.6888    986.7818 307.6916986  +6.2825521     673.1127     732.8635     974.2128      85.0671     169.9987     340.3361      1.301     3.47     1053.679     60.00768     113.5178         5     0.794     0.438  76.97   0
        30    301.4128    984.8240 307.7732643  +6.2767896     586.4393      733.348       1114.7      85.0671     170.0665       340.37      0.998     1.99     1058.301     60.00768     143.4574         5     0.683     0.450 -67.01   0
        31    203.4743    982.1750 307.8140200  +6.2746000     1959.724     2648.713     2277.313     84.93154     170.0665       340.37      1.279     3.24     1058.928     60.00768      301.886        12     1.108     0.609 -81.55   0
        32     91.7454    980.9564 307.8604527  +6.2713535     648.7572     654.0386     11.82868     85.33759     170.2696     340.4377      1.100     3.07      1059.09     60.00768     121.0891         5     0.704     0.675 -73.93   0
        33    742.1615    975.5750 307.5905592  +6.2953469     8412.188     10566.78     11631.43     84.93153     170.0665     340.2345      1.307     2.67     1043.005     60.00768     1531.885        28     1.444     0.804 -76.68   0
        34    602.1505    979.8782 307.6485540  +6.2888950     997.4338      1273.91     1326.543     85.33759     170.3373     340.4038      1.394     3.61     1048.451     60.00768     179.0858         8     0.951     0.589 -67.19   0
        35    794.0023    977.5225 307.5689668  +6.2962719     3260.804     4064.312     3581.336     84.65975     169.7273     340.2345      1.281     2.47     1041.892     60.00768     585.6974        14     0.942     0.797 -77.65   0
        36    709.8219    976.5685 307.6039549  +6.2938573     569.4373     510.5963     134.4711     84.79575     170.0665     340.2345      1.159     3.66      1043.82     60.00768     81.82019         5     1.029     0.374 -85.18   0
        37    528.8383    974.9116 307.6791634  +6.2884955     1127.931      1301.79     786.8316     85.33759     170.2019     340.4715      1.208     3.39     1052.905     60.00768     218.4716        12     1.101     0.713 -83.60   0
        38    211.6956    974.5649 307.8108631  +6.2780182     1862.697       2261.6     2022.037     85.47251     170.1342     340.5392      1.262     2.85     1058.911     60.00768     288.3444        11     0.940     0.713 -71.79   0
        39    176.3496    973.8290 307.8255644  +6.2771364     959.3557     1426.081     1673.241     84.93153     170.4049     340.3361      1.495     3.03     1058.854     60.00768     160.2811         8     0.853     0.658 -30.73   0
        40     36.5898    972.7145 307.8836324  +6.2729043     3145.571     4134.485     4032.626     84.93154     169.9309     340.2684      1.331     2.78     1060.118     60.00768     512.6945        16     1.154     0.729 -71.14   0
        41    930.4340    970.5554 307.5125460  +6.3036958     8926.721     11106.47     11438.84     84.93154     170.2019     340.3361      1.233     2.42     1036.795     60.00768     1493.705        26     1.119     0.901  89.58   0
        42    186.4083    966.7016 307.8216283  +6.2804170     815.4247     961.9978      807.805      85.0671     169.8631     340.2007      1.319     4.40     1058.842     60.00768      131.432         9     1.064     0.750  74.95   0
        43    612.6028    964.9727 307.6447147  +6.2953994     882.3318     1033.254      920.008     84.79575     169.9987     340.2345      1.186     2.99     1047.386     60.00768     137.0396         8     0.783     0.696  -8.74   0
        44    904.2350    962.3477 307.5237004  +6.3062126     2727.173     3345.039     3161.685     85.20245     170.2696       340.37      1.204     2.54     1037.451     60.00768     506.3265        14     0.980     0.775 -74.59   0
        45    624.9116    958.2128 307.6398306  +6.2986021     5751.875     7406.315     7622.495      85.0671     169.9987     340.3023      1.270     2.28      1046.63     60.00768     1143.442        22     1.098     0.857 -86.29   0
        46    237.1186    958.2876 307.8008559  +6.2855923     5293.519     6939.177     7438.663      85.0671     170.4725     340.5392      1.325     2.64     1058.807     60.00768     915.8654        22     1.203     0.860 -72.11   0
        47    763.7703    958.6875 307.5821528  +6.3030415     1525.777     1622.602     1080.059     85.47251     169.9987     340.3361      1.145     2.55     1042.088     60.00768     279.5294         9     0.886     0.605 -75.41   0
        48    974.4403    957.9849 307.4946928  +6.3103522     921.2114     1144.107     1750.175     84.79575     170.0665     340.2007      1.158     3.68      1033.47     60.00768     160.9186         6     0.790     0.493 -84.64   0
        49    447.3040    956.3794 307.7136435  +6.2934210     1288.666     1459.552     1707.764     85.20245     170.0665     340.2345      1.165     3.18     1053.953     60.00768     229.4965         8     0.914     0.564 -80.20   0
        50      5.9920    955.8007 307.8969088  +6.2788604     2663.847     3359.669      3576.57     84.65976     169.9309     322.6784      1.299     2.99     1060.721     60.00768     483.7511        15     1.054     0.828 -74.84  16
        51    856.8104    954.8011 307.5436471  +6.3077487     1142.454     1390.316     1365.194     84.93153     169.9309     340.2345      1.238     3.30     1039.141     60.00768     214.9004         8     0.897     0.652 -67.62   0
        52    948.4395    952.3175 307.5056799  +6.3118269     832.7148     1134.776     737.5764     85.33759     170.3373       340.37      1.426     2.63     1034.749     60.00768     169.6841         7     0.899     0.496 -88.26   0
        53    928.1559    951.6380 307.5141258  +6.3114320     914.4009     958.9742     799.8447      85.0671     170.2696     340.3023      1.124     2.18     1035.909     60.00768      213.407         7     0.777     0.578 -82.42   0
        54    273.0316    951.7776 307.7861633  +6.2894845     1085.449      1252.35     1390.532     84.79575     170.0665     340.2345      1.409     3.04     1058.681     60.00768     201.8955        10     1.003     0.702  85.65   0
        55    133.5645    951.8116 307.8440730  +6.2847923     6380.109     6442.407     6857.288     84.79575     170.0665     340.2007      0.707     0.96     1058.838     60.00768     2944.595         7     0.554     0.419   9.01   0
        56    981.1166    949.8868 307.4921915  +6.3139186     1117.491     2087.724     2573.509      85.0671     170.4725     340.4715      2.063     6.20     1032.732     60.00768     186.2592        15     1.537     0.702 -68.53   0
        57    549.6116    950.7197 307.6713510  +6.2991800     2214.602     2710.605     2940.919     84.93154     169.9309     340.2684      1.223     2.71     1051.264     60.00768     349.5065        13     0.967     0.770 -87.43   0
        58    588.7603    947.0323 307.6552184  +6.3020113     1538.148     1946.082     2299.909     84.93153     170.0665     340.2684      1.186     2.58     1048.514     60.00768     283.8778         9     0.898     0.591 -66.53   0
        59     38.7828    947.5276 307.8835731  +6.2833784     800.6823     1272.442     1818.014     84.79575     170.2019     340.3361      1.449     2.74     1060.075     60.00768     164.3977         7     0.823     0.581  83.19   0
        60     33.7759    946.7657 307.8856779  +6.2835248     599.7856     787.9156     1109.449     84.79575     170.0665     340.2007      1.606     2.82     1060.174     60.00768     95.29626         5     0.809     0.642  38.96   0
        61    268.8419    944.8902 307.7881353  +6.2921882      1830.38     2226.015      2397.99     85.33759     170.2696     340.4715      1.334     3.58     1058.673     60.00768     311.3707        13     1.138     0.691 -85.74   0
        62    536.5979    943.1905 307.6770082  +6.3018541     636.2555     733.7092     165.5795     84.65976     169.9309     340.2007      1.129     2.36     1051.544     60.00768     143.3186         5     0.713     0.442 -67.70   0
        63    735.8506    940.6701 307.5943515  +6.3095503     1162.488     1425.476     1249.475     85.20245     170.2019     340.4715      1.162     2.80     1042.473     60.00768     213.1622         9     0.877     0.731 -43.27   0
        64    873.1071    937.4400 307.5374617  +6.3154612     9130.227      11345.7     11082.45      85.4725     170.2019     340.5392      1.240     2.41     1037.877     60.00768     1676.203        22     1.134     0.784 -80.84   0
        65    111.1836    938.8215 307.8538048  +6.2894051     623.2325     781.3234     454.9653     84.93153     169.9987       340.37      1.230     3.78      1058.87     60.00768     111.2948         6     0.777     0.541 -35.07   0
        66    408.9968    934.4562 307.7302886  +6.3011919     2643.206     3307.571     3079.375     84.65975     170.0665      340.099      1.282     2.47      1054.23     60.00768     442.8547        14     1.015     0.817  73.62   0
        67    310.7084    933.0145 307.7711510  +6.2984954     11354.14      14914.1     15772.37      85.0671     170.0665     340.2345      1.349     2.67     1057.979     60.00768     1940.804        28     1.171     0.958 -85.44   0
        68    230.7820    932.0261 307.8043730  +6.2962242     8414.861     11158.42     11714.48     84.93153     170.0665     340.3361      1.361     2.66     1058.702     60.00768     1509.835        28     1.198     0.946 -78.76   0
        69    743.3202    925.9792 307.5917428  +6.3158662      829.618     1072.312     940.5291     84.93153     169.9309     340.4377      1.384     3.84     1041.958     60.00768     163.2388         6     0.948     0.448 -81.00   0
        70    558.7971    926.6078 307.6683475  +6.3094440     1591.624     1898.094     1904.267     84.65976     169.9309     340.2684      1.125     2.46     1049.784     60.00768     301.9982        10     0.904     0.658 -82.95   0
        71    888.9207    922.7266 307.5313879  +6.3220642     1324.631     1597.453     1240.568     85.60722     170.5401     340.4715      1.217     2.86     1036.459     60.00768     273.5959        10     1.016     0.616 -71.80   0
        72    121.3626    922.6163 307.8501255  +6.2964385     764.6001     879.3975     855.5829     84.93154     170.0665     340.1668      1.314     4.34     1058.926     60.00768     110.7832         6     1.014     0.530 -35.40   0
        73    844.9440    921.3309 307.5496972  +6.3211749     973.8286     1314.979     1303.054     85.47251     170.1342     340.4038      1.529     5.64     1038.333     60.00768     153.9253        10     1.223     0.839  -3.24   0
        74    956.2107    918.4013 307.5035888  +6.3260916     1039.739     1224.649     1726.568     84.93154     169.9309     340.2345      1.268     4.09     1032.803     60.00768     171.8204         9     1.211     0.601 -64.74   0
        75    549.2336    916.1504 307.6726706  +6.3134427     986.6316     1085.082      1007.09     85.20245     170.2696       340.37      1.264     3.99     1050.183     60.00768     163.5107        11     1.095     0.762  59.19   0
        76    818.4325    916.2764 307.5608763  +6.3223784     674.2496     691.8711     599.7267     85.20245     170.2696       340.37      1.216     2.66     1039.184     60.00768     130.4694         5     0.691     0.489  80.73   0
        77    725.0461    915.4560 307.5996847  +6.3196020     2179.861     2812.213     3190.214     85.33759     170.2696     340.5054      1.317     2.38     1042.138     60.00768     421.8455        14     1.250     0.722 -81.90   0
        78    577.6237    915.8510 307.6608913  +6.3145154     513.4009      752.295     1049.257     84.93153     170.2696     340.3361      1.298     4.36     1048.389     60.00768     89.29077         5     1.144     0.474  84.37   0
        79    956.5722    911.2982 307.5036766  +6.3290369     1728.464     2070.135     2813.221     85.47251     169.9987     340.4038      1.145     2.26     1032.483     60.00768     276.6011        10     0.807     0.711  84.36   0
        80    600.9926    911.8029 307.6513231  +6.3169680     646.8982     573.3882     164.0267     84.65976     169.9309     340.2684      1.155     3.04      1046.87     60.00768     131.6971         7     0.807     0.684 -60.03   0
        81    589.4127    912.2494 307.6561168  +6.3163966      886.517     1016.847     1377.232     84.65976     170.2019     340.1668      1.250     3.12     1047.617     60.00768     151.3495         8     0.793     0.759 -17.93   0
        82    510.2914    911.4114 307.6890012  +6.3140975     1337.257     1574.705     1850.286      85.0671     169.9309     340.2345      1.083     2.46     1051.639     60.00768     233.7163         8     0.868     0.577 -69.62   0
        83    643.8085    908.8790 307.6336412  +6.3196057     3006.674     3833.168     4773.192     84.93153     169.7273     340.2684      1.282     2.42     1044.547     60.00768     585.0602        13     1.035     0.677 -82.75   0
        84    995.0901    908.1236 307.4877870  +6.3316302     651.9485     736.9384     542.1168     85.33759     170.5401     340.4715      0.969     2.26       1030.5     60.00768     159.1182         6     0.722     0.551  45.85   0
        85     40.4317    905.0995 307.8843226  +6.3009537      3369.75     4494.563     4517.185     85.33759     170.1342     340.6069      1.345     2.62     1060.218     60.00768     506.8707        21     1.291     0.828 -87.70   0
        86    804.5038    905.4576 307.5670235  +6.3263816     915.7698     1155.867     1291.541     85.20245     170.2696     340.6069      1.245     3.62     1039.431     60.00768     191.2198         6     0.934     0.408 -69.87   0
        87    921.8414    904.5124 307.5183270  +6.3306825     1067.039     1457.002     1711.521     85.33759     170.2696     340.4715      1.631     2.74     1033.957     60.00768     198.4209         9     0.903     0.613 -73.49   0
        88    541.0115    905.2429 307.6764518  +6.3176721     628.2185     1046.283     615.3793     84.79575     170.0665     340.1329      1.402     3.53     1050.367     60.00768     122.7264         5     0.806     0.495 -64.48   0
        89    184.0103    903.9849 307.8247408  +6.3062346     2638.728     3369.744      3504.12      85.0671     169.9987     340.3361      1.330     2.62     1059.097     60.00768     484.5103        15     1.079     0.777 -78.52   0
        90     57.9964    904.2740 307.8770570  +6.3018847     2229.627     2910.409     2828.392     84.79575     169.7273     340.3361      1.274     2.34     1059.937     60.00768     441.6365        13     1.028     0.693  87.93   0
        91    940.4816    901.8423 307.5106755  +6.3324060     639.5852      863.362     1738.653     85.33759     170.2696     340.4038      1.446     3.79     1032.954     60.00768     139.1288         6     0.809     0.697  65.59   0
        92    322.9575    900.0549 307.7671756  +6.3125162     1086.715     1410.849     1474.036     85.20245     170.2696     340.4377      1.372     3.83     1057.681     60.00768     170.7249        10     1.098     0.621 -71.39   0
        93    217.9743    900.8375 307.8107436  +6.3086736     970.4378     1208.539     1642.586     84.93153     170.0665     340.2345      1.328     3.74     1058.983     60.00768     152.8221         9     0.927     0.757 -89.42   0
        94    638.3700    898.0004 307.6362652  +6.3239164      8558.05     10953.22     11446.13     84.65975     170.0665     340.2345      1.286     2.50     1044.613     60.00768     1480.591        27     1.150     0.951 -70.97   0
        95    775.8630    898.8763 307.5791382  +6.3281442     968.5754     1118.601     584.5248     85.60722     170.2696     340.4038      1.323     2.88     1040.272     60.00768     185.0718         7     0.831     0.654 -64.99   0
        96     11.5204    894.8193 307.8966750  +6.3042272     1363.112     1902.212     1558.702     84.93154     169.9309       340.37      1.379     3.06     1060.691     60.00768      217.879        10     0.984     0.661 -75.14   0
        97    876.0764    894.3214 307.5376741  +6.3333663      3471.17     3966.773     4669.623     85.60722     170.5401     340.5392      1.179     2.46     1035.655     60.00768     666.9357        14     1.021     0.735 -82.20   0
        98    751.1507    895.0326 307.5895297  +6.3289070     671.7903     663.7952     -68.7417      85.0671     170.2696       340.37      1.158     3.03     1040.975     60.00768     131.1616         6     0.800     0.627 -83.35   0
        99    428.1724    895.2559 307.7236459  +6.3180214     572.5921     884.2307     960.1514     84.93153     170.3373     340.2345      1.258     3.34     1053.456     60.00768     101.0741         5     0.927     0.349 -46.20   0
       100    907.4578    892.5954 307.5246997  +6.3351246     640.7044     468.8397    -25.53122     84.65976     170.1342     340.1329      1.062     3.70     1034.133     60.00768     111.2693         6     0.968     0.406 -70.80   0
       101    321.4376    891.2529 307.7681035  +6.3161000     19553.87     25628.71     26359.62     85.20245     170.3373     340.4377      1.340     2.66     1057.747     60.00768     2879.918        36     1.226     1.011 -80.38   0
       102     56.2011    892.1473 307.8782123  +6.3068319     1769.148     2267.193     1972.532     84.65975     169.8631     339.9635      1.309     2.78     1060.085     60.00768     297.3644        11     0.905     0.773  84.96   0
       103    192.5292    890.5781 307.8216559  +6.3120566     1595.022     2035.157     2184.446     84.93154     170.1342     340.4377      1.417     2.96     1059.247     60.00768     220.5282        14     1.004     0.884  78.79   0
       104    372.2203    889.8250 307.7470636  +6.3183908     738.6172     1194.143     1807.411     84.93153     170.0665       340.37      1.675     2.41     1055.953     60.00768     123.4888         6     0.693     0.579 -46.34   0
       105    650.9675    883.3787 307.6315251  +6.3303752     652.9668     1045.362     1737.467     84.79575     170.0665     340.2345      1.880     4.68     1043.681     60.00768     114.7281         7     0.910     0.682 -62.76   0
       106    399.2416    882.3364 307.7360950  +6.3223879     1249.808     1727.871     1294.537     85.33759     170.2019     340.5392      1.371     3.51     1054.614     60.00768     204.4396        10     0.955     0.778  84.14   0
       107     84.8147    881.8206 307.8666797  +6.3120573     2088.374     2466.607     2739.381      85.0671     169.9987     340.3361      1.316     2.88     1059.831     60.00768     314.1396        13     1.021     0.756 -73.96   0
       108    479.8563    878.6873 307.7027411  +6.3265929     969.2472     1335.335     1716.973     85.33759     170.1342      340.573      1.536     4.84     1051.582     60.00768     172.6296        11     1.280     0.608 -58.33   0
       109    652.8149    878.2272 307.6309310  +6.3325643     1097.773       1627.6     1920.727     84.93153     170.0665     340.3361      1.448     2.86     1043.489     60.00768     213.6339         9     0.852     0.734 -75.54   0
       110    866.4578    876.1270 307.5422786  +6.3405592     2529.375     3106.519     3046.818     85.47251     170.2696     340.4038      1.249     2.40     1035.191     60.00768     428.2094        14     1.089     0.689 -88.02   0
       111     68.2494    875.5470 307.8737704  +6.3140914     2949.404     3975.539         3795     85.47251     170.1342     340.4715      1.336     2.57     1060.108     60.00768     499.8069        15     1.018     0.795  83.37   0
       112    837.2586    875.5576 307.5544238  +6.3398211     2775.202     3153.985     3108.326     85.20245     170.2696     340.4715      1.196     2.32     1036.866     60.00768     508.8898        14     0.918     0.805 -86.79   0
       113    800.5236    874.9277 307.5697006  +6.3388563      3977.07     4889.315     4593.986     85.60722     170.5401     340.4377      1.220     2.50     1038.941     60.00768     700.1715        18     1.050     0.815 -82.09   0
       114    316.1655    873.3663 307.7708958  +6.3233094     878.2788      1112.97      1668.88      85.0671     169.9987     340.1668      1.544     3.34     1057.901     60.00768     150.1532         8     1.006     0.559 -59.49   0
       115    536.4896    866.4612 307.6796341  +6.3335357     407813.6     519554.5     537668.5     85.33759     170.4049     340.5054      1.331     2.70     1049.717     60.00768     61879.05       146     1.405     1.169 -73.70   4
       116    380.8147    869.1366 307.7441917  +6.3272217     9043.611     11912.62     12521.93     84.79575     170.1342     340.3023      1.356     2.62     1055.527     60.00768         1567        30     1.188     1.013 -81.31   0
       117    624.1395    869.3258 307.6431385  +6.3352822     1336.144     1719.634     1716.254     85.60722     170.2696     340.4377      1.336     3.26     1044.633     60.00768     242.2493        10     0.921     0.781  76.11   0
       118    323.9492    867.4816 307.7678618  +6.3260003     15037.27     20088.02     20980.23     85.33759     170.3373     340.4715      1.403     2.66     1057.702     60.00768     2499.604        40     1.314     1.030 -76.83   0
       119    642.3503    863.6423 307.6357668  +6.3382376     4286.609     5733.725     5965.304     85.47251     170.2696     340.4377      1.306     2.39     1043.689     60.00768     725.0876        20     1.210     0.798 -70.47   0
       120    874.7677    862.6273 307.5392802  +6.3464109     6530.735     8199.601     9742.554     84.79575     169.9987     340.2345      1.240     2.35     1034.176     60.00768     1226.552        23     1.108     0.838 -74.31   0
       121    714.1886    860.4825 307.6060394  +6.3419411     955.5454     1158.351     1277.973     84.93154     169.9987     340.2684      1.126     3.06     1041.145     60.00768     190.3452         7     0.871     0.541 -83.05   0
       122   1008.1890    856.8124 307.4840652  +6.3532555     6004.975     7590.921     8147.154      85.0671     169.9987     340.4038      1.259     2.36     1028.204     60.00768     1112.936        19     1.072     0.836 -88.91   0
       123    617.2803    857.8086 307.6463741  +6.3398091     4177.464     5490.743     6144.167     84.93153     169.8631     340.2684      1.346     2.63     1044.548     60.00768     733.9818        18     1.108     0.828 -70.81   0
       124    805.7258    857.0107 307.5681413  +6.3464287     1998.842     2523.793     2716.714     84.93153     169.8631     340.3023      1.194     2.94     1037.861     60.00768     359.9209        11     1.016     0.686 -84.15   0
       125    932.5007    856.3020 307.5155158  +6.3509464     883.5058     1180.269       1387.8     85.33759     170.6752     340.2684      1.343     3.26     1031.553     60.00768     165.8262         8     1.027     0.499 -87.56   0
       126    609.9832    852.2656 307.6495908  +6.3418543     2556.266     3574.969     5855.522     84.79575     170.1342     340.3023      1.849     3.65     1044.588     60.00768       450.27        15     1.156     0.857 -62.55   2
       127    430.7162    872.7781 307.7233464  +6.3273886     647.1465     670.9119     1547.635      85.0671     169.9309     340.3361      1.260     5.24     1053.182     60.00768     116.1466         7     1.165     0.665  47.64   0
       128    304.0007    851.0455 307.7766999  +6.3321189     1363.348     1674.283     1658.698     84.65976     169.9987     339.9974      1.277     3.17     1058.066     60.00768     234.5795        10     1.019     0.743  86.76   0
       129    931.9840    848.6441 307.5159869  +6.3540916     8575.112     8574.078     9021.066     84.79575     170.1342     340.2007      0.569     0.95     1031.484     60.00768     4955.253         7     0.494     0.292 -87.69   0
       130    351.8809    846.3442 307.7569751  +6.3356646      3164.09     4170.483      3983.49     85.33759     170.2696     340.4715      1.350     2.85     1056.498     60.00768      529.571        15     1.049     0.823 -78.13   0
       131    832.2763    841.9242 307.5576210  +6.3535441     662.6306     843.8882     1142.544     85.60722     170.5401     340.5392      1.155     3.42     1035.627     60.00768     199.4891         5     0.839     0.404  74.89   0
       132    893.5732    850.3480 307.5318819  +6.3521084     4196.709     5147.736     4944.841     84.93154     170.4049       340.37      1.193     2.37     1033.085     60.00768     720.4219        17     1.010     0.799 -82.62   0
       133    488.0168    836.2066 307.7007819  +6.3444081     3689.213     4823.776     4742.465     84.93153     169.9987     340.2684      1.381     2.93      1050.55     60.00768     593.8533        20     1.127     0.879 -63.50   0
       134    832.6397    835.0573 307.5577004  +6.3563919     1187.547     1449.154     1880.045     85.33759     170.3373     340.4715      1.211     3.16     1035.243     60.00768     225.2336         8     0.980     0.542 -74.03   0
       135    534.8733    832.2584 307.6814559  +6.3476057     7255.237     9392.118     9757.939     85.47251     170.2696     340.4038      1.340     2.50     1048.206     60.00768     1334.312        28     1.257     0.928 -78.93   0
       136    553.0773    833.6608 307.6738488  +6.3476352     888.7921     1474.653     1306.078     85.47251     170.3373     340.4038      1.826     4.72     1047.322     60.00768     120.0732         9     0.950     0.825  70.13   0
       137    541.7475    831.8849 307.6786137  +6.3479897     1389.728     1854.398     1759.113     85.33759     170.2019      340.573      1.367     3.33     1047.863     60.00768     255.6287        13     1.181     0.741 -60.09   0
       138    246.8291    832.6677 307.8010614  +6.3377913     905.4951     1421.895     1439.403      85.0671     170.2696     340.4038      1.579     4.40     1058.976     60.00768     130.6764         9     0.962     0.830 -53.22   0
       139    452.7950    831.2673 307.7155754  +6.3452693     1833.596     2055.846     1981.102     84.79575     169.9309     340.2345      1.204     2.42     1051.755     60.00768     316.2245        11     0.907     0.697 -84.95   0
       140    870.6765    830.5109 307.5420561  +6.3595373     1878.324     2189.187      1920.74     85.33759     170.5401     340.5054      1.131     2.85     1033.566     60.00768     316.4762        12     0.975     0.770  58.99   0
       141     94.4203    830.3929 307.8644286  +6.3336161     1653.524     2017.562     2438.328     84.93154     169.9987     340.2345      1.339     3.24         1060     60.00768      273.994        11     1.061     0.699  73.41   0
       142    670.5020    829.3575 307.6252277  +6.3533357     1023.042     1157.328     1263.386     85.33759     170.1342     340.6745      1.214     2.91     1041.051     60.00768     162.7096         9     0.862     0.743 -63.14   0
       143    505.6334    826.1508 307.6938044  +6.3491499     23305.36     30567.28     31299.37     85.20245     170.2696       340.37      1.349     2.59      1049.48     60.00768     3859.347        38     1.234     1.000 -69.28   0
       144    346.8123    827.8556 307.7597031  +6.3431295     777.1517     835.9725     697.9987     84.65975     170.2019      340.099      1.062     2.81      1056.22     60.00768     164.5239         7     0.728     0.662 -70.84   0
       145    919.1591    824.3876 307.5221261  +6.3636813     4839.539     5897.858     5986.431     84.65975     170.0665     340.1329      1.236     2.28     1031.625     60.00768     946.9523        17     1.012     0.795 -60.06   0
       146    152.1864    825.5352 307.8406044  +6.3375615     533.2643     811.1298     1009.394     84.79575     170.0665       340.37      1.355     2.52      1059.99     60.00768     127.7747         5     0.710     0.476 -16.30   0
       147    391.6396    822.1463 307.7412795  +6.3469885     637.2329     821.5449     1239.319     85.20245     170.3373     340.4377      1.461     3.75     1053.941     60.00768     127.5809         5     1.002     0.402 -73.42   0
       148     39.2886    821.6257 307.8876189  +6.3353843     590.2822     788.2894     524.6678     85.47251     170.0665     340.2684      1.390     3.51     1060.504     60.00768     100.5964         5     0.772     0.459 -14.24   0
       149     16.1544    816.6938 307.8973924  +6.3366434     1812.958     2517.053     2001.646     85.20245     170.2019      340.573      1.450     2.98     1060.714     60.00768     282.2609        14     1.055     0.825 -62.12   0
       150    298.3240    814.8517 307.7802777  +6.3468746     3784.107      4986.97     5116.079     85.33759     170.3373     340.4377      1.402     2.69     1057.924     60.00768     559.5896        21     1.114     0.971 -88.70   0
       151    763.7344    810.6949 307.5871346  +6.3641544     67540.16     84815.76     86748.85     85.33759     170.4049     340.4715      1.274     2.45     1037.468     60.00768     11562.16        54     1.234     0.995 -73.13   0
       152    702.0878    812.3929 307.6126799  +6.3613959     705.4683     769.1501     829.6941     84.79575     169.9309     340.1668      1.335     4.02     1039.896     60.00768     125.8739         5     1.014     0.456 -63.03   0
       153    407.0984    809.1019 307.7352991  +6.3528928     1039.389     1511.659     1217.734     85.33759     170.6752     340.2684      1.558     4.12      1052.91     60.00768     160.4424        10     1.065     0.705 -68.13   0
       154    221.0675    808.5468 307.8125735  +6.3468878     5867.189     8137.139     9800.082     85.33759     170.2019     340.3361      1.500     2.98      1059.32     60.00768     876.6315        26     1.284     0.940 -85.05   0
       155    888.9684    805.9346 307.5352832  +6.3702958      10614.5     13375.49     13982.61      85.0671     170.3373       340.37      1.273     2.22     1032.344     60.00768     2191.877        28     1.090     0.972 -84.80   0
       156    691.9784    805.2823 307.6171172  +6.3639947     25557.74     33602.52     35719.79      85.0671     169.9309     340.3361      1.363     2.53     1039.805     60.00768     4601.451        49     1.304     1.087 -71.33   3
       157    685.6814    801.7951 307.6198495  +6.3652245     105606.8     136477.1     140730.4     84.93154     169.7952     340.1668      1.322     2.57      1039.78     60.00768     17443.71        72     1.318     1.055 -74.47   2
       158    330.6117    802.6971 307.7672790  +6.3529758      23948.7     32181.73     33494.07      85.0671     169.9987     340.2345      1.430     2.66     1056.334     60.00768     3545.761        44     1.299     1.063 -79.88   0
       159    379.8801    802.7816 307.7468155  +6.3545913     1626.563     2079.531     2361.204     84.93153     169.9309     340.3361      1.361     2.96     1054.058     60.00768     290.8387        12     1.085     0.695 -69.55   0
       160    619.4696    802.0679 307.6473385  +6.3629004      1051.76     1250.245     1706.175     85.33759     170.4049     340.4038      1.332     3.61     1041.998     60.00768     145.8243         9     0.972     0.663 -64.51   0
       161    392.4553    800.5126 307.7416695  +6.3559493     26034.04     34232.89     35118.34     85.33759     170.1342     340.6069      1.421     2.74     1053.439     60.00768     3645.823        45     1.301     1.080 -76.56   0
       162    220.5392    787.1381 307.8135154  +6.3557105     772370.5      1572340      1715370     85.33759     170.2696     340.4715      2.125     4.45     1059.226     60.00768     62342.45       509     2.276     2.002 -83.97   4
       163    885.8427    797.3932 307.5368677  +6.3737188     8427.327     10446.77     11256.82     84.79575     169.9987     340.1329      1.240     2.28     1032.215     60.00768     1688.078        22     1.102     0.810 -72.46   0
       164    858.7033    798.1633 307.5481133  +6.3724964     862.5565     961.3351     1340.969     85.33759     170.1342     340.6069      1.286     3.04     1033.047     60.00768     163.3427         8     0.918     0.604 -76.12   0
       165    626.4720    796.4324 307.6446198  +6.3654615     7668.103     9528.883     9743.676     85.20245     170.2696     340.4377      1.310     2.55     1041.648     60.00768     1228.049        24     1.147     0.906 -78.80   0
       166    366.4648    795.8279 307.7526211  +6.3570134     576.6357     713.6801     727.7195     84.93154     170.2696       340.37      1.269     3.82     1054.461     60.00768     127.1805         5     0.884     0.486 -81.36   0
       167    415.3138    794.2958 307.7323860  +6.3592819      1959.57     2791.128      3246.76     85.33759     170.6752     340.5054      1.570     3.47     1052.174     60.00768     261.7214        16     1.139     0.888 -69.86   0
       168    140.3857    793.6367 307.8465822  +6.3503373     994.6972     1173.658     1044.335     84.93154     170.0665     340.2007      1.314     3.56     1059.911     60.00768     160.6508         9     1.028     0.729 -87.85   0
       169    714.5237    791.8361 307.6082055  +6.3703000     608.0938     857.7615     806.4079     85.20245     170.3373     340.4715      1.443     4.22     1038.939     60.00768     85.06384         5     0.894     0.567 -43.44   0
       170   1009.0817    788.8789 307.4859692  +6.3813390     966.5724     958.9178     1568.412     85.47251     170.5401     340.6407      1.099     2.08     1024.984     60.00768     225.2972         7     0.803     0.512 -50.86   0
       171    579.6055    788.1992 307.6643606  +6.3672953     949.8685     1218.346     862.5573     84.65976     169.9309     340.2345      1.322     3.63     1043.774     60.00768     190.2046         8     1.036     0.533 -69.02   0
       172    854.4374    787.9489 307.5502276  +6.3765723     763.7275     960.8011     929.4897      85.0671     170.2696     340.4038      1.137     3.45     1032.861     60.00768     174.8032         5     0.767     0.448 -70.04   0
       173    661.6363    786.5507 307.6303479  +6.3707168     2944.243     3733.714     3328.574      85.0671     170.2696     340.3361      1.278     2.80     1040.121     60.00768      496.528        16     1.112     0.785 -78.18   0
       174    105.9702    787.2054 307.8610914  +6.3518376     1254.971     1575.914     1586.809     84.79575     170.0665     340.2345      1.382     3.07     1059.858     60.00768     230.2429         9     0.914     0.668 -62.39   0
       175    395.4265    783.2224 307.7410182  +6.3631888     61443.56     83294.84     86607.63     84.79575     170.0665       340.37      1.444     2.77     1052.722     60.00768     9205.027        65     1.357     1.154 -63.29   0
       176    247.1386    786.3549 307.8024954  +6.3569261     781.7582     1899.899     4095.692     85.20245     170.2019     340.5392      5.836     7.12     1058.645     60.00768     93.99988        10     1.327     1.071  23.64   0
       177    130.9466    787.2608 307.8507174  +6.3526533     1015.448     1215.189     1190.012     85.33759     170.2019     340.4038      1.192     2.74     1059.836     60.00768      176.515         7     0.704     0.673 -88.12   0
       178    938.4526    784.9593 307.5154344  +6.3806061     851.3056     1013.383      1058.17     85.20245     170.3373     340.4715      1.063     2.20     1029.894     60.00768     204.1783         6     0.746     0.498  89.52   0
       179    513.1503    782.2615 307.6921596  +6.3675253     8317.216     10938.87     10912.88     85.33759     170.2019     340.5054      1.371     2.74     1047.595     60.00768     1334.143        28     1.232     0.956 -70.52   0
       180    429.8952    780.8892 307.7267819  +6.3653063     5129.524     6808.054     7052.652     85.33759     170.6752     340.5054      1.422     3.01     1051.369     60.00768     794.5377        25     1.220     0.965 -71.94   0
       181    758.3149    778.8474 307.5904545  +6.3771252     13854.28     17550.53     18263.75     85.33759     170.2019     340.4377      1.295     2.49     1036.481     60.00768     2364.479        32     1.208     0.949 -76.01   0
       182    258.7943    780.2724 307.7978602  +6.3598286     569.3303     1165.817     2151.381     84.93153     169.7952     340.3361      2.534     4.89     1058.211     60.00768      82.0332         6     1.283     0.527  38.55   0
       183    426.4634    774.1940 307.7284326  +6.3679561     2660.739     3458.301      4059.04     84.65976     170.0665     340.1668      1.351     2.74     1051.307     60.00768     451.4225        20     1.104     0.982 -74.41   0
       184    780.0356    772.9427 307.5816317  +6.3802882     1565.659     1989.988     1925.929     85.20245     170.2696     340.4715      1.325     2.31     1035.101     60.00768     288.5812         9     0.783     0.694 -73.22   0
       185    116.2264    770.7993 307.8573865  +6.3589566     13127.93     18094.95     19157.04     84.93153     169.9309     340.2345      1.422     2.83     1059.697     60.00768     1971.478        39     1.278     1.098 -79.99   0
       186    947.5339    772.0237 307.5120962  +6.3862504     725.0552     1003.593     1192.519     84.93153     170.2696       340.37      1.543     4.12     1028.883     60.00768     155.9042         7     1.015     0.622  24.49   0
       187    124.3186    771.0638 307.8540170  +6.3591191      3356.28      4675.95     4743.472     85.47251     170.3373     340.4377      1.438     2.87     1059.676     60.00768     508.2583        21     1.136     0.977 -67.96   0
       188    108.3333    768.2802 307.8607495  +6.3597318       3309.6     4557.316     4856.417     85.47251     170.4725     340.4377      1.414     2.99     1059.691     60.00768     522.9044        22     1.329     0.821 -89.58   3
       189    108.3897    761.8150 307.8609445  +6.3624034     2086.611     2919.331     3117.713      85.0671     169.9987     340.3361      1.504     3.28     1059.638     60.00768      302.351        17     1.176     0.850 -89.60   3
       190    903.8159    767.3890 307.5304089  +6.3867081     8088.766     9862.587     10059.07      85.0671     169.9309     340.3361      1.216     2.37     1030.802     60.00768     1610.146        22     1.076     0.819 -81.86   0
       191    952.9008    767.3287 307.5100245  +6.3883680     1900.799     2325.322     2264.485      85.0671     170.4725     340.4377      1.177     2.07     1028.416     60.00768      426.532        11     0.842     0.735 -78.14   0
       192    929.5173    799.4465 307.5186600  +6.3743259     2678.706     3444.977     3743.742     85.33759     170.2696     340.4377      1.262     2.75     1030.794     60.00768     417.7944        16     1.025     0.840 -73.23   0
       193    659.3802    765.1526 307.6320039  +6.3794778     1940.054     2502.396     2596.402     84.79575     170.2696     340.2345      1.279     2.75     1039.933     60.00768     306.2484        13     0.979     0.789 -26.05   0
       194    546.1892    764.1542 307.6790475  +6.3761076     2783.432     3789.825      4138.02     84.79575     170.1342      340.099      1.355     2.61     1044.683     60.00768     487.2664        17     1.077     0.815 -89.77   0
       195    394.0917    763.6266 307.7422327  +6.3712360     1372.846     2011.935     2222.185     85.47251     169.9987     340.2684      1.453     4.65      1052.15     60.00768     214.4102        13     1.279     0.714  69.77   0
       196    677.6188    762.2525 307.6245265  +6.3812845     570.7558     560.5018     550.1228     84.79575     170.3373     340.2345      1.140     3.32      1039.05     60.00768     92.78381         5     0.722     0.467 -76.00   0
       197    927.5674    759.4402 307.5208106  +6.3907819     4675.729     6129.062     5638.221     84.93154     170.0665     340.2684      1.463     5.89     1029.929     60.00768     1166.141        19     1.319     0.741  84.76   0
       198    958.2733    758.6980 307.5080823  +6.3921110     2340.308     3225.044     3001.379     84.93154     170.4049     340.4377      1.329     3.02      1027.88     60.00768     373.3489        17     1.088     0.902 -72.32   0
       199    898.0641    759.4264 307.5330647  +6.3898047     3878.827     4755.266     4841.992     84.93153     170.2019     340.3361      1.254     2.49     1030.744     60.00768     687.8914        14     0.958     0.776 -72.93   0
       200    650.2626    758.5217 307.6360134  +6.3819115     1741.418     2092.402     2160.813     85.60722     170.3373     340.4377      1.285     2.90     1040.258     60.00768       264.49        12     0.987     0.751 -60.43   0
       201    797.6417    756.9019 307.5748577  +6.3874995     1242.622     1269.074      773.797     85.33759     170.1342     340.6745      1.212     3.26     1034.077     60.00768     222.4563         9     1.028     0.575 -78.29   0
       202    223.0258    753.8676 307.8136055  +6.3695326     2097.227     3320.377     4562.482     84.93153     170.1342     340.3361      1.909     4.17     1058.991     60.00768      301.095        20     1.401     0.985 -80.99   0
       203    873.0408    754.8315 307.5436117  +6.3908683     1014.879     1350.821      1569.88     84.93153     170.1342     340.3023      1.371     2.83     1031.295     60.00768     170.8754         7     0.845     0.523 -41.20   0
       204    915.5756    749.0594 307.5261391  +6.3946692     1274.753     1598.951     911.1313     84.93153     170.2696     340.2684      1.274     2.38     1029.996     60.00768     277.5446         8     0.799     0.677 -79.07   0
       205    243.3409    748.9373 307.8053351  +6.3722499     901.8737     1561.336     1602.347     85.47251     170.2019     340.4715      1.826     3.62     1058.169     60.00768     137.1704         8     0.957     0.640 -81.58   0
       206    138.5178    748.6005 307.8488791  +6.3688717     752.3829     1157.479     1582.311     84.52354     169.7273      340.099      1.776     2.86     1059.378     60.00768     149.4231         6     0.870     0.446 -72.46   0
       207    942.3881    746.6096 307.5150850  +6.3965740      3054.75     3669.711     3467.862      85.0671     170.0665     340.4038      1.178     2.52     1028.711     60.00768     486.2076        14     1.005     0.756  80.06   0
       208    889.6041    747.9342 307.5369637  +6.3942686     1235.204     1521.125     1267.938     84.65975     169.9987     340.1668      1.205     2.58     1030.636     60.00768       232.88         7     0.746     0.584 -78.26   0
       209    662.1115    745.6649 307.6315244  +6.3876165     1064.859     1573.448      1956.75     85.33759     170.4725     340.4377      1.628     3.06     1039.524     60.00768     165.7198        10     0.858     0.814 -17.48   0
       210   1016.3750    740.7224 307.4845526  +6.4014683     9531.828     11564.71     11775.86     84.93154     170.2019     340.4038      1.192     2.31     1023.441     60.00768      1758.48        23     1.039     0.890 -74.88   0
       211    453.3946    740.9392 307.7183678  +6.3825900     614.2902     706.6729     802.1105     84.65975     170.1342     340.2007      1.223     4.51     1049.216     60.00768      104.318         8     1.185     0.487 -88.05   0
       212    984.0734    740.2471 307.4979846  +6.4005895     1963.575     2410.107     2545.077     85.20245     170.3373     340.4377      1.215     2.71     1025.635     60.00768     416.5226        13     1.057     0.701 -84.40   0
       213    383.1264    741.1370 307.7475444  +6.3801557     791.7479     881.2582     1026.269     85.60722     170.2696     340.4377      1.255     4.22     1051.685     60.00768     121.3149         9     0.957     0.696   1.42   0
       214    610.6452    740.0731 307.6530876  +6.3882063     812.4866     796.1387     466.3585     85.20245     170.3373     340.4715      1.253     3.46     1041.926     60.00768     126.0616         5     0.767     0.452 -75.24   0
       215    785.5149    738.4693 307.5805130  +6.3947069     1416.501     1693.668     1577.772     85.47251     170.5401     340.4715      1.145     2.28     1034.137     60.00768     254.1409        10     0.858     0.694  85.32   0
       216    871.9005    735.8829 307.5447207  +6.3986553     1958.368     2491.502     3267.337     85.33759     170.8102     340.5392      1.310     2.68     1030.724     60.00768     338.7386        15     1.092     0.857 -50.20   0
       217    846.3375    731.0927 307.5554987  +6.3997813     1081.142     1378.433     925.5574     85.33759     170.3373     340.5054      1.290     3.67      1031.67     60.00768     182.5642        10     1.089     0.622 -47.19   0
       218    828.6124    727.3760 307.5629853  +6.4007252     1857.832     2348.765     2376.079     84.93154     170.0665       340.37      1.314     2.53     1032.315     60.00768     335.2959        13     1.011     0.724 -61.54   0
       219     91.6363    723.2615 307.8692048  +6.3777608     994.8845     1931.905     2312.619     85.33759     170.2696     340.4038      2.448     4.48       1059.2     60.00768     149.7167        11     1.085     0.761  74.90   2
       220     27.8799    726.1689 307.8955842  +6.3744181     2782.092     3573.488     3592.005     85.20245     170.2019     340.4038      1.368     2.89     1060.467     60.00768     466.6041        16     1.082     0.840  88.34   0
       221    640.4504    714.7749 307.6415590  +6.3996490     7270.801     9589.943     9991.265     84.93154     170.2696     340.3361      1.366     2.73     1039.822     60.00768      1072.94        24     1.169     0.913 -74.87   0
       222    509.0908    715.1490 307.6961042  +6.3951034     681.6396     933.2125     872.9075     85.33759     170.0665     340.6069      1.573     4.99     1045.334     60.00768     106.7625         6     1.089     0.648 -87.91   0
       223    587.2301    714.1771 307.6636833  +6.3981175     1629.006     2166.144     2066.025     84.65975     170.0665     340.2684      1.389     3.08     1041.947     60.00768     261.7463        10     0.952     0.690 -47.24   0
       224    498.1363    714.1522 307.7006874  +6.3951487     960.1634     1239.403      1512.44     85.20245     170.1342     340.4715      1.311     2.56     1045.924     60.00768     173.9957         8     0.808     0.634 -41.55   0
       225    614.2813    710.5396 307.6525704  +6.4005237     2437.402     3150.306     2919.682     85.47251     170.2696     340.4038      1.385     2.78     1040.921     60.00768     353.3669        15     1.019     0.831 -83.00   0
       226    103.4923    710.5649 307.8647100  +6.3834018       4176.7     5641.139     5334.431     85.47251     170.1342     340.5054      1.475     2.87     1058.724     60.00768     594.0365        25     1.251     0.984  84.87   0
       227    977.4468    709.9240 307.5017527  +6.4128910     3281.079     3856.926     3710.908     85.20245     170.3373     340.4377      1.234     2.32     1025.331     60.00768     583.3273        15     1.004     0.772 -79.19   0
       228    290.1798    710.7944 307.7871693  +6.3895712     850.0435      1017.59     1224.423     84.93153     169.9309     340.2345      1.326     3.25     1054.262     60.00768     145.9143         6     0.748     0.615  -1.47   0
       229    757.3409    706.8643 307.5932757  +6.4068184     23847.73     30476.29     31780.64     85.47251     170.2019     340.4715      1.315     2.48     1034.002     60.00768     4041.311        36     1.192     0.973 -81.63   0
       230    887.3342    706.7138 307.5392886  +6.4112152     4535.667      5628.14     5779.538     85.33759     170.4725     340.5054      1.226     2.54     1029.402     60.00768      802.986        21     1.190     0.796 -71.63   0
       231    439.2676    709.0225 307.7253098  +6.3952970     483.7294      779.762     1291.528     84.93153     170.2019     340.4038      1.556     3.85     1048.495     60.00768     86.06909         5     0.837     0.509  34.93   0
       232    456.5529    707.2323 307.7181911  +6.3966148     1544.692     1950.797     1318.736     84.93154     170.2696       340.37      1.402     3.07     1047.637     60.00768      230.226        12     1.004     0.765 -64.93   0
       233    485.3528    706.6769 307.7062484  +6.3978079     986.3989     1416.284     1010.824     85.20245     170.3373     340.4038      1.538     3.77     1046.392     60.00768     148.7677        11     0.945     0.875 -60.89   0
       234    302.2253    705.8640 307.7823329  +6.3920109     589.0295      1053.62     1071.591     84.93153     170.2696       340.37      1.923     4.26     1053.522     60.00768     95.30981         6     1.153     0.448  60.46   0
       235    230.9032    700.5211 307.8121344  +6.3918257     6790.658     9243.958     9548.808      85.0671     170.5401     340.5392      1.467     2.94     1056.569     60.00768     1009.069        29     1.237     1.022 -81.04   0
       236    637.8643    699.6437 307.6431418  +6.4058111     7905.813     10483.77     11628.42     85.33759     170.2019     340.4377      1.385     2.62     1039.466     60.00768     1220.423        26     1.173     0.963 -72.65   0
       237    620.5362    700.8451 307.6502984  +6.4047360     1002.819      1136.67     1107.471     85.33759     170.2019     340.4715      1.197     3.05     1040.277     60.00768     170.9926        10     0.927     0.775 -58.01   0
       238    897.7526    692.4462 307.5354397  +6.4174542     1537.041     1860.114      1230.09     85.33759     170.1342     340.4715      1.221     2.71     1028.217     60.00768     281.2672        10     0.896     0.684 -58.13   0
       239    664.9678    688.6680 307.6322534  +6.4112489     1339.251     1623.893     2110.568     85.20245     170.2696     340.4038      1.482     3.46     1037.929     60.00768     208.7545        12     1.080     0.740 -72.00   0
       240    709.5916    687.9847 307.6137421  +6.4130211     4210.788     5768.253     5950.085     84.93153     169.9987     340.2684      1.456     2.88     1035.695     60.00768     625.8567        25     1.265     1.008  73.06   0
       241    975.8968    684.6523 307.5032432  +6.4232756     11312.54     13906.76     13913.51     85.20245     170.2696     340.7083      1.239     2.32     1024.686     60.00768     2100.633        27     1.103     0.866 -84.90   0
       242    914.3300    684.9962 307.5288040  +6.4210831      2869.44     3532.471     3726.235     84.65975     169.8631     340.2684      1.244     2.47     1026.814     60.00768     531.5237        18     1.067     0.889 -83.45   0
       243    964.4433    684.8138 307.5079951  +6.4228275     713.3848     752.9053     553.9199     84.65976     170.0665     340.1668      1.219     3.43     1024.964     60.00768     117.5648         5     0.775     0.438 -68.52   0
       244    529.0125    682.9352 307.6889141  +6.4090724     650.5464     884.3353     1308.624     84.79575     170.0665     340.3361      1.324     4.49     1043.391     60.00768     96.48669         6     1.002     0.572 -48.97   0
       245     53.3106    679.5334 307.8865997  +6.3945300     28961.14     39688.04     40381.88     85.47251     170.4725       340.37      1.500     2.91     1059.081     60.00768     3868.748        46     1.328     1.112 -82.22   0
       246    514.6354    680.3195 307.6949735  +6.4096717     2284.387     2779.681     2620.463     85.20245     170.3373     340.4715      1.327     2.80     1043.968     60.00768      379.559        14     0.992     0.872 -83.03   0
       247    483.2861    677.6586 307.7080837  +6.4097217     1657.408     2298.668     2333.109     85.33759     170.2696      340.573      1.552     3.54     1045.386     60.00768     239.8575        14     1.075     0.857 -73.21   0
       248    904.1866    676.9844 307.5332857  +6.4240537     1279.419     1536.109      1235.23      85.0671     169.9309       340.37      1.273     3.01     1027.126     60.00768     216.8177         9     0.896     0.643 -65.19   0
       249    523.4980    674.1177 307.6915013  +6.4125291     1135.974     1484.852     1205.057     85.33759     170.6752     340.5392      1.341     3.08     1043.433     60.00768     177.1692         9     0.870     0.718 -72.17   0
       250    699.2628    671.7152 307.6185787  +6.4193948     3886.634     5138.861     3928.546     85.47251     170.4049     340.4038      1.313     2.71     1035.943     60.00768     600.9894        16     1.051     0.810 -81.35   0
       251    721.2618    670.0066 307.6094988  +6.4208347     4744.101     6141.701     5771.002     84.65975     170.0665     340.1668      1.318     2.71     1034.942     60.00768     763.2611        21     1.106     0.919 -73.75   0
       252    552.7029    667.9978 307.6795771  +6.4160330     3679.031     5224.776     4916.107     84.79575     169.9987      340.099      1.461     2.84     1042.117     60.00768     559.5813        23     1.173     1.005 -46.54   0
       253    388.8161    668.2968 307.7476359  +6.4104252     1467.949     1883.489     1689.799     85.20245     170.0665     340.2684      1.387     3.34     1048.829     60.00768     223.8965        12     1.018     0.804 -87.78   0
       254    296.8839    666.6451 307.7858741  +6.4080269     1618.773     2307.418      2723.68     85.33759     170.2696     340.4715      1.533     4.53     1051.937     60.00768     227.8533        14     1.224     0.839  80.91   0
       255    213.4264    667.4001 307.8205108  +6.4049163     1861.508     2558.583     2658.643     84.79575     169.9309     340.2345      1.471     3.05     1055.334     60.00768     264.6052        16     1.056     0.927  76.63   0
       256    994.1460    666.0218 307.4962873  +6.4315767       6319.2     7622.385     7913.648     84.79575     170.2696     340.2345      1.232     2.11     1023.703     60.00768     1302.778        20     1.040     0.819 -87.55   0
       257    959.4651    664.9722 307.5107277  +6.4308555     9982.016     12680.36     12617.78     84.93153     170.2696       340.37      1.243     2.36     1024.289     60.00768     1688.322        26     1.098     0.906 -71.17   0
       258    513.7093    665.4343 307.6958592  +6.4157875     611.0056     980.4765     932.1145     85.47251     170.1342     340.4377      1.652     3.40     1043.794     60.00768     124.8894         5     0.794     0.421 -22.87   0
       259   1008.8416    663.6531 307.4902626  +6.4330441     881.2361     1099.383     266.4293     85.33759     170.3373     340.4715      1.191     2.29     1023.293     60.00768     199.7677         6     0.719     0.568 -67.13   0
       260    679.4550    663.5616 307.6270799  +6.4221004     1161.093     1176.519      399.673     85.33759     170.3373     340.4377      1.210     2.80     1036.875     60.00768     186.7217         9     0.846     0.735  85.18   0
       261     70.9437    661.8684 307.8798736  +6.4024169     879.4136      1275.81     1274.824     85.47251     170.2019       340.37      1.496     4.49     1058.065     60.00768     106.5206         8     0.865     0.662 -47.38   0
       262    405.0996    659.3066 307.7411757  +6.4146829     3153.448     4695.164     5374.872     85.33759     170.8102     340.3361      1.580     3.15     1047.732     60.00768     465.6266        21     1.190     1.008 -84.60   0
       263    118.0784    658.4662 307.8604127  +6.4054050     26867.14     37361.45     38642.53      85.4725     170.3373     340.4038      1.487     2.96     1057.044     60.00768     3624.612        44     1.344     1.113 -81.52   0
       264    786.3103    658.9483 307.5828517  +6.4275719     1454.905     1393.236     629.8162     85.33759     170.0665      340.573      1.176     2.75     1032.046     60.00768     263.1312        11     1.019     0.660 -87.33   0
       265    337.9233    653.5001 307.7692723  +6.4148305     836.7244     992.8973     1109.813     84.79575     170.4049     340.4715      1.297     3.65     1050.126     60.00768     134.7006         9     0.999     0.710  85.43   0
       266    954.4338    647.9738 307.5133872  +6.4377076     8420.471     11406.86     11974.73     84.79575     169.9987     340.2007      1.390     2.67     1023.853     60.00768     1452.623        30     1.212     1.071  50.66   0
       267    548.0291    643.2886 307.6823498  +6.4260803     53025.91     73034.06     76299.41     85.47251     169.9987     340.3023      1.463     2.95     1042.342     60.00768     7645.714        62     1.370     1.150 -67.58   0
       268   1009.7524    643.0930 307.4905729  +6.4415648     116706.2     143519.3       147702     85.20245     170.2019      340.573      1.253     2.20     1021.745     60.00768     23118.02        69     1.230     1.004 -77.02   0
       269    912.6879    644.8156 307.5308330  +6.4376212     595.4026     644.2603    -123.0194      85.0671     169.9987     340.3023      1.028     2.81     1025.576     60.00768     148.0347         5     0.889     0.353 -43.47   0
       270    191.5184    644.8537 307.8303710  +6.4134915     635.2515     1010.064      1359.68     85.33759     170.2696     340.5054      1.117     3.34     1055.177     60.00768     128.6001         5     1.113     0.290 -35.31   0
       271    507.4529    643.7338 307.6991882  +6.4245394     947.7618     1366.637     1099.499     85.33759     170.2019       340.37      1.622     4.67      1044.05     60.00768     134.2505         9     0.891     0.883  74.72   0
       272    772.8279    642.4118 307.5890070  +6.4339509     685.0441     1032.436     724.8284     84.79575     170.0665     340.3361      1.481     3.77     1032.613     60.00768     105.7318         5     0.881     0.529  51.64   0
       273    155.6288    640.0116 307.8454405  +6.4142864      2726.25     3789.983     2593.123     84.79575     170.0665     340.3023      1.487     2.98     1056.296     60.00768     414.4591        19     1.161     0.925 -74.04   0
       274    478.1622    640.5951 307.7114598  +6.4248555      673.241     856.4252     849.8614      84.3871     169.9987     340.1668      1.364     3.45     1045.196     60.00768     93.26355         5     0.798     0.432 -20.30   0
       275    959.3278    639.4324 307.5116406  +6.4413977     885.0229     1133.317     1714.443     85.20245     170.2696     340.4715      1.211     3.92     1023.383     60.00768      131.797         8     0.946     0.599  18.02   0
       276     48.3521    634.5424 307.8901802  +6.4129416      1388.79      1971.67     2437.384     85.33759     170.2696      340.573      1.583     4.32     1057.661     60.00768     196.2839        10     1.144     0.601 -83.41   0
       277    445.3069    627.0966 307.7255609  +6.4293301     67351.45     95781.63     99150.65     85.33759     170.8102     340.3361      1.519     3.06     1045.589     60.00768      8942.38        64     1.388     1.189 -76.47   0
       278   1023.4255    626.2990 307.4854558  +6.4489551     3863.157     4401.162     4371.109      77.5563      139.135     260.2092      1.050     2.58     1019.891     60.00768     791.1603        13     1.019     0.600 -80.44  24
       279    631.3104    624.1321 307.6484024  +6.4367746     1008.576     925.4455     784.6783     85.47251     170.4725     340.4038      1.351     3.60     1039.142     60.00768     128.1809         9     0.864     0.731 -24.00   0
       280    119.8789    622.2186 307.8608897  +6.4204334     1776.158     2593.728     2322.305     84.93153     169.9309       340.37      1.521     3.23     1056.025     60.00768     298.5995        15     1.051     0.945 -70.51   0
       281    399.0881    619.8771 307.7450012  +6.4307638     1043.309     1451.027     1676.557     85.33759     170.6077     340.5054      1.769     3.88     1046.216     60.00768     141.0984        10     1.074     0.649 -68.34   0
       282    914.4626    619.6790 307.5309386  +6.4480607     821.1098     954.9478     615.7766     85.60722     170.3373     340.4377      1.325     3.38     1024.957     60.00768      148.723         5     0.730     0.452 -68.52   0
       283    591.1874    618.8464 307.6652459  +6.4376166      932.689     1461.391     1963.858     84.65975     170.0665     340.2007      1.808     2.79     1040.853     60.00768     149.1855         9     0.899     0.663 -78.13   0
       284    290.6747    616.2650 307.7901524  +6.4286228     2058.891     2897.013     2419.085     85.47251     170.2696     340.4038      1.509     3.56     1051.279     60.00768     276.2184        16     1.126     0.917 -55.29   0
       285    442.6689    615.0684 307.7270617  +6.4342087     872.5905     1244.743     1643.187     85.33759     170.4049     340.4038      1.446     3.63     1045.319     60.00768     130.9186         7     0.729     0.684 -73.83   0
       286    717.3211    610.5748 307.6131319  +6.4452457     5897.204      7700.39     7445.742      85.0671     170.1342     340.4038      1.359     2.64     1035.562     60.00768     882.8821        23     1.153     0.930 -66.38   0
       287    770.8832    605.8574 307.5910420  +6.4489813      15741.5     20471.47     20816.48     85.33759     170.2696     340.5054      1.341     2.59     1032.686     60.00768     2620.743        34     1.210     0.977 -71.15   0
       288    988.1509    606.2325 307.5007805  +6.4560676     1167.886     1201.021     1129.984      85.0671     170.2696       340.37      1.057     2.18     1020.455     60.00768      229.172         8     0.750     0.645 -60.48   0
       289    513.1932    605.7587 307.6980822  +6.4404131     1413.335     2114.858     2295.992     84.65976     169.9309     340.1329      1.647     4.10     1043.672     60.00768     193.3342        12     1.044     0.855 -78.64   0
       290   1010.4853    604.7167 307.4915538  +6.4574370     2432.545     2806.926      2890.03      85.0671     170.4725     340.5392      1.111     2.35     1019.061     60.00768     445.9636        13     0.879     0.749 -68.74   0
       291    917.9692    604.4700 307.5299919  +6.4544581     451.6794     365.3226     604.5262     85.20245     170.2696     340.4038      1.168     4.19     1024.433     60.00768      73.5719         5     1.127     0.445 -63.66   0
       292    594.7366    603.9407 307.6642729  +6.4438905     3073.734     4103.319     4060.861     85.47251     170.2019     340.4715      1.415     2.87     1040.801     60.00768     460.7634        19     1.141     0.911 -63.29   0
       293     16.3262    604.8210 307.9044866  +6.4241380     632.5755     628.0262     228.5908     84.93153     170.1342       340.37      1.373     2.17     1057.255     60.00768      123.642         5     0.796     0.633 -40.49   0
       294    911.8276    599.9490 307.5326946  +6.4561205     1308.998     1593.975     1392.243     84.93153     170.4049       340.37      1.301     2.63     1024.586     60.00768     237.3331         8     0.825     0.606 -51.43   0
       295    207.2454    597.2142 307.8254474  +6.4336913     1267.582     1922.295     1775.082     84.65976     170.0665     340.2007      1.565     5.05     1052.553     60.00768     202.9141        12     1.313     0.754 -78.30   0
       296    353.3925    597.0185 307.7647515  +6.4386724     944.2068     1449.119     1350.934     84.93153     169.9309     340.2684      1.756     3.09     1046.509     60.00768     169.4368         9     0.883     0.755  -3.43   0
       297    846.9283    589.1581 307.5600148  +6.4584137     3291.966     4099.472     4135.854     85.20245     170.2696     340.5054      1.294     2.57     1027.805     60.00768     596.2655        17     1.060     0.818 -64.86   0
       298    141.7720    589.0179 307.8529184  +6.4348782     731.9735     1038.308     571.8387     84.93153     170.0665     340.3361      1.522     4.91     1054.783     60.00768      106.917         8     1.084     0.630 -55.28   0
       299    805.6545    586.6541 307.5772433  +6.4580714     2893.514     3680.466     3021.743     85.60722     170.2696     340.4377      1.382     3.09     1030.631     60.00768     451.4321        15     1.102     0.773 -70.15   0
       300    233.7216    581.4976 307.8149811  +6.4410696     8275.953     11927.39     12829.82      85.0671     170.4725     340.4715      1.576     3.13     1050.585     60.00768     1120.407        34     1.314     1.123 -82.38   0
       301    786.2555    577.7858 307.5855991  +6.4610864     180443.7       240625       249204     84.65976     170.2019     340.1329      1.396     2.61     1031.962     60.00768     29058.93        96     1.354     1.167 -75.80   2
       302    776.5688    582.5672 307.5894623  +6.4587888     2848.495     3900.789     4822.587     84.79575     169.9987     340.1329      1.480     2.57     1032.461     60.00768     433.3641        20     1.253     0.909 -38.12   2
       303    719.0122    582.4059 307.6133758  +6.4569345     676.5643      1155.69     1989.629     84.93153     170.0665     340.3361      1.804     4.17     1035.831     60.00768     80.98535         5     0.791     0.628  88.20   0
       304    837.1249    580.3251 307.5643833  +6.4617344     633.7388     912.0012     1650.144     85.60722     170.5401     340.5392      1.524     4.62     1028.533     60.00768     103.2109         7     1.028     0.591 -54.75   0
       305    167.9303    576.0704 307.8424910  +6.4411029     61019.27      90148.6     94560.93     85.33759     170.4049     340.4038      1.575     3.18     1053.464     60.00768     8159.394        69     1.458     1.248 -75.54   0
       306    716.2971    578.0004 307.6146516  +6.4586632      622.408     822.3797     1306.778     84.79575     169.8631     339.9635      1.397     4.66     1036.049     60.00768      82.3219         6     0.819     0.752 -76.91   0
       307     91.9730    572.3691 307.8741649  +6.4400806      6698.67     9665.758     9802.348     84.79575     169.9987     340.2345      1.544     3.19     1055.179     60.00768     883.4031        29     1.280     1.077 -66.69   0
       308    957.0690    569.4470 307.5149242  +6.4702235     1665.705     1924.053     1946.492     85.33759     170.2019     340.4377      1.165     2.62     1020.934     60.00768     312.1412        10     0.924     0.638  75.20   0
       309    977.8337    568.4691 307.5063314  +6.4713188     762.0809     868.0269     1454.935     85.20245     170.2696     340.5054      1.114     2.45       1019.4     60.00768     175.5237         6     0.806     0.598 -86.22   0
       310    206.7341    567.7111 307.8266560  +6.4458571     794.6992     1280.375     1632.934     85.33759     170.4725     340.4038      1.848     4.44     1051.146     60.00768     112.9078         7     0.998     0.647 -82.31   0
       311    822.8903    565.0084 307.5708103  +6.4675849     5263.617     6833.684     7111.956     84.93153     169.9309     340.2007      1.336     2.63     1029.621     60.00768     909.0813        22     1.076     0.924 -80.92   0
       312    341.3336    563.2197 307.7708999  +6.4522253      17590.9     25882.25     26695.85     84.93154     170.2696     340.3361      1.585     3.27     1046.005     60.00768     2302.708        41     1.381     1.164 -75.41   0
       313    432.0374    563.3798 307.7332189  +6.4551973      717.197     1046.079     1671.658     84.93153     169.9987     340.1668      1.578     4.27     1044.708     60.00768     108.2521         7     0.783     0.662 -13.38   0
       314    143.3514    562.0441 307.8531737  +6.4460697     2151.336     2830.695     3499.368     85.33759     170.2019     340.4038      1.436     3.31     1053.566     60.00768     260.9196        17     1.123     0.908 -77.23   0
       315    218.6696    559.6915 307.8219692  +6.4495692     932.4895     1407.514     1999.499     85.33759     170.4049     340.4377      1.684     4.58     1050.196     60.00768     125.9248        10     1.269     0.602 -87.67   0
       316    776.8019    558.3734 307.5901778  +6.4687875     6682.647     8545.915     8784.511     84.79575     169.9309     340.2345      1.338     2.76     1032.633     60.00768      1058.12        25     1.135     0.950 -72.83   0
       317    507.6799    558.1024 307.7019765  +6.4599082     6783.759     9689.771     10534.56     85.20245     170.6077     340.5054      1.536     3.28     1042.758     60.00768      883.911        27     1.260     1.025 -65.02   0
       318     80.8147    559.5316 307.8792334  +6.4450067     969.3176     1328.525     1075.014     84.79575     170.1342     340.3361      1.483     3.03     1055.141     60.00768     163.5061        10     0.957     0.700 -87.27   0
       319    366.0026    554.6993 307.7609405  +6.4565703     1437.068     1742.345     1420.233      85.0671     169.9987      340.099      1.365     3.77     1045.456     60.00768     185.7427        12     0.928     0.919  11.18   0
       320    552.4466    551.3030 307.6836101  +6.4642133     2438.997     3877.494     4393.543     85.33759     170.2019     340.6069      1.793     4.17     1042.264     60.00768     301.4283        22     1.439     0.953 -43.99   0
       321    154.7252    551.2169 307.8488153  +6.4509225      7154.21     10466.26     10801.63     84.79575     169.9987     340.3023      1.547     3.12      1052.63     60.00768     985.5609        29     1.268     1.079  89.51   0
       322    249.9194    547.7238 307.8093931  +6.4555594     89892.94     133315.5     137188.9     85.60722     170.5401     340.5392      1.606     3.28     1048.021     60.00768     10704.17        76     1.466     1.274 -74.13   0
       323     26.3868    549.9327 307.9021646  +6.4471412     5218.376     7591.383     7303.445     84.79575     170.0665     340.3361      1.521     2.98     1055.652     60.00768     719.2648        26     1.295     1.039  87.73   0
       324    835.5620    551.1987 307.5660099  +6.4737102     587.3109     774.5931      752.459      84.3871     170.0665     340.2007      1.254     3.46     1028.748     60.00768      92.0155         5     0.774     0.447 -70.12   0
       325    793.2570    550.6766 307.5836008  +6.4725149     1505.219     2134.186     2213.442     85.33759     170.2019       340.37      1.422     2.91     1031.808     60.00768     256.8788        14     1.063     0.798 -45.88   0
       326    539.1367    545.3774 307.6893382  +6.4662151     814.2006     1333.148      1577.12     84.93153     170.2696     340.3023      1.958     4.90     1042.429     60.00768     96.64136         9     0.981     0.694 -65.60   0
       327    476.6431    538.5322 307.7155276  +6.4669511     41702.45     66303.96     70612.38     85.33759     170.2019     340.5054      1.763     3.47     1042.491     60.00768     4940.047        71     1.516     1.451 -40.16   0
       328    233.7449    542.5586 307.8162858  +6.4571497     1554.651     2307.492     2269.189     85.20245     170.2696     340.4377      1.634     3.77     1048.615     60.00768     213.6553        15     1.170     0.909 -55.69   0
       329    949.3633    541.5322 307.5190608  +6.4814944      1997.63     2550.177     2285.143     85.20245     170.2696     340.5392      1.320     2.45     1020.615     60.00768     356.2248        13     0.926     0.795 -68.38   0
       330    773.0270    540.1208 307.5923587  +6.4761990     18236.25     24336.87     24792.95     85.20245     170.2019     340.4377      1.404     2.71      1032.95     60.00768     3057.209        45     1.298     1.101 -50.80   0
       331    627.1335    537.1158 307.6530632  +6.4725685     972.6128     1316.755     1240.666      85.4725     170.5401     340.5054      1.381     4.48     1040.597     60.00768     131.6238         8     0.852     0.670 -51.83   0
       332    189.4719    535.0900 307.8349276  +6.4587482     1984.413     2744.069     3042.629     85.33759     170.5401     340.4377      1.521     4.69     1050.396     60.00768     275.7455        16     1.189     1.072  55.57   0
       333     24.7805    535.1691 307.9033312  +6.4531836     1503.067     2040.996     1807.088     84.79575     170.0665     340.3023      1.482     3.57     1055.328     60.00768      208.076        14     1.101     0.844 -69.86   0
       334    699.0691    532.7083 307.6233297  +6.4767914     1293.181      1998.04     2546.945     85.33759     170.4049     340.4377      1.836     6.60     1037.726     60.00768     194.8964        13     1.428     0.857  67.95   0
       335    646.9068    533.7599 307.6449624  +6.4746149     1453.957     2200.731     2401.335      85.4725     170.2019     340.5392      1.627     3.68     1040.173     60.00768     205.3009        12     1.106     0.709 -66.51   0
       336    636.7430    533.5231 307.6491923  +6.4743732     3224.864     4718.256      5252.41     85.33759     170.2019     340.4038      1.622     3.19      1040.37     60.00768     423.3054        20     1.260     0.910 -47.25   0
       337    374.4851    529.2314 307.7582756  +6.4673712     1759.322     2357.411     2352.716     85.33759     170.0665     340.3361      1.466     3.25     1043.964     60.00768     252.7457        14     1.037     0.872  73.30   0
       338    305.8708    527.4279 307.7868373  +6.4658166     3947.733     5690.874     5821.215      85.0671     170.2696       340.37      1.566     3.57     1044.381     60.00768     488.6439        23     1.250     1.038 -72.45   0
       339    121.0282    526.1071 307.8636602  +6.4601597     27172.32     39711.32     41822.48     85.47251     169.9987     340.3361      1.557     3.14     1052.983     60.00768     3472.004        50     1.415     1.187 -79.34   0
       340    485.7888    526.8889 307.7121206  +6.4720652     2142.194     3182.924      3313.65      85.0671     169.9987     340.2684      1.565     3.48     1042.073     60.00768     306.7172        18     1.149     0.993 -88.09   0
       341   1023.7736    526.7110 307.4886467  +6.4900923     1018.956     889.4317     903.8848     72.96302     133.3845     254.3873      0.921     2.50     1014.881     60.00768     304.7466         7     0.943     0.402 -82.11  24
       342    848.8005    526.0212 307.5613554  +6.4845487     1862.094     2537.797     2697.887     84.93153     169.9309     340.1329      1.426     3.35     1027.792     60.00768     318.5781        13     1.154     0.710  84.89   0
       343     86.1719    524.3751 307.8781968  +6.4597040     2892.268     4317.764       4318.5     84.79575     170.0665     340.3023      1.557     3.36     1054.024     60.00768      393.502        21     1.228     1.005 -62.53   0
       344    323.0498    522.5883 307.7798648  +6.4683909     1087.092     1960.159      2707.36     84.65975     170.1342      340.099      2.273     5.07     1043.904     60.00768     141.8662        12     1.155     0.780 -85.95   0
       345    946.5309    520.6962 307.5209358  +6.4900045     6152.667     7731.208     7477.621     85.20245     170.4049     340.4377      1.260     2.44       1020.6     60.00768     941.2495        22     1.104     0.899 -62.42   0
       346    519.7067    513.1206 307.6984950  +6.4788855     1580.062     2379.827     1924.349      85.0671     170.4725     340.5054      1.542     3.79     1041.882     60.00768     214.8792        15     1.168     0.865 -63.96   0
       347    626.0417    506.9263 307.6545320  +6.4849987     12816.22     18148.68     19225.59     85.20245     170.3373     340.4715      1.492     3.09     1040.317     60.00768     1700.541        37     1.349     1.073 -72.39   0
       348    417.9917    507.2046 307.7409460  +6.4779242     42907.46     64607.94     66437.27     84.65976     169.9309     340.2684      1.611     3.28     1042.149     60.00768      5279.91        56     1.420     1.227 -78.01   0
       349    394.9680    510.5643 307.7503965  +6.4757658     635.2442     1089.843     1273.858     84.93153     169.9987     340.1668      1.640     3.79     1042.498     60.00768     95.10181         6     0.835     0.495  -2.40   0
       350    266.1848    507.4243 307.8039971  +6.4727462       978.47     1470.317     1939.916      85.0671     170.0665       340.37      1.503     5.69     1044.717     60.00768       129.03        11     1.309     0.696 -56.54   0
       351    183.2032    504.8433 307.8385530  +6.4710278     19040.58     30470.04     31745.68     84.65975     169.8631     340.0652      1.707     3.54     1049.448     60.00768      2304.31        52     1.460     1.323  82.25   0
       352    148.8654    505.9057 307.8527801  +6.4694363     1664.341     2462.094     2322.573     85.33759     170.4049     340.4715      1.544     4.47     1051.202     60.00768     207.9948        18     1.298     1.011  78.45   0
       353    992.3966    505.6472 307.5023868  +6.4977464     581.1406     688.5487     779.9357     84.65976     169.9987     340.0652      1.150     4.02     1017.242     60.00768     128.3896         5     0.950     0.489 -88.20   0
       354    960.0089    505.0038 307.5158629  +6.4969336     1292.455     1757.615     1599.272     84.65976     169.9309     340.2684      1.312     2.49     1019.538     60.00768     258.8198         9     0.895     0.615 -79.21   0
       355    888.5177    504.7899 307.5455687  +6.4946402     955.7744     1239.555     1608.931     84.93154     169.9309     340.2684      1.457     3.87      1024.77     60.00768     140.7528        10     1.077     0.729 -88.53   0
       356    800.0182    504.8437 307.5823308  +6.4916672     1090.554     1491.911       1350.3     84.79575     170.1342     340.1668      1.413     2.67     1031.514     60.00768     213.4758        10     0.876     0.734  83.58   0
       357    547.8554    503.6299 307.6871216  +6.4837462     2808.944     4255.466      4073.92     85.20245     170.3373     340.4038      1.631     3.51     1041.797     60.00768     334.3032        24     1.335     1.028  86.41   0
       358    921.6691    500.7231 307.5319334  +6.4974243     5670.297     6985.697      7167.59     85.47251     170.4049     340.4377      1.226     2.48     1022.252     60.00768     1003.718        20     1.057     0.834 -77.01   0
       359    594.8702    499.3029 307.6677371  +6.4871050     6765.005     9904.336     10629.77     85.20245     170.4725     340.4377      1.559     3.22     1040.945     60.00768     964.0328        30     1.296     1.111 -62.45   0
       360     82.6675    500.1054 307.8804729  +6.4696080     1294.464     2025.843     2343.427     85.20245     170.4725     340.4715      1.679     4.75     1053.189     60.00768      182.818        15     1.313     0.820 -67.82   0
       361    944.2523    493.0779 307.5228083  +6.5013337      4062.07     4935.699     5024.638     85.33759     170.2696     340.4377      1.262     2.41     1020.585     60.00768     722.2653        19     1.116     0.819 -77.40   0
       362    507.0105    490.4990 307.7045306  +6.4878023     7519.026     10921.77     11495.68      85.0671     169.8631     340.2007      1.578     3.35     1041.383     60.00768     897.6572        28     1.310     1.063 -70.97   0
       363    382.6781    492.0120 307.7561270  +6.4830151     771.3212      879.421      1283.05     84.93153     169.8631     340.2684      1.375     4.33     1041.003     60.00768     108.5366         7     0.783     0.684  85.86   0
       364    353.1390    490.6823 307.7684422  +6.4825746     2656.913      4220.33     4059.597     85.47251     170.2696     340.4377      1.667     3.59     1040.937     60.00768     352.9611        24     1.316     1.087 -60.16   0
       365     76.8165    489.6003 307.8832584  +6.4737492      585.361     876.8428     981.4023     84.93153     169.7952      340.099      1.679     3.55     1052.982     60.00768     90.65039         5     0.963     0.378 -84.61   0
       366    863.4872    486.3101 307.5565868  +6.5014372     3797.035     4720.449      5748.42      85.0671     170.7427      340.573      1.275     2.45     1026.726     60.00768     654.3152        19     1.088     0.840 -85.13   0
       367    516.4883    487.3513 307.7006994  +6.4894192     686.8232     1113.367     1022.302     85.33759     170.1342     340.5392      1.763     3.40     1041.392     60.00768     93.77478         5     1.109     0.302  20.27   0
       368    870.8351    480.8626 307.5537170  +6.5039317     2502.524      3158.85     3572.223     85.20245     170.2696     340.4038      1.349     2.65     1026.099     60.00768     426.9452        14     0.955     0.850 -89.44   0
       369    910.2925    479.9823 307.5373550  +6.5056102     1500.823     1641.503     1420.987      85.0671     169.9987     340.3023      1.193     3.10     1022.975     60.00768      237.459         9     0.941     0.627 -41.00   0
       370     89.9128    479.9294 307.8781455  +6.4781827      894.821     1185.495     1105.491     85.47251     170.5401     340.4377      1.523     5.01     1052.239     60.00768     112.4178         9     0.946     0.751  71.87   0
       371    721.7606    477.7728 307.6157493  +6.5002347     542.1813     718.6235     646.7349     84.93154     170.0665     340.2684      1.316     3.83     1035.845     60.00768     75.92761         5     0.920     0.456  44.71   0
       372    694.8963    476.8351 307.6269407  +6.4997249     3160.835     4481.943     4503.799      85.4725     170.1342     340.6069      1.496     3.29     1037.277     60.00768     457.6355        21     1.246     0.928 -55.26   0
       373    365.7586    474.9359 307.7637310  +6.4894997     3646.521     5546.482     5661.897     85.33759     170.2019     340.5392      1.626     3.51     1039.592     60.00768     423.7552        25     1.247     1.113 -71.75   0
       374     56.5033    475.8368 307.8921615  +6.4787500     2039.067     3261.567     3628.271     85.33759     170.1342     340.6069      1.683     4.20     1053.168     60.00768     248.0555        20     1.330     0.976 -62.16   0
       375    406.0695    475.1908 307.7469773  +6.4907448     1221.357     1737.297     1863.229     84.79575     169.9987     340.3023      1.610     4.06      1039.57     60.00768     143.6746        14     1.151     0.836 -39.50   0
       376    593.5174    471.4162 307.6692372  +6.4985755     10394.63      15039.4     15797.97     84.93154     169.9309     340.3023      1.587     3.18     1040.268     60.00768     1252.757        33     1.305     1.112 -68.99   0
       377    756.1719    468.0837 307.6017797  +6.5053844     17633.38     24383.56     25379.52     85.33759     170.0665     340.3023      1.451     2.88     1033.548     60.00768     2660.063        43     1.339     1.120 -70.70   2
       378    760.1802    463.1558 307.6002800  +6.5075532     1598.233     2125.596     2371.513     84.79575     170.1342     340.2684      1.381     3.09     1033.164     60.00768     227.2711        11     0.983     0.717 -67.09   3
       379    275.9132    468.3792 307.8012737  +6.4891956      2730.23     4047.315     4099.835     85.33759     169.9987     340.3023      1.610     3.59     1042.008     60.00768     325.9432        19     1.163     1.000 -45.96   0
       380    885.8608    465.3003 307.5479970  +6.5108591     559.0768     528.9547     266.8591      85.0671     170.2019      340.573      1.059     2.82     1024.532     60.00768     150.9045         5     0.916     0.343  86.68   0
       381    785.2013    465.0213 307.5898230  +6.5076177     1376.077      1871.28     1717.527     84.93153     169.9309     340.1329      1.451     3.45     1032.122     60.00768     206.1899        13     1.056     0.833  54.88   0
       382    358.9712    464.9862 307.7668860  +6.4933810     1500.998     2557.768     3503.549     84.93153     170.0665     340.3361      1.872     4.57     1038.707     60.00768     180.1986        13     1.193     0.779 -63.96   0
       383    941.3414    462.9679 307.5250269  +6.5136708     2531.784     3450.973     3433.424     85.20245     170.3373       340.37      1.393     2.80      1019.87     60.00768      426.984        16     1.104     0.768 -72.08   0
       384    689.7742    461.4173 307.6295867  +6.5059207     694.7344     1028.793      1749.44     84.93154     170.0665       340.37      1.514     5.21     1037.109     60.00768     108.3438         7     0.935     0.820 -41.16   0
       385     93.6542    459.8932 307.8772688  +6.4865820     4565.179     7132.291     7412.712     85.20245     170.2019     340.6745      1.679     3.40      1051.27     60.00768     622.0752        28     1.306     1.162  82.79   0
       386    731.7609    458.9196 307.6122284  +6.5083540     2457.777     3340.017       3713.7     85.33759     170.3373       340.37      1.479     3.25     1034.255     60.00768     338.0962        20     1.224     0.950 -68.34   0
       387    348.5804    460.9984 307.7713368  +6.4946795     570.1015     1116.555     1165.367     84.93153     169.7952     340.1329      1.865     4.26     1038.526     60.00768     80.75659         5     0.787     0.658   0.29   0
       388    995.4457    457.7414 307.5027254  +6.5176309     4834.636      6809.75     6826.256     85.20245     170.2696     340.5392      1.576     3.44     1016.146     60.00768      652.507        26     1.281     1.031  28.35   0
       389    251.6921    456.8331 307.8117247  +6.4931510      1523.07     2143.437     2674.177     85.47251     170.1342     340.4715      1.652     3.66     1042.783     60.00768     204.9155        15     1.100     0.946 -80.71   0
       390    329.7880    454.6531 307.7793572  +6.4966699      3231.59     4867.828     5100.451     84.65976     170.2019     340.1329      1.622     3.24     1038.876     60.00768     393.4918        23     1.180     1.079 -76.37   0
       391    685.4314    452.4532 307.6316921  +6.5094774     1893.793     2598.831     3209.915     85.20245     170.3373     340.3361      1.575     2.86     1037.217     60.00768     253.3513        15     1.003     0.892 -49.16   0
       392    217.5831    450.8320 307.8260960  +6.4944848     941.7998     1430.883     1293.903     84.93153     169.9987     340.3023      1.487     4.04     1044.266     60.00768     152.0103        11     1.145     0.789 -66.33   0
       393    959.3250    451.1180 307.5179532  +6.5191633     834.1775     1018.481       1160.1     85.60722     170.6077     340.5054      1.475     3.39      1018.18     60.00768     134.0311         5     0.767     0.434  73.89   0
       394    527.0159    445.3685 307.6977395  +6.5071080     966.8448     1357.894     1685.682     84.93153     169.9987     340.3361      1.589     3.70     1037.938     60.00768     177.5519        10     1.144     0.887 -37.69   0
       395    449.1515    443.5729 307.7301461  +6.5052438     1373.922     1892.889      1631.22     84.93153     170.2696       340.37      1.587     3.99      1036.83     60.00768     176.0082        14     1.145     0.831 -77.72   0
       396    811.8770    442.4353 307.5794995  +6.5178345     1483.132     1991.599     1988.928     85.20245     170.3373     340.4715      1.396     3.17     1030.419     60.00768     236.0461        11     0.944     0.789 -66.63   0
       397    596.7778    441.9641 307.6688736  +6.5108466     662.9343     1094.598     1338.457     84.79575     169.9987     340.2007      1.881     4.99     1038.707     60.00768     112.8638         6     1.071     0.657 -83.62   0
       398    797.3118    441.5849 307.5855789  +6.5176998     2300.065      2841.17     2935.441      85.0671     170.0665     340.3023      1.322     2.79     1031.417     60.00768     351.8309        14     0.967     0.848 -79.25   0
       399    694.6561    439.7462 307.6282870  +6.5150328     15797.62     22105.96     23092.83     85.47251     170.2696     340.4377      1.515     3.00     1036.134     60.00768     2044.526        37     1.291     1.096 -65.81   0
       400    615.7203    435.8551 307.6612099  +6.5140025     2754.822     3899.997     4495.427     85.47251     170.2696     340.4715      1.548     3.37     1038.519     60.00768     342.8718        21     1.178     1.015 -69.22   0
       401    688.4891    434.7095 307.6310182  +6.5169067     672.4282     1227.662     2233.605     85.33759     170.8102     340.5392      1.914     4.20     1036.556     60.00768     104.9974         7     1.265     0.399 -75.44   0
       402    610.3146    434.8703 307.6634887  +6.5142285     779.0058     1232.778     1489.022     85.47251     170.5401     340.4715      1.718     5.63      1038.55     60.00768     106.0405         8     1.178     0.759 -86.39   0
       403    159.9748    435.9980 307.8505274  +6.4986766     447.7278     644.0569     374.4818     84.93154     169.9309     340.2345      1.407     3.73     1046.515     60.00768      72.2135         5     0.633     0.630 -89.18   0
       404    590.9980    432.7559 307.6715844  +6.5144559     5277.266       7419.6     8109.744     84.65976     169.7952     340.0652      1.501     3.38     1038.107     60.00768     654.3683        19     1.125     1.002 -27.83   3
       405    587.2894    430.2348 307.6732099  +6.5153730     15090.55     22863.39     24363.45     85.47251     170.2019     340.4377      1.655     3.30     1037.844     60.00768     1831.076        45     1.414     1.304 -40.98   2
       406    919.8378    429.7283 307.5350749  +6.5266809     4431.504     5770.667     5990.299     85.20245     170.2019     340.5054      1.341     2.67      1020.06     60.00768       751.27        20     1.139     0.883 -72.18   0
       407    359.0660    425.5774 307.7681755  +6.5096576     28887.83     44340.91     46107.45     84.93153     170.2696     340.3361      1.659     3.49     1035.242     60.00768     3563.111        56     1.449     1.284 -77.30   0
       408    396.0339    426.9837 307.7527711  +6.5103154     654.3314     899.8037     573.4949     84.93153     169.9987     340.3023      1.514     3.71     1035.152     60.00768     81.44019         5     1.021     0.388 -58.15   0
       409    105.2575    425.1021 307.8736251  +6.5013382     2491.691     3740.661      3858.86      85.0671     170.2019     340.6407      1.642     3.76     1049.089     60.00768      362.619        21     1.293     0.999 -86.98   0
       410    875.6926    425.2528 307.5535648  +6.5270579     1611.741      2231.77     1929.428     85.20245     170.1342     340.6745      1.324     3.19     1024.683     60.00768     248.0413        12     1.071     0.712 -86.85   2
       411    872.2344    422.0390 307.5551092  +6.5282698     777.6154     1539.308      1809.87      85.0671     170.1342     340.2345      2.284     5.08     1025.074     60.00768     128.6466         9     1.310     0.616  64.68   3
       412    888.7442    420.0148 307.5483183  +6.5296560     5793.845     7780.128     8201.009     84.65976     170.1342     340.1329      1.366     2.68     1023.128     60.00768     921.2875        26     1.187     0.967 -72.21   0
       413     38.6314    420.5972 307.9014535  +6.5009593     1589.883      2291.83      2714.03     84.65976     170.0665     340.2007      1.549     3.82     1053.438     60.00768     251.2003        15     1.098     0.971  65.45   0
       414    216.6436    416.1708 307.8276568  +6.5087661     13652.35     20694.12     21336.15     84.93153     170.3373     340.3361      1.641     3.48     1042.176     60.00768     1794.176        37     1.378     1.175 -81.66   0
       415    944.6801    418.0660 307.5251453  +6.5323245      802.985     932.2711     898.3298     85.47251     170.4049     340.4038      1.246     4.39     1017.593     60.00768     138.4218         7     0.847     0.646  82.30   0
       416    711.8276    410.1368 307.6221485  +6.5278333     841.0084     1361.103     2245.951     84.93153     170.2019       340.37      2.246     6.51     1033.356     60.00768     113.8223        12     1.558     0.765  67.89   0
       417     52.3662    410.2170 307.8960993  +6.5057073     825.3105      1119.77     255.2379     84.93154     170.0665     340.2684      1.428     5.39     1051.904     60.00768     129.1445         9     1.382     0.593  79.73   0
       418    679.5002    409.3156 307.6356061  +6.5270929     884.2779     1362.951     1243.216     85.33759     170.8102     340.5392      1.621     3.25     1035.926     60.00768      127.249        10     0.948     0.755 -88.32   0
       419   1021.3657    406.8227 307.4936631  +6.5395209     10652.09     13316.04     13557.65     84.79575     165.0462       293.27      1.229     2.40     1012.419     60.00768     1861.973        26     1.106     0.895 -82.62  24
       420    988.6193    409.1573 307.5071894  +6.5374667      567.848     544.1581     1080.601     84.79575     170.1342     340.2007      1.077     3.44     1014.495     60.00768     95.95166         5     0.760     0.451 -72.99   0
       421    940.0847    408.0656 307.5273898  +6.5363012     1182.907     1290.024     1469.307     85.47251     170.5401     340.5054      1.204     2.51      1017.41     60.00768     200.9498         8     0.792     0.641 -46.21   0
       422    162.1776    406.6618 307.8506036  +6.5108644     754.4973     1102.719     1512.047     84.93153     170.2696     340.3361      1.453     5.20     1044.853     60.00768      122.238         7     1.783     0.428 -41.09   0
       423    116.8384    404.8195 307.8695000  +6.5101025     5145.254     7971.458     7987.168     84.93153     170.0665     340.1329      1.624     3.39     1047.421     60.00768     617.9357        30     1.331     1.157 -69.93   0
       424    329.5887    405.7165 307.7810907  +6.5168710     1478.857     2204.052     2253.707     84.93154     169.9987     340.2684      1.633     4.90     1035.525     60.00768     171.4038        14     1.021     0.987  39.19   0
       425    414.3040    403.8335 307.7459616  +6.5204870     636.3201     934.7928     961.9688     85.47251     170.1342      340.573      1.377     5.14     1032.982     60.00768     98.54089         8     1.159     0.645  89.83   0
       426    221.7897    403.7337 307.8259390  +6.5140745     1462.834     2201.983     2228.162     84.79575     170.1342     340.3023      1.644     4.47     1041.446     60.00768     185.1254        18     1.302     1.007 -62.90   0
       427    139.0174    400.4648 307.8604339  +6.5126456     2506.589     3992.221     4735.746     84.79575     170.2019     340.2684      1.898     5.54     1046.034     60.00768     286.4962        23     1.692     0.922 -70.93   0
       428    803.1895    401.1737 307.5844939  +6.5345837     865.3124     1037.819      1096.12     84.93153     170.0665     340.3023      1.401     3.89     1029.701     60.00768     124.2104         8     0.902     0.650  89.50   0
       429    534.2622    399.9414 307.6962585  +6.5261093     969.1143     1279.261     1390.094     85.47251     170.2019     340.4715      1.502     5.16     1033.745     60.00768     142.8809        10     0.974     0.858 -20.51   0
       430    251.0262    395.9156 307.8140577  +6.5182838     797.5274     892.9814     108.0059     85.47251     169.9987     340.3023      1.412     4.90     1039.596     60.00768     108.7091         8     1.094     0.642  82.00   0
       431    362.5216    395.2895 307.7677613  +6.5222805       2090.3      3282.03     3454.716      85.0671     170.5401     340.5392      1.798     4.39     1033.198     60.00768     250.1405        18     1.210     1.042 -78.58   0
       432    950.9325    394.6473 307.5233329  +6.5422036     1130.641      1564.05      1608.91     85.33759     170.2019     340.4715      1.387     2.51     1016.081     60.00768     234.3374         9     0.926     0.655 -81.74   0
       433     12.7872    389.6915 307.9132348  +6.5128522     3348.561     5305.165     5471.274      85.0671     169.9987     340.2007      1.726     3.17     1052.452     60.00768     494.7721        29     1.566     1.090 -61.94   0
       434    416.2022    388.9964 307.7456731  +6.5266774     7099.492     11141.72     11438.14     84.65976     169.7952     340.1668      1.666     3.55     1031.614     60.00768     891.2946        32     1.378     1.122 -76.56   0
       435    756.8418    386.3629 307.6042464  +6.5391534     14296.15     19659.36     20463.71      85.0671     170.2696     340.3023      1.465     2.91     1029.934     60.00768     2071.511        39     1.306     1.090 -79.85   0
       436    748.8848    388.0566 307.6074952  +6.5381884     2088.238     3204.679      3993.53     85.33759     170.2696      340.573      1.718     3.06     1030.258     60.00768     319.8602        19     1.145     0.963 -49.58   0
       437    320.4443    384.8844 307.7855922  +6.5251669     978.8127     1350.707     980.9309     85.33759     170.2019     340.4377      1.563     6.01     1034.922     60.00768     119.2269        13     1.115     0.911  20.38   0
       438   1000.7223    381.5271 307.5030871  +6.5492797     4489.285     5642.909      5743.69     85.60722     170.5401     340.4715      1.288     2.54     1012.025     60.00768     768.1625        19     1.013     0.935 -60.42   0
       439    175.9107    381.8126 307.8457383  +6.5215865     1881.329     2147.716      2986.72      85.0671     169.9987     340.3023      0.526     0.84     1043.681     60.00768     1256.927         5     0.435     0.370  32.62   0
       440    931.7393    378.0641 307.5318629  +6.5484123     767.2873     1123.369     1630.411     85.33759     170.2019     340.4715      1.576     4.85     1016.529     60.00768      148.448         8     1.094     0.742  87.44   0
       441    165.3826    377.1225 307.8502703  +6.5231698     931.4955     1401.477     1990.052     84.79575     169.9987       340.37      1.984     5.82     1044.373     60.00768     141.3799        15     1.194     1.035 -88.14   0
       442    436.6589    373.2296 307.7377061  +6.5338732     2352.372     3618.849     3219.365      85.0671     170.2696     340.3361      1.673     4.28     1030.151     60.00768     279.8834        21     1.269     1.111 -84.56   0
       443    464.4748    372.4552 307.7261764  +6.5351243     3267.083     4653.788     4387.666     85.20245     170.2019     340.4038      1.615     3.90     1030.061     60.00768     349.1113        20     1.191     1.052 -76.08   0
       444    893.3004    372.2901 307.5480264  +6.5495159     1039.602     1610.872     1312.095     85.33759     170.7427     340.4038      1.547     3.29     1020.031     60.00768     194.5703         8     0.906     0.716 -67.33   0
       445    822.1960    369.2379 307.5776698  +6.5484057     35923.52     51247.49     53460.86      84.3871     169.9987     340.1668      1.497     3.02     1025.658     60.00768     5565.218        54     1.442     1.099 -82.22   0
       446   1016.3038    366.9500 307.4971020  +6.5558180     740.4661     1069.131     963.7095     85.20245     170.2019     340.6069      1.474     3.87     1009.975     60.00768     111.7881         6     1.026     0.419  78.27   0
       447     40.2258    365.8046 307.9026448  +6.5236383     670.8654     913.0085     678.2363     84.79575     170.0665     340.2684      1.275     3.73     1048.803     60.00768     116.0562         5     0.938     0.426 -44.28   0
       448    314.5543    365.0051 307.7887098  +6.5331783      1026.37     1464.926     1028.389     84.65975     169.9309      340.099      1.449     5.16      1033.96     60.00768       137.29        10     1.053     0.716 -29.96   0
       449    593.8590    361.6129 307.6727895  +6.5439298     2738.918     4344.535     4864.354     84.65975     170.2019      340.099      1.730     4.42     1030.486     60.00768     332.4249        23     1.352     1.133 -35.44   0
       450      2.3288    361.6384 307.9185286  +6.5240844     1120.741     1494.202     1376.645     84.52354     150.3596     273.1714      1.387     3.21     1049.942     60.00768     163.0908         8     0.923     0.597  77.33  24
       451    125.6547    360.2203 307.8673452  +6.5288150     642.8527     1050.522     1025.913     84.79575     170.2696     340.2345      1.454     4.62     1045.377     60.00768     104.1791         6     1.082     0.561 -37.04   0
       452    678.6564    355.2167 307.6377754  +6.5494047     83390.26     118862.3     124413.2     84.79575     170.2019     340.1668      1.532     3.08     1029.791     60.00768     10883.42        83     1.446     1.267 -70.21   0
       453    837.0560    356.8167 307.5719130  +6.5540306     1287.127     1651.796     1982.996     84.79575     170.2019     340.1668      1.395     3.49     1023.698     60.00768     215.5233        11     0.981     0.794  59.75   0
       454     58.0693    354.9291 307.8956003  +6.5287289     1475.288     2380.735     2624.074     85.33759     170.4049     340.4038      1.734     4.42     1047.191     60.00768     201.6948        15     1.258     0.879 -41.33   0
       455    541.0660    351.9742 307.6950468  +6.5461446     2677.207      3916.93     4460.687     84.93153     170.2019     340.3361      1.589     3.61     1029.008     60.00768     337.3254        19     1.191     0.979 -64.76   0
       456     78.4454    350.7362 307.8872775  +6.5311452     6546.033     9778.246     10151.67     85.33759     170.2019     340.4715      1.634     3.33     1046.318     60.00768     826.7775        33     1.379     1.128 -73.48   0
       457    920.1248    352.3076 307.5375521  +6.5586616     970.1486      1294.54     1511.824     85.33759     170.4049     340.4377      1.370     3.57     1016.394     60.00768     200.6036         8     1.066     0.654 -34.47   0
       458    739.3966    350.2140 307.6127085  +6.5534988     538.7446     882.3879     1011.988     84.93154     169.9309     340.3023      1.682     3.46     1029.072     60.00768     72.25391         5     0.760     0.455  72.85   0
       459    524.4529    348.1642 307.7020770  +6.5471622     7328.317     10851.62     10679.84     85.20245     170.2696     340.4715      1.615     3.35     1028.244     60.00768     919.3799        32     1.325     1.126 -74.96   0
       460    253.4831    345.8087 307.8147287  +6.5390571     2633.744     3938.019     4163.488     84.93154     169.9309     340.2684      1.622     3.47     1036.766     60.00768     350.1853        20     1.168     1.052 -60.24   0
       461    387.3241    343.2970 307.7592107  +6.5445812     25599.78      39844.6     41413.87     84.93154     170.4725     340.5054      1.702     3.56     1029.142     60.00768     3156.823        58     1.474     1.304 -68.53   0
       462    566.1512    342.4957 307.6849442  +6.5508977     722.7138     890.7096     931.1076     85.20245     170.1342     340.6069      1.505     4.86      1027.71     60.00768     89.29126         8     0.922     0.724  54.76   0
       463    494.9703    342.3174 307.7145224  +6.5485901     1261.556     1811.512     1837.782     85.20245     170.0665     340.4038      1.579     6.05      1027.14     60.00768     157.0647        13     1.228     0.839 -45.32   0
       464    367.1332    341.5477 307.7676578  +6.5446271     1163.865      1844.48     2787.705     85.20245     170.2019       340.37      2.135     4.46     1030.103     60.00768     178.6282        13     1.158     0.835  80.33   0
       465    782.5592    335.4942 307.5952705  +6.5610178     1000.284     1250.155     1361.168     85.47251     170.2019     340.5392      1.384     4.94     1025.359     60.00768     166.4938         9     1.000     0.692 -70.38   0
       466    476.4313    333.7028 307.7225146  +6.5515270     8606.015     12925.32     13152.69     85.47251     170.0665     340.5392      1.654     3.43     1026.094     60.00768     987.7092        36     1.367     1.198 -71.61   0
       467    466.9788    338.4977 307.7262802  +6.5492306     1296.475     1662.769     1258.029     85.20245     170.0665     340.1668      1.412     3.78     1026.674     60.00768     179.0581        13     1.069     0.877  57.89   0
       468    618.3108    335.0495 307.6635246  +6.5557164     730.9587     865.8802     909.2195     85.33759     170.0665     340.5392      1.365     3.40     1026.881     60.00768     108.6967         7     0.755     0.650  88.69   0
       469    745.5449    332.4483 307.6107510  +6.5610403     3610.715     5283.534     5879.777     85.33759     170.2696     340.5392      1.582     3.05     1026.573     60.00768      470.952        24     1.216     1.046 -86.07   0
       470    900.9467    332.1090 307.5461975  +6.5663636     1035.254     1667.467     1836.897     85.20245     170.0665      340.573      1.744     5.64     1016.868     60.00768     170.9213        12     1.374     0.727  77.58   0
       471    692.9957    332.1342 307.6325939  +6.5594155     866.0814     1071.197     880.4696     84.65976     169.9987     340.1668      1.331     4.48     1026.656     60.00768     137.9417         8     1.077     0.641 -83.99   0
       472    303.0957    330.3434 307.7946397  +6.5471072      1114.22     1499.864     598.2943     85.20245     170.2696     340.6407      1.545     5.97     1032.671     60.00768     132.2266        12     1.111     0.902 -71.49   0
       473    138.5438    324.1966 307.8632084  +6.5441233     1095.356     1657.224     1512.308     84.65976     170.0665      340.099      1.700     5.54     1043.964     60.00768     143.1299        14     1.234     0.961 -70.01   0
       474    366.3500    317.9207 307.7687800  +6.5543574     7285.634     11346.18     11350.96     85.33759     170.3373     340.4377      1.680     3.73     1028.908     60.00768     881.0238        34     1.400     1.159 -74.73   0
       475    222.0395    318.4681 307.8287147  +6.5492919     2174.235     3288.148      4158.52     85.20245     170.2696     340.5392      1.683     3.85     1037.688     60.00768     277.1593        23     1.307     1.074 -70.90   0
       476    654.4089    319.2384 307.6490590  +6.5634518     543.7974     904.9464     1065.864     84.52354     170.0665     340.1329      1.313     3.46     1024.638     60.00768     73.15735         5     0.764     0.453  72.01   0
       477    719.9279    317.7615 307.6218876  +6.5662500     1024.449     1090.175     890.6807     85.20245     170.2696     340.5054      1.316     3.70     1024.998     60.00768     180.2751        11     1.098     0.727 -46.75   0
       478    734.1492    313.7396 307.6161142  +6.5683857     57741.38     80518.48     83498.41     85.33759     170.2019     340.4377      1.506     3.02     1024.638     60.00768      8129.28        64     1.375     1.187 -70.47   0
       479    405.7835    313.2085 307.7525562  +6.5576243     2474.316     3836.681     3416.837      85.0671     169.9987     340.2684      1.631     3.50     1026.125     60.00768       303.21        19     1.141     1.030  88.73   0
       480    968.8852    310.8241 307.5186843  +6.5774166     1918.874     2664.954     2634.442     85.33759     169.9987     340.2684      1.338     2.77     1010.766     60.00768     351.5512        12     1.023     0.706 -80.49   0
       481    552.0887    310.7827 307.6918540  +6.5635231     1250.656     1755.022     1535.449      85.0671     169.9987     340.3023      1.421     4.46     1023.248     60.00768     153.3651        12     1.146     0.707 -78.19   0
       482    910.0113    309.9365 307.5431752  +6.5758219     2541.226     3283.599     3578.428     84.79575     170.0665     340.2684      1.321     2.45     1014.779     60.00768     468.8433        15     1.079     0.809 -89.66   0
       483    442.8216    309.4081 307.7372966  +6.5604341     1083.563     1556.663     2355.897     84.93153     170.0665     340.2007      1.661     4.33     1024.251     60.00768     135.4324        12     1.092     0.853 -68.24   0
       484    271.6832    309.1907 307.8084038  +6.5547885     542.5958     816.2187     667.5315     84.93153     169.9309     340.2684      1.531     3.84     1033.552     60.00768     83.43884         6     1.039     0.407  76.33   0
       485    813.5506    303.2736 307.5834763  +6.5753572      1421.68     1971.633     2013.459     85.33759     170.3373     340.4715      1.527     3.80     1021.492     60.00768     209.8008        15     1.274     0.812 -76.93   0
       486    392.3401    308.8832 307.7582871  +6.5589601     1950.727     3043.942     3222.008     85.47251     170.3373     340.4715      1.677     4.14     1026.758     60.00768     275.4191        19     1.322     0.965 -73.85   0
       487    945.6425    301.5427 307.5286525  +6.5804753     621.0922     775.7272     493.3328     85.20245     170.2019     340.4715      1.207     3.91     1011.833     60.00768     102.6165         6     0.912     0.479 -89.03   0
       488    168.9044    300.2919 307.8514033  +6.5550138     2303.176     3525.665     3926.259     85.33759     170.8102     340.4038      1.671     3.67     1041.632     60.00768     313.3529        21     1.264     1.029 -65.31   0
       489    423.0939    300.3285 307.7457986  +6.5635228     1101.843     1516.506     1546.114     85.20245     170.3373     340.4715      1.446     3.98     1024.236     60.00768     151.3793         9     0.834     0.831  79.83   0
       490    732.6565    298.3463 307.6172516  +6.5746925     6700.812     9204.215     9784.503     85.47251     170.2696     340.4377      1.498     3.09     1022.602     60.00768     898.6163        27     1.256     1.039 -77.03   0
       491    749.1150    296.3428 307.6104808  +6.5760692     2805.906      3928.01     3867.396     85.33759     170.2696     340.6069      1.470     3.05     1022.339     60.00768      422.257        19     1.133     0.922 -70.70   0
       492     65.0931    296.7723 307.8946496  +6.5529796     973.0988     1691.254     1748.677      85.4725     169.9987     340.3023      1.821     5.73     1045.701     60.00768     159.4795        10     1.363     0.704  66.34   0
       493    338.7268    290.8965 307.7811678  +6.5645909     1693.905     3450.702     3094.289      85.0671     170.4049     340.4038      2.027     5.63     1029.097     60.00768     190.1163        26     1.587     1.138  -3.42   0
       494     52.3028    291.4340 307.9001438  +6.5547540     1239.184     1851.636     1924.336     85.33759     170.1342      340.573      1.593     4.73     1045.958     60.00768     161.5466        11     1.201     0.742  59.71   0
       495    987.2114    287.1828 307.5118626  +6.5877896     6957.931     8741.215     8949.708     84.93153     169.9309     340.3361      1.251     2.37     1008.639     60.00768     1329.707        20     1.097     0.812 -83.40   0
       496    465.4832    287.1006 307.7286332  +6.5704045     2217.678     3345.246     3253.848     85.33759     170.8102     340.5392      1.623     3.91     1021.115     60.00768      292.543        18     1.228     0.952 -63.06   0
       497    227.9385    282.7243 307.8274712  +6.5642497     5782.682     8669.321     9533.616     85.60722     170.2696     340.4377      1.643     3.49     1035.763     60.00768     684.9597        30     1.390     1.103 -88.20   0
       498    895.3691    281.5565 307.5502109  +6.5870534     663.6062     860.1678     846.8318     84.93154     170.2019     340.3023      1.286     4.03      1014.08     60.00768     125.1282         6     1.027     0.452 -53.62   0
       499    918.2919    277.6193 307.5408188  +6.5894432     635.4687     807.8719     723.8151     85.20245     169.9987     340.2684      1.192     3.46     1012.291     60.00768     112.9602         5     0.751     0.460 -15.28   0
       500    747.1801    276.4150 307.6119543  +6.5842338     771.3164      876.471     1196.875     84.93154     169.9309     340.3361      1.274     3.82     1020.457     60.00768     114.3709         8     0.885     0.652  62.51   0
       501    362.1874    273.4513 307.7720092  +6.5725809     1540.279     2744.603     2852.481     84.65976     170.2019     340.1329      1.839     4.52     1026.564     60.00768     188.2699        21     1.335     1.083  82.13   0
       502    284.6531    269.7452 307.8043469  +6.5715119      1203.17      2006.49     1672.616     85.60722     170.2019     340.4038      1.747     5.48     1031.459     60.00768     147.3169        16     1.301     0.959 -25.17   0
       503    131.7759    269.1561 307.8678806  +6.5666238     1680.718     2740.536     2784.031     84.79575     170.2019     340.2684      1.856     3.99     1042.333     60.00768     206.6213        18     1.212     1.028 -70.72   0
       504    541.4858    265.0130 307.6978002  +6.5820687      2223.15     3387.805     3455.531     84.93153     170.1342     340.3023      1.666     3.75     1017.296     60.00768     293.9159        18     1.167     0.984  83.78   0
       505    885.1124    263.9962 307.5550617  +6.5939631     1867.849      2802.41     2939.981     84.79575     169.9309      340.099      1.440     2.98     1013.572     60.00768     287.7354        13     1.105     0.688 -75.95   0
       506    704.9446    262.4396 307.6299723  +6.5885947     5185.478     7353.397     7675.987     85.33759     170.3373     340.4038      1.503     3.10     1018.312     60.00768     691.8999        25     1.225     1.033 -65.30   0
       507    645.7593    262.2518 307.6545693  +6.5866952     2186.542     3157.451     3901.083     85.33759     170.3373     340.4038      1.657     3.65     1017.203     60.00768     305.1107        18     1.239     0.910 -71.19   0
       508    943.0719    262.3533 307.5310348  +6.5965729     1055.815      1359.59     1357.052     85.33759     170.3373     340.4377      1.361     2.97     1009.839     60.00768     171.7355         9     0.880     0.687 -71.64   0
       509    948.8624    272.5114 307.5282882  +6.5925710     1351.797     1943.692      2474.58     85.33759     170.4049     340.5054      1.535     3.63     1010.127     60.00768     218.9948        12     1.100     0.788  85.13   0
       510    901.0503    254.5403 307.5487568  +6.5983991     1345.715     1695.251     2016.441     85.33759     170.2019     340.4715      1.390     3.18     1011.962     60.00768     205.3251        10     0.959     0.683  70.67   0
       511    204.7016    247.8027 307.8383047  +6.5778901     2364.974     3572.352     3294.378      85.0671     169.9987      340.099      1.622     3.85     1037.321     60.00768     324.0229        20     1.271     0.996 -71.19   0
       512    847.1411    246.7302 307.5714182  +6.5998271     2043.799     2949.622     3156.488     85.47251     170.2696     340.4377      1.464     3.10     1014.932     60.00768     323.7505        16     1.210     0.876  73.38   0
       513    737.5173    245.8664 307.6169956  +6.5965262     1715.079     2286.319     1940.585     85.60722     170.5401     340.5054      1.456     3.26     1017.961     60.00768     259.8332        14     1.055     0.880  59.28   0
       514    438.4727    237.6351 307.7415223  +6.5899264     22713.53     34861.15     35862.27     85.20245     170.2696     340.4377      1.694     3.62     1019.039     60.00768     2639.286        48     1.429     1.251 -76.01   2
       515    443.9955    232.2197 307.7394102  +6.5923475     1478.579     2598.691     2338.428     84.93153     169.9309     340.2345      1.879     3.92     1018.082     60.00768      214.518        19     1.240     1.073 -16.25   3
       516    764.4854    236.7359 307.6060973  +6.6011968      14440.1     20067.55      20902.9     85.47251     170.4049     340.4377      1.519     2.94     1017.212     60.00768     2099.497        44     1.391     1.215 -38.34   0
       517    300.2018    239.1839 307.7989185  +6.5846532     605.4294     998.1885     842.1584     84.93153     169.8631     340.2007      1.664     4.53     1029.815     60.00768     93.39221         5     0.807     0.722 -43.69   0
       518    126.6706    231.0197 307.8712909  +6.5821999     2289.789     3611.275     4062.777     84.93153     170.1342       340.37      1.707     3.84      1040.99     60.00768     304.6498        21     1.263     1.047 -65.97   0
       519    702.2728    232.5683 307.6320866  +6.6008407     608.3477     1030.941     384.0883     85.20245     170.2696     340.4715      1.797     3.41     1015.366     60.00768     93.27936         5     0.761     0.441 -21.25   0
       520    101.2285    229.9090 307.8818987  +6.5818037     1167.124     1729.795     1448.979      85.4725     169.9987     340.3023      1.539     4.94     1042.033     60.00768     130.7916        13     1.158     0.819  64.06   0
       521    153.3038    229.2038 307.8602871  +6.5838443     733.1072     1190.791     1603.281      85.0671     169.9309      340.099      1.908     5.13     1039.824     60.00768     97.57605         7     1.244     0.599 -69.88   0
       522    900.7574    227.2507 307.5497941  +6.6096586     1566.202      2134.08     2211.875     85.47251     170.2696     340.4377      1.274     3.00     1010.183     60.00768      277.902        13     1.116     0.704 -66.68   0
       523    562.5345    223.3438 307.6904576  +6.5999797     4891.635     7217.259     7947.636     85.47251     170.2019     340.4377      1.645     3.46     1012.329     60.00768     597.4218        25     1.228     1.112 -78.10   0
       524    282.6598    224.1461 307.8067144  +6.5902745     1180.977     1821.652     1749.057     85.47251     170.2019     340.4377      1.725     4.66     1031.245     60.00768     172.6649        14     1.188     0.941 -63.64   0
       525    525.1172    223.5652 307.7059968  +6.5986366     2203.688     3054.614     3272.583     85.33759     170.2696       340.37      1.508     3.62     1012.915     60.00768     277.1925        17     1.168     0.944 -39.24   0
       526    367.0986    222.3742 307.7716916  +6.5938371       1479.4      2371.23     2214.595     85.47251     169.9987       340.37      1.720     4.74       1022.8     60.00768     189.3782        19     1.230     1.159   2.85   0
       527    923.4334    220.4622 307.5405997  +6.6132176     3243.077     4078.835     4321.252     85.06711     170.3373       340.37      1.263     2.48     1008.421     60.00768     512.8096        17     1.040     0.846 -78.79   0
       528    869.5068    219.9363 307.5630245  +6.6116374     13025.13      17257.8     17917.95     85.33759     170.4049     340.5054      1.380     2.62     1011.437     60.00768     2004.559        34     1.224     1.015  88.62   0
       529    297.3940    221.0599 307.8006968  +6.5920430     848.3265     1179.058     1062.586     84.65975     170.1342     340.2007      1.468     4.27     1029.895     60.00768     136.0115         7     0.898     0.579 -59.82   0
       530    544.8208    220.0283 307.6979292  +6.6007563     790.9525     1032.312     822.4418     84.79575     170.0665     340.4038      1.431     5.35     1012.078     60.00768     118.5715         8     0.977     0.827  39.86   0
       531    189.0463    220.0483 307.8457467  +6.5888251     703.4869     814.1223     810.3276     85.33759     170.1342     340.4715      1.196     2.92     1037.637     60.00768     128.9354         5     0.657     0.551  -1.00   0
       532    956.1530    217.7939 307.5270938  +6.6154095     11558.53     14690.81      15325.8     84.79575     170.0665     340.0652      1.289     2.36     1006.807     60.00768      2127.48        28     1.110     0.957 -83.00   0
       533    667.4969    217.9070 307.6470289  +6.6057334     3057.115     4377.652     4482.154     85.33759     170.8102       340.37      1.531     3.26     1012.505     60.00768      428.858        20     1.180     0.982 -81.04   0
       534    241.8723    217.4934 307.8238852  +6.5916532     1147.208     1892.712     1304.964     85.20245     170.4049     340.5054      1.691     6.58      1034.37     60.00768     153.3207        15     1.368     0.951  35.18   0
       535    476.1306    212.7596 307.7267143  +6.6014592     2049.588     3296.209     2850.584     85.20245     170.2696     340.5054      1.716     3.92     1013.649     60.00768     243.2634        21     1.241     1.090 -67.46   0
       536    808.0706    209.3340 307.5889078  +6.6139667      2274.49     2660.274     2678.725     85.33759     170.3373     340.4377      1.367     2.92     1013.367     60.00768     361.8939        15     1.036     0.902 -76.08   0
       537    488.2643    208.6900 307.7218100  +6.6035459     2588.565     3976.923     3759.394     85.20245     170.4725     340.4715      1.671     3.59     1012.709     60.00768     304.8108        22     1.271     1.001 -69.33   0
       538    860.3975    208.2994 307.5672001  +6.6161391     2187.454      3019.65     3720.319     84.93154     169.9987      340.099      1.396     2.90     1010.761     60.00768     389.4762        15     1.073     0.799  86.33   0
       539    719.6974    205.9421 307.6257416  +6.6124177     42723.98     60242.59     61942.03      85.0671     170.2019     340.6069      1.506     2.98     1012.807     60.00768     5775.536        54     1.335     1.170 -77.55   0
       540    322.9123    205.3442 307.7906248  +6.5993883     5800.386     11913.79     13491.44     85.33759     170.1342      340.573      2.160     6.00     1026.943     60.00768     647.3555        43     2.013     1.183 -75.49   0
       541    953.5048    204.7601 307.5286313  +6.6207036     3525.456     4292.209     4691.806     85.33759     170.1342     340.5731      1.260     2.53     1006.277     60.00768     569.8362        17     1.038     0.834 -76.42   0
       542    887.5972    202.9928 307.5560763  +6.6192372     8857.509     11746.84     12944.58     84.65975     169.9309     340.2684      1.359     2.55     1008.969     60.00768     1423.376        30     1.199     1.034 -80.21   0
       543    991.9124    203.3357 307.5127199  +6.6225710     2130.256     2784.165     2063.116     85.33759     170.4725     340.4715      1.387     2.56     1004.813     60.00768     374.2582        12     0.929     0.786 -75.29   0
       544    431.1046    202.2645 307.7457760  +6.6042855     4964.245     7736.347     7704.653     85.20245     170.4049     340.4715      1.674     3.77     1016.719     60.00768     607.6418        28     1.343     1.102 -64.45   0
       545    205.4203    199.1210 307.8396508  +6.5980164     707.5347     1244.239     1371.159     84.93153     169.9309     340.4377      1.716     5.25     1035.891     60.00768     92.36365         9     1.279     0.608 -22.18   0
       546     88.5850    193.5111 307.8883826  +6.5964085     4837.919     7196.611      7035.34     85.06711     170.0665     340.2684      1.657     3.39     1041.232     60.00768     628.4994        29     1.350     1.127 -70.88   0
       547    908.2806    192.4385 307.5478361  +6.6242850     1018.183     1278.954     1767.203     85.33759     170.3373       340.37      1.320     2.72     1007.255     60.00768     174.5655         9     0.963     0.608  84.17   0
       548    585.5128    192.4624 307.6819497  +6.6135004     567.9752     846.4005     1332.367     85.20245     170.4725     340.4715      1.485     3.76     1009.696     60.00768     91.48962         6     1.013     0.400 -71.25   0
       549    258.8532    190.1395 307.8177537  +6.6035183     33682.49     52552.74     54720.45     85.33759     170.2019     340.4377      1.678     3.50     1032.712     60.00768     3974.827        56     1.489     1.264 -75.77   0
       550    234.2163    191.2271 307.8279532  +6.6022425      6591.25     10161.21     10424.08     84.93153     170.0665     340.3361      1.649     3.49      1034.08     60.00768     865.6824        34     1.352     1.186 -75.26   0
       551    687.9944    189.5018 307.6394673  +6.6181479     945.7687     1255.672      1712.62      85.0671     169.8631      340.099      1.528     4.92     1010.156     60.00768     152.9091        11     1.171     0.837 -56.00   0
       552    382.9257    185.6308 307.7663549  +6.6095401     49764.66     77014.02     80217.73     85.20245     170.2696     340.4377      1.671     3.51     1019.995     60.00768     5669.658        62     1.467     1.292 -80.09   0
       553    138.9283    186.9109 307.8676894  +6.6008254      4151.36     6156.716     6313.866     85.33759     170.5401     340.4377      1.580     3.31     1038.581     60.00768     503.3303        26     1.314     1.068  89.11   0
       554    400.2768    185.9565 307.7591346  +6.6099870     1505.878     2225.427     2414.525     85.20245     170.2696     340.4715      1.546     4.23     1018.215     60.00768     204.2841        17     1.218     0.997 -35.19   0
       555    294.5582    183.1062 307.8031562  +6.6076203     2132.489     3885.788     5029.649      85.4725     170.2019     340.5731      2.120     5.93     1030.425     60.00768     286.1669        24     1.824     0.968 -83.18   0
       556    286.9103    183.3799 307.8063245  +6.6072507     18402.55     28525.23     30189.63     85.20245     169.9987     340.2684      1.675     3.48     1031.279     60.00768      2316.45        47     1.443     1.239 -67.31   0
       557    722.1608    181.8173 307.6255290  +6.6224622      35488.2     50276.61     52070.87     84.93153     170.1342     340.2007      1.506     3.00      1009.52     60.00768     5223.678        53     1.362     1.158 -82.08   0
       558    520.6008    183.9702 307.7092068  +6.6148359     611.5691     736.7628     672.6085     84.65975     170.0665     340.2345      1.519     3.96       1009.8     60.00768     95.43018         6     1.035     0.434 -75.99   0
       559    770.6095    182.2940 307.6053818  +6.6238828     1299.816     1866.521     2091.865     84.93154     169.8631     340.2345      1.719     3.88     1009.539     60.00768     183.8224        12     1.084     0.778 -53.05   0
       560    212.7755    183.6523 307.8371174  +6.6046507     1708.561     2241.095     2936.993     84.79575     170.2696     340.3361      1.451     2.50     1034.851     60.00768     775.1725         7     1.303     0.405  11.65   0
       561      9.4840    182.6022 307.9216159  +6.5982534     708.0415     1217.786     1505.814     84.65976     169.8631      340.099      1.961     4.38     1043.968     60.00768     112.4414         5     0.973     0.560  50.51   0
       562     39.0191    179.0833 307.9094640  +6.6006998     9209.679      13982.1     15119.83     84.93153     169.9309     340.4038      1.623     3.43     1042.645     60.00768     1246.235        34     1.406     1.139 -77.01   0
       563     72.9883    177.0537 307.8954193  +6.6026799      1601.33     2362.725     2260.513     84.65976     170.2019     340.1329      1.552     3.82     1041.252     60.00768     208.6256        15     1.113     0.927 -80.64   0
       564    980.7245    176.0401 307.5182839  +6.6334701     1249.997     1554.685     1935.026     85.20245     170.2696     340.4715      1.195     3.09     1004.258     60.00768     205.2255         9     0.990     0.572 -86.06   0
       565    948.4632    174.8670 307.5317287  +6.6328800     691.1014     871.1298     614.7112     85.33759     170.2696     340.4377      1.277     4.17     1004.995     60.00768     112.6367         6     1.020     0.487 -83.27   0
       566    670.6274    183.5464 307.6468837  +6.6200270     1201.782      1561.45     1233.909      85.0671     170.4049     340.3361      1.453     3.20     1009.371     60.00768     181.6418        11     0.915     0.850  80.61   0
       567    556.1224    166.1591 307.6950471  +6.6233791      782.989     1220.084     1070.219     85.20245     170.2696     340.4715      1.578     4.82     1007.532     60.00768     131.8641         7     1.277     0.515 -69.36   0
       568    981.4952    162.2868 307.5184248  +6.6391752     2579.114     3234.921     3711.857     85.33759     170.6752     340.5054      1.231     2.66     1003.764     60.00768      395.896        15     1.036     0.740 -81.26   0
       569    564.9963    160.0115 307.6915669  +6.6262145      939.202     1390.313     2008.734     84.93154     169.9309     340.3023      1.738     6.14     1007.059     60.00768     133.0243        11     1.250     0.954 -20.77   0
       570    573.1179    158.1057 307.6882564  +6.6272732     2089.228     2759.726     3061.557      85.0671     170.6076      340.573      1.470     3.70     1006.969     60.00768      246.448        16     1.144     0.896 -55.06   0
       571    316.9080    158.5094 307.7947002  +6.6185266     889.0781     1584.321     1416.491     85.33759     170.8102     340.5054      1.915     5.78     1027.552     60.00768     115.1329        10     1.487     0.632 -27.49   0
       572    257.7891    156.4232 307.8193344  +6.6174051     30754.54      47285.6     50067.59     84.93154     170.0665     340.3023      1.668     3.49     1032.172     60.00768     3602.723        53     1.465     1.247 -75.65   0
       573      2.9836    154.9535 307.9252527  +6.6094515     4687.343     7078.669     7173.688     84.79575     158.4203     283.4802      1.602     3.48     1043.431     60.00768     593.3656        29     1.497     1.080 -77.22  24
       574    689.4484    153.0367 307.6400893  +6.6332545     8573.062     11953.93     12366.59     85.20245     170.2019     340.3361      1.500     3.01     1006.458     60.00768     1141.198        31     1.299     1.055 -72.58   0
       575    167.1496    153.9047 307.8570796  +6.6154025     866.0872     1179.277     1430.274     85.20245     170.2019     340.6407      1.484     4.49     1035.651     60.00768     115.8124         8     0.888     0.646  45.65   0
       576    100.2082    150.1704 307.8850194  +6.6146956     4953.109     7382.721     7540.264     84.79575     170.0665     340.2007      1.585     3.29     1038.903     60.00768     686.4764        27     1.265     1.101 -80.87   0
       577    243.6724    151.1067 307.8253794  +6.6191268     735.3409     973.8808     660.3138     85.20245     170.4049     340.5054      1.441     4.39     1032.469     60.00768     109.3616         6     0.855     0.642 -57.27   0
       578    627.8362    147.2228 307.6658862  +6.6335966     791.2862     1364.583     1038.177     84.93153     169.9987     340.2007      1.801     6.26     1006.402     60.00768      115.851        10     1.346     0.819 -64.89   0
       579    562.0038    148.1083 307.6932111  +6.6310297     802.4959     1241.811     1459.916     84.93153     169.9309     340.2007      1.523     3.85     1006.607     60.00768     124.9666         6     0.940     0.453  35.46   0
       580    438.9838    147.4137 307.7443512  +6.6271992     1233.345      1634.92     1329.176      85.0671     169.9309       340.37      1.506     3.97     1011.844     60.00768     153.6647        12     0.956     0.910  72.78   0
       581    370.8377    146.1483 307.7727092  +6.6254387     3744.814     6515.153       6150.5      85.0671     170.2696     340.4377      1.815     4.15     1019.663     60.00768      386.238        33     1.493     1.245  84.60   0
       582     89.7198    144.9783 307.8895528  +6.6164870     1710.977     2447.938     2490.487     84.93153     169.9309     340.4038      1.481     3.94     1039.101     60.00768     244.2017        15     1.120     0.947  88.29   0
       583    547.1701    145.5266 307.6994617  +6.6315996     769.9814     1075.347     568.6284     85.20245     170.2696     340.4038      1.546     5.02     1006.564     60.00768     103.5225         8     1.002     0.720  70.60   0
       584    335.2285    144.9658 307.7875450  +6.6247334     3254.186     4934.309     5073.651     84.79575     169.9987     340.2007      1.602     3.68     1024.513     60.00768     419.8751        22     1.210     1.084 -87.61   0
       585    725.6399    143.2038 307.6253814  +6.6385236     665.2546     773.2831      769.924     84.52354     169.9987     340.1668      1.310     4.12     1005.273     60.00768      98.9848         6     0.757     0.641  46.58   0
       586    651.0121    142.5679 307.6564127  +6.6362934     878.1589     1299.857     1776.917     84.79575     169.9987     340.3361      1.882     5.59     1006.081     60.00768     109.1593        10     1.271     0.693  77.25   0
       587    982.0721    139.2420 307.5189577  +6.6487107     1707.191     1981.054     1808.631     85.20245     170.2696     340.4715      1.210     2.43       1001.9     60.00768     341.4622        11     0.931     0.690  74.84   0
       588    187.1938    133.8786 307.8494282  +6.6243449      5602.32     8532.084     9084.674     84.93153     169.7273     340.2007      1.612     3.39     1034.069     60.00768     755.2614        30     1.357     1.116 -75.34   0
       589     70.0276    133.7815 307.8981134  +6.6204485     2207.828      3399.29     3681.337     84.93153     170.0665     340.3361      1.636     3.48     1039.689     60.00768      319.703        19     1.164     1.014 -47.88   0
       590    648.9087    132.6608 307.6576199  +6.6403141     6399.113     9327.521     9589.322     85.20245     170.3373     340.5054      1.564     3.16     1005.503     60.00768     859.1904        32     1.395     1.137 -79.31   0
       591    796.9977    132.4763 307.5960904  +6.6453353     1179.363     1512.762     1253.074     84.79575     169.7273     340.3023      1.356     2.79     1003.647     60.00768     202.4709        10     0.953     0.668  61.87   0
       592    601.0477    130.0571 307.6775951  +6.6397895      9888.65     14786.36     16244.53     85.33759     170.2696      340.573      1.603     3.32     1005.811     60.00768     1223.381        39     1.378     1.234 -78.67   3
       593    604.6636    121.5473 307.6763790  +6.6434244     56938.75     81723.88     84868.64     85.33759     170.2019     340.4038      1.589     3.21      1005.48     60.00768     6746.831        61     1.416     1.218 -73.48   2
       594    236.0323    130.4534 307.8292515  +6.6273987     728.1907     948.0458     726.4446     85.20245     170.2696       340.37      1.392     4.73     1032.186     60.00768     98.18286         8     0.921     0.689 -46.71   0
       595    539.0349    129.3388 307.7033872  +6.6380120      694.852     1051.385     766.8524     85.33759     170.2696     340.4038      1.712     5.21     1006.143     60.00768     93.77924         8     1.099     0.697  86.94   0
       596    509.9366    125.3935 307.7156111  +6.6386675     1846.796     3093.893     2726.178     84.65975     169.9309     340.2007      1.749     4.70     1007.013     60.00768     219.2305        23     1.447     1.102  84.43   0
       597    328.2388    125.8203 307.7910954  +6.6324049     3836.722     6387.045     7112.759     84.93153     170.0665     340.1668      1.812     4.07     1024.632     60.00768     453.7041        30     1.620     1.067 -53.47   0
       598   1023.7510    127.0573 307.5020467  +6.6551301     630.8936     569.6392    -28.64865     73.12078     134.0739      254.885      0.936     3.25     1000.218     60.00768     159.4966         5     0.771     0.405 -76.59  24
       599    974.4078    124.3522 307.5226418  +6.6546042     934.8444     1215.997     1388.039     84.79575     170.1342     340.0652      1.413     3.15     1000.797     60.00768     142.1537         7     0.929     0.484 -83.65   0
       600    283.8474    115.3180 307.8098950  +6.6352529     3582.112      5620.36     6619.609     85.33759     170.2696     340.4715      1.777     3.59     1029.691     60.00768     436.6587        25     1.239     1.160 -55.76   0
       601    683.8436    109.5873 307.6438794  +6.6510094     1076.632     1467.706     1514.202     84.79575     170.1342     340.1668      1.496     4.12     1003.498     60.00768     130.8914        10     0.979     0.764 -77.33   0
       602    655.1182    108.8025 307.6558423  +6.6503737     1449.738     1902.911     1502.784     84.65975     169.8631     340.1329      1.332     2.94     1003.958     60.00768     205.2618        11     0.883     0.806  48.20   0
       603    669.0554    105.5832 307.6501592  +6.6521687     3538.681     5136.563     5085.432     84.79575     170.2019     340.1668      1.513     3.07     1003.452     60.00768     499.2982        21     1.167     1.026 -85.47   0
       604    410.7946     96.5201 307.7577803  +6.6472708     4190.005       6114.6     5849.102     84.93154     169.7952     340.2007      1.615     3.72     1011.886     60.00768     496.0241        24     1.308     1.024  78.38   0
       605    883.2397     91.9494 307.5616138  +6.6649470       4626.2     6109.265     5950.478     85.33759     170.2696       340.37      1.347     2.54     999.1323     60.00768     797.9932        22     1.136     0.920 -79.03   0
       606    865.4079     92.7860 307.5689958  +6.6640070      2500.22     3077.524     2845.127     84.93154     169.9987     340.2684      1.245     2.60     999.2719     60.00768     406.5348        16     0.980     0.906  67.59   0
       607    563.2629     92.3684 307.6945647  +6.6540890     830.7426      1246.15     1216.177      85.0671     170.3373     340.4038      1.416     5.24     1004.462     60.00768     113.2579         9     1.029     0.754 -80.83   0
       608    575.4201     90.4159 307.6895786  +6.6553019     1940.062     2772.232     2290.854     85.06711     170.0665     340.3361      1.530     3.51     1004.336     60.00768     227.5235        15     1.078     0.885 -42.74   0
       609    221.4639     89.6356 307.8366837  +6.6437646     894.2744     1366.481     1289.369     85.20245     170.2019     340.4715      1.584     5.87     1031.619     60.00768     126.3492        11     1.243     0.779 -66.42   0
       610    374.2858     88.2873 307.7732283  +6.6494470     2001.912     3146.669     2774.794      85.0671     170.4725     340.5392      1.674     3.77     1017.003     60.00768      236.105        19     1.227     1.005 -76.71   0
       611    122.2649     85.2695 307.8780498  +6.6422359     3380.235     4823.772     4782.927     85.33759     170.3373     340.4377      1.550     3.52     1034.138     60.00768     414.1176        21     1.210     1.031 -83.96   0
       612      4.0555     83.0988 307.9272400  +6.6391579     13384.25      20469.3     22342.11      85.0671     168.5009      299.606      1.631     3.18     1042.797     60.00768     1676.458        46     1.489     1.187 -78.91  24
       613    270.3370     83.7963 307.8165732  +6.6478159     1416.658     2041.573     1800.639     84.65976     169.9987     340.1668      1.585     4.98     1029.109     60.00768     174.5587        14     1.194     0.884 -57.14   0
       614    924.8572     82.0201 307.5446526  +6.6704344     768.2985     1092.571     1806.371     84.93153     170.1342     340.2345      1.499     4.37     998.3027     60.00768      131.326         7     1.062     0.511  55.95   0
       615    738.8113     82.0666 307.6219632  +6.6642096     820.1511     1454.479     2850.668     84.79575     170.0665     340.3023      2.887     4.84     1000.881     60.00768     113.1211         7     0.954     0.695 -80.65   0
       616    531.2542     82.8380 307.7081865  +6.6569537     944.5407     1469.678     1238.715     85.33759     170.3373     340.4377      1.703     3.17     1004.685     60.00768      182.077         9     0.931     0.767 -33.85   0
       617    750.6106     78.0043 307.6171966  +6.6662810     3640.834     5150.222     4942.398     84.93153     169.9309     340.3361      1.426     2.93     1000.321     60.00768     550.8594        21     1.202     0.960  69.06   0
       618    805.7333     77.7648 307.5942982  +6.6682196     7215.546     9701.893     10411.46     85.20245     170.3373     340.5054      1.410     2.70     998.9937     60.00768     1078.396        27     1.144     1.048 -65.80   0
       619    396.0391     78.7610 307.7645106  +6.6541097     1065.015     1355.748     1236.173      85.0671     170.2696     340.3023      1.425     3.79     1013.947     60.00768      164.446        11     0.985     0.809 -43.96   0
       620    896.2868     78.0436 307.5566587  +6.6711243     625.6849     792.7943     753.1754     85.33759     170.1342     340.4377      1.209     4.25     998.1195     60.00768     89.74268         7     0.755     0.682 -82.90   0
       621    543.9082     82.7782 307.7029303  +6.6574017     735.9802     1036.509     1560.605     85.33759     170.0665     340.2684      1.739     5.15     1004.205     60.00768     98.70941         9     1.139     0.658 -40.53   0
       622    513.2510     76.1376 307.7158932  +6.6591180     1180.193     1505.237     1793.983     85.33759     170.2019     340.4377      1.499     3.32     1005.081     60.00768      175.704        12     1.031     0.788 -29.63   0
       623     29.1324     76.1861 307.9170545  +6.6428558     1057.803     1262.106     1486.114     84.79575     170.1342     340.3361      1.366     4.62     1040.001     60.00768     152.1156         9     1.028     0.590 -55.37   0
       624     44.3948     75.0276 307.9107521  +6.6438474     3303.804      4583.28     4096.506     84.79575     170.0665     340.2345      1.542     3.41     1038.703     60.00768     435.9229        18     1.171     0.941 -85.18   0
       625    405.8065     74.8228 307.7605847  +6.6560632     847.8205     1427.258     1253.979     84.79575     170.0665     340.2684      1.829     4.29     1012.566     60.00768      123.918         9     1.106     0.628 -49.53   0
       626    568.1117     71.4842 307.6932530  +6.6628751     1350.129     1764.804     1666.438      85.0671     170.4725     340.5054      1.449     3.47      1003.61     60.00768     169.5853        12     0.997     0.797 -87.56   0
       627    386.3279     65.8164 307.7689825  +6.6591296     1151.738     1541.458     1475.458     84.79575     170.2019     340.3361      1.425     4.27     1015.302     60.00768     171.3494        11     1.156     0.694 -89.83   0
       628     59.3054     66.6203 307.9048411  +6.6478204     783.5892     1068.857      1222.96     85.20245     170.0665     340.2684      1.348     3.30     1036.878     60.00768     130.7189         6     0.706     0.654  45.03   0
       629    745.4158     65.4298 307.6197780  +6.6713001     2240.767      3221.23      3152.28     84.93154     169.9987       340.37      1.523     2.90     999.6233     60.00768     324.0797        14     1.041     0.847  89.97   0
       630     83.5114     64.5929 307.8948518  +6.6494713     1020.954     1465.429      1426.57     84.79575     169.9309     340.1668      1.521     3.34      1034.87     60.00768     166.9364        10     0.968     0.750 -88.97   0
       631     72.0938     59.2468 307.8997768  +6.6512950     10060.62     14894.33      15259.8     85.20245     170.2019      340.573      1.592     3.38      1035.34     60.00768     1266.624        37     1.348     1.168 -79.69   0
       632    401.0904     59.0140 307.7630776  +6.6624331     2525.406      3553.46     3487.164      85.0671     170.0665     340.2684      1.511     3.56     1013.239     60.00768     339.5563        21     1.276     0.998 -48.55   0
       633    238.8178     53.5569 307.8306916  +6.6592449     1415.565     2321.489       3016.5     84.79575     170.1342     340.2007      1.814     3.76     1029.161     60.00768     209.5414        14     1.129     0.895  58.22   0
       634    614.7955     51.2495 307.6745348  +6.6727918     19661.14      28062.3     29205.86     84.65976     170.0665     340.0652      1.528     3.05     1002.476     60.00768     2509.784        42     1.295     1.170 -77.24   0
       635    514.5887     47.4194 307.7163049  +6.6710216     5425.278     8118.717     8271.014     84.93154     169.9309     340.3361      1.635     3.46     1003.893     60.00768     646.7748        29     1.384     1.077 -71.38   0
       636    232.8485     47.8066 307.8333663  +6.6614190     1909.941     3071.844     4231.441     84.79575     170.0665     340.0313      1.936     4.32     1029.125     60.00768     219.9374        17     1.203     0.956 -61.46   0
       637    601.1607     41.6379 307.6805243  +6.6763050     3362.291     5448.882     5994.481      85.0671     170.2019     340.3023      1.857     3.97     1002.403     60.00768     495.4327        30     1.772     1.029  77.64   0
       638    420.1534     42.9435 307.7556981  +6.6697078     23222.19     35347.12     36343.08     85.33759     170.2696     340.5392      1.622     3.35     1010.773     60.00768     2818.437        43     1.379     1.223 -69.98   0
       639    300.7353     43.7995 307.8052924  +6.6653514     1118.019     1926.547     1873.997     84.52354     169.8631     340.1668      1.729     4.04     1025.379     60.00768     152.5087        11     1.118     0.693 -78.93   0
       640    240.7823     43.4215 307.8302177  +6.6634960     9561.753      14509.7     15733.84      85.0671     170.0665       340.37      1.648     3.40     1028.565     60.00768     1187.855        33     1.318     1.169 -61.67   0
       641      6.2712     43.0268 307.9276762  +6.6557789      2495.37     3513.807     3840.116     84.93153     170.1342     325.6643      1.494     3.22     1038.233     60.00768     310.5264        21     1.205     0.972 -84.23  16
       642    897.9869     42.9482 307.5571301  +6.6856734     2325.461     2984.394     3320.846     84.65976     170.2019     340.1668      1.345     2.77     995.7102     60.00768     402.1628        16     1.060     0.902  78.93   0
       643    533.3064     42.6368 307.7086879  +6.6736228     719.0856     785.5153     595.4045     85.47251     170.1342     340.5392      1.228     3.89     1003.022     60.00768     108.7145         6     0.940     0.461 -88.67   0
       644    506.0913     43.2454 307.7199766  +6.6724608     747.3914     1113.845     1257.688     85.33759     170.2019      340.573      1.614     4.63     1004.098     60.00768     119.3981         8     0.948     0.642  -4.99   0
       645    228.7871     39.9777 307.8353185  +6.6645154     3031.931     4707.421     5153.879      85.0671     170.0665     340.3361      1.665     3.59       1028.9     60.00768     400.2252        24     1.214     1.159 -49.90   0
       646    281.8517     38.2047 307.8133281  +6.6670282     1024.249     1837.442     2471.834     84.65975     170.0665     340.0313      2.057     5.18     1026.724     60.00768     136.3456        12     1.329     0.658  79.66   0
       647    918.4346     33.2653 307.5489576  +6.6903534     1023.045     1215.392     1169.841     85.20245     170.2696     340.4715      1.169     2.81     995.0235     60.00768     187.2282         8     0.880     0.621 -84.56   0
       648    669.9401     32.4859 307.6522504  +6.6823831     2015.499     2888.515     2589.729      85.4725     170.3373     340.5392      1.490     3.42     999.0663     60.00768     304.4907        15     1.138     0.897 -81.24   0
       649     75.0203     32.4998 307.8994659  +6.6624378     709.0765     1159.974     923.3308     85.33759     170.1342     340.2007      1.793     5.45     1033.292     60.00768     90.36353         9     1.038     0.808 -14.82   0
       650    181.4451     28.5384 307.8553772  +6.6676495     771.3781     892.7002     1203.526     85.20245     170.2019     340.5392      1.082     3.70     1029.767     60.00768     122.2983         6     0.910     0.433 -17.94   0
       651    158.3277     25.4106 307.8650890  +6.6681647     11305.36     16502.62     16861.93     84.79575     169.8631     340.2684      1.603     3.29     1030.234     60.00768     1461.276        34     1.313     1.133 -81.20   0
       652    235.9548     27.3235 307.8327675  +6.6699813     833.6949     1208.221     959.8796     85.20245     170.3373     340.4715      1.506     4.68     1028.005     60.00768     122.7649         7     1.017     0.728 -39.37   0
       653    502.3583     23.6212 307.7221891  +6.6804393     3028.729     4504.992     4696.771     84.93154     170.0665     340.2684      1.590     3.32     1003.548     60.00768     382.3629        23     1.249     1.046 -84.08   0
       654    903.7647     23.1118 307.5553948  +6.6940573     4857.641     6420.841     7230.404     85.33759     170.1342     340.4377      1.364     2.54     994.3407     60.00768     850.8026        23     1.157     0.920 -82.59   0
       655    220.6224   1021.4427 307.8055750  +6.2589600     1734.354     2133.985     2207.711     84.79575     164.3466     292.1678      1.280     2.77     1059.151     60.00768     279.7527        11     0.945     0.721  80.56  16
       656    440.6052     21.9229 307.7479082  +6.6790730     1876.449     2645.761     2711.434     84.93153     169.7273     340.2684      1.574     3.95     1008.536     60.00768     226.3849        17     1.192     0.946  86.01   0
       657    877.2350   1021.5956 307.5329267  +6.2808463     568.9094     626.9805     785.6406      84.3871     163.0796      289.911      1.284     3.37     1040.814     60.00768     93.95947         5     0.761     0.431 -21.95  16
       658    695.9146   1019.5256 307.6082875  +6.2756539     3553.187     4490.721     4627.016      85.4725     170.6077     317.3493      1.274     2.41     1045.221     60.00768     673.2534        17     1.147     0.764 -86.51  16
       659    419.0000   1020.3372 307.7232430  +6.2660627     1083.361     1186.872     1523.545     84.52354     169.9987     307.1268      1.311     2.93     1055.351     60.00768     218.9933         8     0.946     0.621 -78.48  16
       660    711.4030   1018.7334 307.6018828  +6.2764980     1331.832     1879.874     1803.151     84.65976     169.9309     325.4519      1.283     4.04     1044.736     60.00768     208.7738         9     1.156     0.548 -75.39  16
       661    342.6638   1017.1392 307.7550469  +6.2648273     2277.312     2850.931     3027.342     85.33759     170.2019     338.1964      1.249     2.67     1056.889     60.00768     414.6398        14     1.006     0.743  83.62  16
       662    952.8516   1014.8687 307.5017526  +6.2861428     833.4152     1049.054     829.2723     85.20245     170.1342       340.37      1.329     3.45      1037.38     60.00768     164.1207         6     0.915     0.461 -56.62   0
       663    577.1343    996.5088 307.6583827  +6.2811914     1559.762     1901.136     1911.948     85.20245     170.4725     340.4377      1.183     2.32     1050.916     60.00768     317.7566        10     0.885     0.645 -84.39   0
       664    524.8315   1007.3213 307.6797370  +6.2749781     5355.595     6996.492     7224.568     85.20245     170.2696     340.4038      1.326     2.68     1053.994     60.00768     1005.434        22     1.175     0.845 -77.87   0
       665    495.1914   1008.4952 307.6920050  +6.2735021     1420.349     1700.922     1579.692      85.0671     169.8631     340.1668      1.287     2.56     1054.052     60.00768     250.9207        11     0.929     0.731 -66.94   0
       666    729.3709   1006.6147 307.5948286  +6.2821021     10089.16     12432.25     13131.14     84.93154     169.9987     340.3361      1.199     2.46     1043.942     60.00768     1785.665        25     1.135     0.832 -78.31   0
       667    274.9462   1006.0235 307.7835391  +6.2671485     18305.09     23712.38     25671.01     84.79575     170.2696     340.2345      1.316     2.38     1058.797     60.00768     3583.266        36     1.249     0.969 -68.93   2
       668    790.6874   1005.9266 307.5693904  +6.2844317     1399.555     1417.698      1154.07     85.47251     170.6077     340.4377      1.137     2.42      1042.81     60.00768     251.2487         8     0.776     0.633 -64.65   0
       669    399.3796   1006.1542 307.7318674  +6.2712627     987.5267     1314.802     1229.282     84.93153     170.2019     340.2684      1.174     2.51     1055.545     60.00768     171.5924         7     0.730     0.615  82.08   0
       670    246.3459   1003.5684 307.7954972  +6.2672035     1081.647     1309.333     1005.958     85.20245     170.3373       340.37      1.266     3.85     1058.958     60.00768     177.9066         6     0.898     0.474 -87.32   0
       671    890.6968   1000.0875 307.5280575  +6.2901767     11559.04     14228.18     14769.24     85.33759     170.6752     340.4715      1.270     2.43     1039.564     60.00768     2101.933        26     1.120     0.888 -85.29   0
       672    522.0605    999.4160 307.6811536  +6.2781499     10567.12     13018.49     13866.88     84.79575     170.2019     340.1668      1.257     2.45     1053.757     60.00768     2014.882        24     1.120     0.832 -72.87   0
       673    864.3676    996.2870 307.5391182  +6.2908688     15935.25     20377.88     20951.71     85.33759     170.0665     340.4377      1.302     2.46     1040.276     60.00768     3001.623        39     1.176     1.106 -28.03   0
