#   1 NUMBER                 Running object number                                     
#   2 X_IMAGE                Object position along x                                    [pixel]
#   3 Y_IMAGE                Object position along y                                    [pixel]
#   4 ALPHA_J2000            Right ascension of barycenter (J2000)                      [deg]
#   5 DELTA_J2000            Declination of barycenter (J2000)                          [deg]
#   6 FLUX_APER              Flux vector within fixed circular aperture(s)              [count]
#   9 FLUXERR_APER           RMS error vector for aperture flux(es)                     [count]
#  12 FLUX_RADIUS            Fraction-of-light radii                                    [pixel]
#  13 FWHM_IMAGE             FWHM assuming a gaussian core                              [pixel]
#  14 BACKGROUND             Background at centroid position                            [count]
#  15 THRESHOLD              Detection threshold above background                       [count]
#  16 FLUX_MAX               Peak flux above background                                 [count]
#  17 ISOAREA_IMAGE          Isophotal area above Analysis threshold                    [pixel**2]
#  18 A_IMAGE                Profile RMS along major axis                               [pixel]
#  19 B_IMAGE                Profile RMS along minor axis                               [pixel]
#  20 THETA_IMAGE            Position angle (CCW/x)                                     [deg]
#  21 FLAGS                  Extraction flags                                          
         1    173.9084     27.4317 307.8653163  +6.6680676     5939.216     14612.19     16316.14     91.50516     182.0697      364.502      2.438     5.73      1191.58     64.24302     651.5273        56     1.933     1.648 -73.67   0
         2    703.4390     17.6584 307.6454224  +6.6897502      4559.96     9759.366     10637.28     91.36072     182.3597     364.5382      2.232     5.01      1159.04     64.24302      435.696        46     1.707     1.580 -76.05   0
         3    623.7430     17.0428 307.6785888  +6.6873548     2322.868     4917.849     4488.747     91.21604     182.2148     364.4658      2.182     5.61     1159.617     64.24302     230.2231        32     1.620     1.406 -43.49   0
         4    424.0048     13.3438 307.7617836  +6.6822317     3121.094     8181.245       9148.5     90.63504     182.0698     364.1395      2.469     6.43     1171.803     64.24302      324.326        46     1.930     1.589 -66.48   0
         5     25.0906     13.0587 307.9276916  +6.6690256      5046.94     11626.23     13727.46     91.21604     182.2872     364.6107      2.441     5.34     1192.672     64.24302     607.6829        53     1.938     1.554 -62.78   0
         6    320.5367      8.2334 307.8049874  +6.6808915      6999.86     17377.38     20453.13     91.21604     182.3597     363.8492      2.507     5.93     1183.182     64.24302     715.8148        66     2.068     1.696 -67.16  16
         7     94.4050      8.4559 307.8990225  +6.6732453     1484.794     3130.742     3782.276     90.63505     182.0698     364.1395      2.445     6.22     1192.664     64.24302     181.1382        20     1.558     1.084 -20.62  16
         8     86.2265      8.1398 307.9024344  +6.6731023     873.6768     1918.444     2927.229     90.92601     182.2872     363.2317      2.526     5.74     1192.583     64.24302     139.5737        10     1.391     0.667 -29.43  18
         9    386.7340      6.3324 307.7775212  +6.6838845     1169.254     2785.403     3297.065     91.36072     182.2872     349.3687      2.570     9.06     1176.112     64.24302     117.2451        24     1.652     1.388 -18.40  16
        10    647.3679      2.4390 307.6692559  +6.6941710     6294.779     11085.63     11399.95     90.92601     162.4421     294.2975      1.891     5.25     1159.019     64.24302     618.3312        33     1.609     1.223 -14.21  24
        11    525.6292      2.2978 307.7198920  +6.6901785      656.955     1104.005     1184.514     90.48921     160.3967     291.9094      1.816     5.80     1161.731     64.24302     99.22595         8     1.098     0.863  16.91  24
        12    811.5184      1.7421 307.6010076  +6.6999126     973.8535     1395.255     1734.878     85.38282     152.0267     281.9207      1.500     5.20     1152.975     64.24302     153.3877         8     1.016     0.752 -31.73  24
        13    246.6574      1.5573 307.8359385  +6.6811821     1250.239     1947.182     1547.411     82.55166     148.6001     278.4326      1.538     5.98     1189.837     64.24302     197.2904        14     1.471     0.702   0.97  24
        14    880.0157    997.7365 307.5390241  +6.2908804     11571.48     19294.17     20493.27     90.78064     182.1423     364.2845      1.766     3.60     1219.267     64.24302     1523.757        48     1.615     1.223 -59.98   0
        15    951.9836   1022.5572 307.5082819  +6.2830154     6529.753     9031.361      9042.13     90.78064     162.6047     294.2975      1.506     3.60     1220.573     64.24302     892.6206        28     1.408     0.954 -32.97  24
        16    711.7701   1020.9901 307.6081611  +6.2756954     2383.308     4017.926     3898.599     90.78064     179.9539     319.6799      1.785     4.09      1225.61     64.24302     315.1382        24     1.455     0.997 -57.89  24
        17    706.2346   1023.2889 307.6103841  +6.2745623      800.754     978.3983     1092.358     84.76185     151.2429     281.3111      1.304     4.69     1226.024     64.24302     119.9714         9     0.909     0.761  -1.02  25
        18    236.4784   1022.6876 307.8056141  +6.2591748     989.2661     1384.817     1129.642     90.34315      161.218     292.3615      1.510     4.28     1231.396     64.24302     162.1444         9     1.022     0.795 -43.91  24
        19    592.8002    998.0606 307.6583736  +6.2812114     1190.702     2221.483     2350.883     90.48921     181.9972      364.067      1.908     5.82       1226.1     64.24302     151.3373        17     1.344     1.001 -70.97   0
        20    524.2319    996.9624 307.6869054  +6.2793845     3473.876     6390.991     6914.439     90.92601     181.9972      364.212      1.890     4.16      1226.53     64.24302     406.8275        35     1.561     1.289 -59.19   0
        21   1001.7091    997.2215 307.4884673  +6.2951250     4722.497     7107.593     7006.875     91.36072     182.0697     364.3208      1.633     3.62     1217.346     64.24302     616.5461        26     1.427     0.952 -61.86   0
        22    633.8457    995.9370 307.6413877  +6.2834527     1129.417     2092.012     1946.643     91.21604     182.2148      364.502      1.760     4.94     1225.576     64.24302     187.0839        15     1.329     0.972 -69.68   0
        23    477.4528    993.4694 307.7064631  +6.2792704     2005.164     3561.496     3702.619     91.21605     182.1423     364.3933      1.896     4.64     1226.625     64.24302     236.0931        21     1.437     1.023 -57.41   0
        24     59.2448    995.9285 307.8801673  +6.2643068     830.0602       1467.9      2014.17     91.21604     182.2872     364.4658      1.957     4.52     1231.427     64.24302     120.7266         8     1.129     0.741 -52.16   0
        25    911.8044    985.3248 307.5262301  +6.2970597     41788.16     66573.24      70847.6     90.92601     181.7067     364.3571      1.713     3.54     1217.882     64.24302     5394.586        68     1.652     1.242 -61.27   0
        26    218.9867    984.2089 307.8141840  +6.2744808     1356.411     2211.263     2310.626     91.07114     181.9972     364.3571      1.731     4.79     1230.522     64.24302     166.3904        14     1.293     0.798 -55.27   0
        27    106.5768    982.9954 307.8609369  +6.2712289     668.1946     1031.699     1209.169     90.92601     181.9972     364.2845      1.840     5.10     1230.735     64.24302     108.4988         6     1.067     0.691 -30.70   0
        28    618.0042    981.9495 307.6484423  +6.2887024     709.9116     940.4751     275.5895     90.63504     181.9972     364.0307      1.254     4.17      1225.02     64.24302     101.5526         7     0.902     0.549 -42.10   0
        29    809.7882    979.2098 307.5688324  +6.2962023     2176.998     3659.469     3758.982     91.07114     182.0697     364.4295      1.806     4.05     1219.153     64.24302     285.0867        24     1.451     1.011 -52.63   0
        30    757.9466    977.0765 307.5904489  +6.2953630     5885.608     9925.914     10810.54     91.50516     182.2872     364.4658      1.839     3.70     1220.788     64.24302     763.7529        40     1.759     1.144 -61.66   0
        31    227.6080    976.2362 307.8108710  +6.2780607     1151.813     1922.795     2183.683     90.63505     182.0698     364.1758      1.818     3.90     1230.355     64.24302      177.786        13     1.085     0.984  77.60   0
        32    191.8577    975.6745 307.8257463  +6.2770996     757.3432     1367.598      1508.65     91.36072     182.2872     364.4658      2.029     5.21     1230.241     64.24302     107.6447         7     1.147     0.668 -44.09   0
        33     52.4134    974.3547 307.8837368  +6.2729871      2375.72     4395.407     4757.416     90.63505     182.0698     364.1758      1.994     4.31      1230.83     64.24302     296.8164        29     1.533     1.192 -55.63   0
        34    946.0898    971.9567 307.5124304  +6.3037163     6668.608      10290.5     10966.37     91.36072     182.1423      364.502      1.671     3.58     1216.178     64.24302     944.0212        35     1.478     1.160 -74.41   0
        35    919.8025    963.8951 307.5236260  +6.3061744     1989.431      3252.84     3165.479     90.92601     181.9246      364.067      1.749     4.27     1215.908     64.24302     301.4788        21     1.346     1.080 -44.00   0
        36    253.0824    960.2375 307.8008259  +6.2855172     3451.496     6207.956     6603.281     91.36072     182.2872     364.4295      1.944     4.31     1230.001     64.24302     357.6661        32     1.490     1.302 -83.02   0
        37    640.6976    959.6935 307.6397611  +6.2986474     3776.494     6691.023     6809.922     91.36072     182.9381     364.3571      1.888     4.12     1223.062     64.24302     440.2887        32     1.602     1.137 -57.83   0
        38    779.5026    959.9024 307.5820682  +6.3031706     1233.358     1925.453     2157.854     91.36072     182.8659     364.2845      1.749     4.05     1219.257     64.24302     160.5348        10     1.066     0.676 -43.28   0
        39    462.8448    958.1201 307.7137265  +6.2933817     683.9081     1267.533     1280.438     91.36072     182.2872     364.4658      1.917     7.52     1225.844     64.24302     89.82031        11     1.754     0.901 -57.15   0
        40     21.7023    957.7430 307.8970616  +6.2788201     1722.096     2925.781     2890.407     91.21604     182.2872     364.6831      1.774     5.23      1230.83     64.24302      222.874        18     1.466     0.822 -80.02   0
        41    989.8515    959.3596 307.4946661  +6.3103680     644.3082     619.5062      1002.69     91.36072     182.2872     364.4295      1.102     2.67     1214.533     64.24302     122.3105         5     0.725     0.447 -17.82   0
        42    872.2040    956.3630 307.5436609  +6.3077071     823.3502     1242.397      875.723     90.34314     181.9972     364.2483      1.718     4.89     1216.658     64.24302     155.7239         7     1.144     0.593 -32.85   0
        43    943.9896    953.1557 307.5139346  +6.3114108     649.9197      1197.47     921.6436     90.78064     182.1423     364.1395      1.612     5.32     1214.506     64.24302     98.35803         9     1.547     0.517 -65.48   0
        44    565.3446    952.2488 307.6713275  +6.2992167     1336.841     2419.501     1906.232     91.36072     182.2872     364.5382      1.798     5.11     1224.291     64.24302     164.0131        16     1.325     0.939  52.55   0
        45    996.5937    951.8077 307.4921175  +6.3137099     678.1039     1186.254     1189.264     90.63505     182.0697     364.2845      1.791     3.38     1213.906     64.24302     135.5709         5     1.049     0.315 -67.87   0
        46    604.2205    949.2186 307.6552734  +6.3017607     901.6353     1471.862     1039.566     91.07114     182.2148     364.3571      1.764     5.06     1223.691     64.24302     110.4789         8     1.150     0.629  81.40   0
        47    285.0172    946.6262 307.7880151  +6.2922031     949.6154     1696.907     1827.651       90.926     181.9972     364.3571      1.859     5.13     1229.713     64.24302     119.5754        11     1.032     0.826 -81.49   0
        48    888.7421    939.0917 307.5373681  +6.3153878     6482.719     10536.06     10469.94     91.21604     182.2148     364.5745      1.721     3.70     1214.912     64.24302     800.5774        35     1.571     1.109 -53.89   0
        49    751.1958    941.6948 307.5944449  +6.3097501     740.3686     768.4448     293.5193     91.07114     181.9246      364.212      1.291     3.29     1218.947     64.24302     126.2139         6     0.896     0.619  72.24   0
        50    424.6750    936.3595 307.7303234  +6.3010969      1519.47      2986.84     3194.536     91.21604     182.2872      364.502      2.113     5.32     1226.423     64.24302     198.4852        21     1.447     1.186 -33.39   0
        51    326.4983    934.7845 307.7711768  +6.2984761     7448.542     13503.98     15164.03     91.36072     181.9972     364.1758      1.985     4.17      1228.36     64.24302     835.7001        44     1.616     1.384 -67.01   0
        52    246.6155    933.8597 307.8044053  +6.2961941     5290.993      10338.1     11265.85     90.78064     182.2148     364.1758      2.083     4.30     1229.425     64.24302     620.6163        45     1.716     1.393 -67.66   0
        53    574.8323    927.8981 307.6682053  +6.3095880      1090.26     1686.517     1924.617     91.36072     182.1423     364.6107      1.717     4.14       1223.1     64.24302     154.0992         8     0.966     0.699 -66.03   0
        54    904.3807    924.3339 307.5313644  +6.3220006     1069.144     1835.095      1792.76     90.92601     182.2872     364.3571      1.968     6.26     1213.328     64.24302     145.1946        14     1.408     0.781 -60.06   0
        55    741.0137    917.1404 307.5995028  +6.3195520     1235.508      2166.61     2436.239     90.63504     182.2148     364.1395      1.955     4.66      1217.62     64.24302     158.7662        12     1.146     0.758 -74.56   0
        56    526.1693    912.2736 307.6889563  +6.3144216     899.7371     1781.359     2145.919     91.21604     182.2872     364.4658      2.138     4.80     1223.527     64.24302      129.343         8     1.090     0.598 -56.39   2
        57    605.0225    913.5145 307.6561432  +6.3165316     649.7968     1023.924      715.213     91.36072     182.0697     364.3571      1.652     5.05     1221.876     64.24302     80.22876         6     1.083     0.666  55.10   0
        58    972.1426    912.5640 307.5035971  +6.3291064     1243.718     2144.464     2776.688     91.21604     182.2872      364.502      1.856     3.77     1211.099     64.24302     168.9772        11     0.998     0.791 -54.10   0
        59    659.7612    910.5758 307.6334927  +6.3195644     2028.942     3617.661     4481.025     90.92601     182.0698     364.2483      2.012     4.80      1219.21     64.24302     269.8982        25     1.518     1.121 -65.77   0
        60   1010.5140    910.1207 307.4877313  +6.3313861      599.048     743.9142     949.6851     91.21604     182.6491     364.5745      1.666     4.19     1209.898     64.24302     85.42578         6     1.057     0.474 -31.74   0
        61     56.1926    907.0198 307.8844476  +6.3009186     2156.709     3986.447     4095.555     90.92601     181.9972     364.2483      1.940     5.08     1228.951     64.24302     272.3597        24     1.516     1.172 -75.20   0
        62    199.7540    906.2269 307.8248144  +6.3060412     1686.383     3422.088     3889.439     90.78064     182.3597     364.3571      2.103     5.15     1228.302     64.24302     199.0145        22     1.341     1.190 -89.12   0
        63     73.6943    905.9247 307.8772116  +6.3019558      1583.64     2803.323     3626.763     91.21604     182.5045      364.502      2.157     3.91     1228.559     64.24302     223.3516        16     1.253     0.861 -88.85   0
        64    937.2831    905.8282 307.5183114  +6.3307332     750.4202      1269.07     1240.628     91.21604     182.0698     364.3933      1.700     3.47     1211.648     64.24302     121.1594         7     0.839     0.623  62.96   0
        65    820.4567    906.4042 307.5668468  +6.3266221     716.3288     1179.733     1372.976     90.63505     182.1423     364.1395      1.682     3.36     1215.486     64.24302     105.5975         5     1.041     0.315 -22.31   0
        66    654.1301    899.7455 307.6361978  +6.3238497     5395.674     10034.21     10842.39     91.21604     182.1423     364.4295      1.991     4.37     1219.012     64.24302     635.5636        39     1.679     1.231 -64.16   0
        67     14.2571    899.2751 307.9021371  +6.3027147     904.4785      1667.91     1571.337     91.36072     182.2148     364.4295      2.082     5.59     1229.559     64.24302     116.5504         9     1.154     0.764  29.62   2
        68     26.9948    896.9696 307.8969219  +6.3040927     771.4205     1376.488     1423.458     90.78064     182.0697      364.212      1.914     4.58     1229.252     64.24302     155.5433         7     1.292     0.675  58.72   0
        69    891.7415    895.7416 307.5375782  +6.3333892       2486.7     3846.177     4667.958     91.36072     182.2872      364.502      1.563     3.59     1212.463     64.24302     347.0873        19     1.258     0.908 -45.08   0
        70    337.2012    893.1022 307.7681373  +6.3160455     11877.83     23476.71      26934.8     90.78064      181.852      364.067      2.126     4.30     1226.949     64.24302     1354.581        60     1.823     1.474 -60.87   0
        71     71.7977    894.0601 307.8784017  +6.3067918     1081.335     2022.834      2241.25     90.63504     181.9246     364.1395      1.931     6.80     1228.346     64.24302     146.4054        15     1.397     1.002 -31.53   0
        72    208.0973    893.0825 307.8217918  +6.3117475     1053.062     1777.108     1392.953     91.36072     182.7214     364.5382      1.826     6.13     1227.959     64.24302     120.4132        13     1.491     0.709 -46.12   0
        73    414.8810    883.2542 307.7361866  +6.3227006     773.4028     1797.081     1483.114     91.36072     182.2872     364.5382      2.355     6.34     1224.756     64.24302     109.3729         9     1.265     0.892  34.83   2
        74    100.4129    883.9075 307.8668538  +6.3119403     1218.198     2604.536     2680.067     91.07114     181.9972      364.212      2.109     7.26     1227.718     64.24302     162.4136        19     1.568     1.019 -80.39   0
        75    755.0276    884.0331 307.5947926  +6.3336893     3381.331     3593.455     3983.449     90.78064     181.9972      364.212      0.434     0.00     1215.616     64.24302     2726.641         6     0.344     0.279  55.18   0
        76    882.1949    877.5792 307.5421563  +6.3405732     1821.026     2933.559      2565.67     90.92601     181.9972     364.2483      1.669     3.94     1211.696     64.24302     230.5831        17     1.202     0.963 -79.55   0
        77    816.2976    876.7720 307.5695719  +6.3387211     2427.907     4255.913     4852.099     91.50516     181.9972     364.4295      1.921     4.45      1213.75     64.24302     335.4436        25     1.632     0.996 -52.09   0
        78     83.3541    876.5638 307.8741919  +6.3144028      1624.53     4447.525     4885.232     91.07114     182.2148     364.3571      2.515     8.73     1227.822     64.24302     1035.044        24     2.084     1.022  34.94   0
        79    852.9738    877.1730 307.5543150  +6.3397720     1769.754     3076.872      3416.35     90.78064     182.0697     364.2845      1.784     5.54      1212.28     64.24302      221.762        19     1.522     0.900 -43.57   0
        80    552.2463    868.1968 307.6796049  +6.3334908     243069.8     474624.3     522620.3     90.63504     181.9972      364.067      2.073     4.34     1222.313     64.24302     26806.22       176     1.974     1.647 -63.69   0
        81    396.6017    870.8029 307.7442039  +6.3272334     5734.449     11240.23     11978.14     90.63505     181.7794     364.1758      2.073     4.38     1224.867     64.24302     592.3662        46     1.729     1.379 -60.40   0
        82    339.7524    869.3397 307.7678799  +6.3259432     8921.599     17718.95     19515.12     91.36072     182.2872     364.5382      2.129     4.49      1226.38     64.24302     893.2384        52     1.794     1.433 -66.16   0
        83    639.9127    870.2957 307.6430988  +6.3355388     789.5092     1570.739     1586.135     91.36072     182.7214     364.5382      2.025     7.98     1218.153     64.24302     109.8489        12     1.724     1.033 -46.47   0
        84    890.4193    864.1732 307.5391886  +6.3463820     4482.192     7840.771     9351.681     90.92601     182.0697     364.3571      1.944     3.98     1210.899     64.24302     563.4744        34     1.576     1.154 -57.34   0
        85    658.2176    865.0258 307.6356685  +6.3383233     2614.505     5059.878     5454.456     90.92601     182.0697     364.3933      2.065     4.54     1217.369     64.24302     317.9065        30     1.537     1.235 -42.87   0
        86    632.8471    859.3705 307.6464034  +6.3398156     2531.794     4988.212     5833.071     90.92601     182.3597     364.3571      2.149     4.89     1217.771     64.24302     284.2397        29     1.644     1.140 -61.15   0
        87   1023.2559    858.5798 307.4841652  +6.3530926     3697.774     5017.819     5480.046     84.44965     151.8529      281.827      1.396     3.77     1203.905     64.24302     601.4326        19     1.371     0.758 -77.06  24
        88    821.3334    858.6746 307.5680875  +6.3463617     1313.551     2249.255     2209.502     91.50516     182.4321     364.4295      1.830     5.17     1212.377     64.24302     200.8259        15     1.356     0.930 -68.88   0
        89    625.1921    854.7772 307.6497397  +6.3414580     1496.336     3469.632     4657.394     90.78064     182.0697     364.2483      2.579     8.93     1217.756     64.24302     192.5593        28     2.156     1.218 -61.01   0
        90    948.0736    857.6536 307.5154447  +6.3509851     732.3975      1300.22     1205.347     91.21604     182.2872     364.4658      2.073     4.45     1208.908     64.24302     131.1874         6     0.993     0.567 -63.67   0
        91    909.3569    851.9520 307.5317282  +6.3520567     2853.372      4558.18     4544.879     91.36072     182.2148     364.3933      1.733     3.77     1209.802     64.24302     395.6063        22     1.340     1.039 -59.17   0
        92    319.9435    852.7126 307.7766744  +6.3321490     836.1846     1564.641     1418.671     91.36072     182.1423     364.6107      1.984     6.52     1226.152     64.24302     92.63306        10     1.137     1.049 -50.82   0
        93    367.3385    848.2628 307.7571271  +6.3355663     1891.562     3677.266     4466.437     91.36072     182.2872      364.502      2.243     5.04     1225.082     64.24302     267.8496        23     1.380     1.208 -74.12   0
        94    503.6685    838.1499 307.7008079  +6.3442826      2305.98     4421.624     4834.584     91.21604     182.2148     364.4658      2.099     5.21     1220.501     64.24302     280.2632        29     1.583     1.228 -64.03   0
        95    848.3013    836.9449 307.5576094  +6.3562297     901.3964     1531.899     1589.487     91.21604     182.2872     364.7556      2.040     6.42      1210.12     64.24302     97.80151        11     1.302     0.887 -66.30   0
        96    550.6655    834.1484 307.6814100  +6.3474987     4187.396     8464.516     9778.346     91.36072     182.2148     364.4658      2.188     4.72     1219.297     64.24302     448.3995        43     1.778     1.362 -57.07   2
        97    557.4271    833.4911 307.6786219  +6.3479950     987.0878     1824.686     2109.983     91.50517     181.9972     364.3208      2.044     7.23     1218.948     64.24302      124.093        13     1.289     1.137 -25.72   3
        98    469.1364    832.5620 307.7153487  +6.3454407     1230.372     2218.452     2523.188     91.36072     182.2148     364.5382      1.851     6.09     1220.825     64.24302      153.666        16     1.322     1.047  52.16   0
        99    886.0390    832.0408 307.5420891  +6.3595063     1137.431     1952.172     2111.232     91.07114     182.3597     364.3208      1.823     2.69      1208.73     64.24302     195.9496        10     0.894     0.708 -89.20   0
       100    110.2913    832.3469 307.8644947  +6.3335619     1180.613     2100.412      2052.32     91.21604     182.0698     364.6107      1.898     6.36     1226.798     64.24302      123.042        13     1.125     1.011  38.70   0
       101    521.3641    827.8975 307.6937992  +6.3491052     13947.23     28055.15      30620.2     91.36072     182.1423     364.6469      2.137     4.59     1219.314     64.24302     1434.555        64     1.858     1.504 -57.10   0
       102    934.8739    825.9959 307.5219944  +6.3636212     3388.195     5635.628     5837.836     90.92601     181.7794     364.3208      1.766     3.96     1206.631     64.24302     414.7274        27     1.494     1.046 -66.14   0
       103    314.1426    816.8280 307.7802981  +6.3467741     2219.827     4234.903     4554.425     90.92601     182.3597     364.3571      1.964     5.25     1225.429     64.24302     277.5615        29     1.572     1.259 -58.90   0
       104     31.9092    818.6350 307.8975345  +6.3366043     1060.414      2186.67     2353.129     91.50516     182.1423      364.502      2.110     6.99     1227.659     64.24302     133.8561        16     1.582     0.866 -55.00   0
       105    779.4470    812.3496 307.5870552  +6.3641023     44157.17     79042.87      85370.7     91.36072     182.1423      364.502      1.947     3.99     1210.651     64.24302     5263.885        83     1.835     1.431 -60.40   0
       106     13.9760    815.0715 307.9051082  +6.3374762     1488.964     2889.092      2570.93     90.92601     182.1423     364.3933      1.946     4.99     1227.899     64.24302     171.7677        20     1.412     1.070 -50.02   0
       107    236.3238    789.0447 307.8135804  +6.3556514     772622.8      2336348      2750462     91.21604     182.3597      364.502      2.697     5.28     1225.178     64.24302     63154.43       612     2.755     2.215 -80.69   4
       108    701.4221    803.4529 307.6197850  +6.3651857     65601.95     125370.2     138598.4     90.78065     182.2872     364.2483      2.057     4.30     1213.083     64.24302     7377.238       103     1.936     1.546 -62.53   3
       109    904.6158    807.4431 307.5351944  +6.3702801     7255.956     12352.09     12899.77     90.78065     182.0698      364.212      1.858     3.86     1206.068     64.24302     840.5587        45     1.739     1.173 -68.55   2
       110    901.5516    798.9545 307.5367533  +6.3736840     5731.845     9999.989     10965.56     91.36072     182.1423      364.502      1.864     3.89     1205.614     64.24302     709.5179        40     1.662     1.222 -63.53   2
       111    346.3672    804.5823 307.7673189  +6.3529053     13708.02     28568.06     31828.78     90.92601     182.0698     364.3208      2.185     4.67     1224.181     64.24302     1454.972        61     1.857     1.521 -65.99   0
       112    408.2551    802.3701 307.7416716  +6.3558810      14858.4     31024.78     34571.27     91.07114     182.3597     364.4295      2.217     4.74     1221.988     64.24302     1505.156        69     1.908     1.559 -67.27   0
       113    395.4710    804.4670 307.7469141  +6.3545893     657.6208     1504.037     1955.873     91.36072     182.3597     364.4658      2.400     6.03     1222.503     64.24302     80.90308         9     1.595     0.641 -82.57   0
       114    945.2811    800.8525 307.5185133  +6.3743494     1894.188      3404.01     3425.294     91.36072     182.2872      364.502      2.006     4.71     1204.082     64.24302     268.9672        19     1.488     0.888 -56.05   0
       115    642.1913    798.0914 307.6445843  +6.3654318     4544.173     8775.022     9465.326     90.92601     181.9246     364.1758      2.032     4.41     1214.055     64.24302     475.6383        35     1.623     1.243 -56.89   0
       116    430.9450    796.4282 307.7324417  +6.3590905     1047.712      2285.37     2592.299     91.07114     182.3597     364.3208      2.202     7.06     1220.401     64.24302     133.3519        15     1.593     0.877 -38.89   0
       117    677.0143    788.3237 307.6304394  +6.3706226     1843.461     3558.172     3542.741     90.78064     181.9972     364.2845      1.959     4.79      1212.73     64.24302     226.9689        24     1.489     1.074 -84.01   0
       118    870.1700    789.0844 307.5501289  +6.3767196     667.3679     1086.831     980.9552     91.36072     182.0697     364.3208      1.607     4.82     1206.776     64.24302     95.93896         5     0.985     0.669 -55.22   0
       119    411.1840    784.9994 307.7410408  +6.3631519     35597.22     75092.03     84452.09     90.92601     181.7794     364.1395      2.227     4.71     1220.555     64.24302     3526.365        86     1.939     1.623 -63.44   0
       120    146.9537    788.0157 307.8507588  +6.3530928     762.2803     1179.882     969.0923     90.78064     182.1423     364.1758      1.596     5.29     1225.427     64.24302     117.4692         8     1.161     0.681   0.49   0
       121    528.8988    783.9038 307.6921514  +6.3675233     4749.874     9812.739     10903.78     91.36072     182.8659     364.2845      2.170     4.82     1215.576     64.24302     522.1786        43     1.797     1.376 -58.74   0
       122    445.7057    782.4791 307.7267776  +6.3653424     2904.451      6370.85     7738.795     91.07114     182.5045     364.5382      2.465     5.41     1218.729     64.24302     322.0374        39     1.721     1.463 -68.65   2
       123    442.2820    775.9579 307.7284208  +6.3679213     1547.905     3258.238     3921.267     91.36072     182.2872     364.3933      2.292     6.60     1218.558     64.24302     164.6826        25     1.606     1.147 -55.66   2
       124    774.0026    780.4172 307.5903926  +6.3771084     8913.352     16662.07     18193.57     90.92601     181.7794     364.2483      2.018     4.08     1208.579     64.24302     1070.971        51     1.769     1.369 -57.60   0
       125    707.6101    806.8983 307.6170970  +6.3639684     15938.98     31443.08     35817.42     91.07114      181.852     364.2483      2.116     4.33     1213.047     64.24302     1708.646        57     1.874     1.373 -62.82   3
       126    766.2468    776.0155 307.5937644  +6.3786687     9008.199     8980.286     9154.381     90.78064     182.0697     364.1758      0.611     1.10     1208.591     64.24302     5019.303         8     0.519     0.409 -10.60   0
       127    131.9191    772.7722 307.8575236  +6.3588852     7845.263     16532.06     19323.75     91.21604     182.0697     364.4295      2.263     4.64     1224.627     64.24302     829.0546        54     1.785     1.575 -58.19   3
       128    124.3520    769.6534 307.8607742  +6.3599203     1945.165     4683.134     6902.901     91.36072     182.2872      364.502      3.025     7.83     1224.473     64.24302     220.8232        39     2.063     1.445  83.34   3
       129    124.5668    762.9614 307.8609116  +6.3626909     1270.755     2417.205     3070.594     91.07114     182.0697      364.212      1.976     4.85     1224.076     64.24302     182.2065        13     1.235     0.992  29.92   3
       130    795.5299    774.4011 307.5816471  +6.3803073     841.1843     1705.399     2199.865     90.63505     181.7794     364.2845      2.376     6.81     1207.265     64.24302       105.48        12     1.474     0.883   2.87   0
       131    140.0564    773.0483 307.8541322  +6.3590430     2064.483     4630.678     5730.968     91.36072     182.2872     364.5745      2.470     5.80     1224.611     64.24302     243.9161        33     1.791     1.276 -65.37   0
       132    968.2192    769.3113 307.5100382  +6.3881347     1280.925     2162.524     2871.977     91.07114     181.9972     364.3571      1.758     4.60      1202.21     64.24302     191.1935        17     1.438     0.837 -62.58   0
       133    919.5220    768.9517 307.5302920  +6.3866697     5415.911     9175.903     10118.15     91.36072     182.3597     364.3933      1.845     3.93     1202.937     64.24302     628.6239        31     1.531     1.107 -55.77   0
       134    674.9569    766.0591 307.6320445  +6.3797486     1398.546     2724.064     3341.029     91.21604     182.2872     364.5745      2.223     7.11     1211.038     64.24302     156.8497        24     1.636     1.191 -68.83   0
       135    561.9515    765.8135 307.6790234  +6.3760934     1562.913     2897.489       2728.5     90.63504     182.2148     364.1032      1.918     5.44     1213.351     64.24302     189.1332        20     1.534     0.953 -53.35   0
       136    410.2775    765.5403 307.7420747  +6.3711573     800.8231     1697.249     2319.219     91.50516     182.3597     364.4295      2.512     6.22     1219.063     64.24302     108.9111        10     1.472     0.738 -56.43   0
       137    943.5046    760.4570 307.5206086  +6.3909725     2725.153     5047.054      5855.96     91.21605     182.2872     364.7194      2.016     5.71     1201.883     64.24302     319.9598        31     1.727     1.260 -82.13   0
       138    913.6544    760.9488 307.5329998  +6.3897801     2512.378     4453.509       5279.8     91.50516     182.2872      364.502      1.870     4.50     1202.799     64.24302     294.7332        26     1.612     0.990 -59.21   0
       139    973.7277    760.3296 307.5080502  +6.3920264     1656.945     3060.942     3234.943     91.50516     182.4321     364.4295      1.969     4.81     1201.708     64.24302     219.6829        20     1.443     0.910 -77.16   0
       140    666.3644    760.0886 307.6358171  +6.3819287     1083.082      2080.95     2821.512     91.36072     182.2148     364.4658      2.313     5.23      1210.74     64.24302     127.8534        14     1.203     0.954  82.26   0
       141    813.3032    758.1422 307.5748065  +6.3876113     920.6329     1596.911     1533.076     91.21604     182.2872     364.6469      1.771     3.70     1205.792     64.24302     148.5789         8     0.924     0.613 -82.09   0
       142    238.7803    755.8577 307.8136821  +6.3694378     1389.797     2940.466     4764.045     90.92601     182.1423     364.2483      4.029     7.78     1223.232     64.24302     173.1025        23     1.652     1.300 -67.44   0
       143    888.3989    756.6871 307.5436408  +6.3907029     709.6687     1216.205     1765.629     90.48921     181.7794     364.1395      2.051     4.70     1203.903     64.24302     93.88379         7     0.972     0.646  18.80   0
       144    529.9073    752.9327 307.6927769  +6.3803465     5623.399     5547.915     4776.857     91.21604     182.5045      364.502      0.473     0.00     1213.736     64.24302     4168.123         7     0.414     0.378  -4.23   0
       145    957.8559    748.3874 307.5150487  +6.3964323     2171.719     3647.847     4375.701     90.63504     182.2148     364.1032      1.901     5.05     1201.169     64.24302     333.3672        20     1.559     0.877 -71.01   0
       146    931.1298    750.4346 307.5260892  +6.3947013     829.3585      1362.97     1557.238     91.21604     182.2148     364.5382      2.035     4.75     1201.409     64.24302     133.7269         8     1.162     0.550 -52.94   0
       147    905.3007    748.7062 307.5368836  +6.3945590     976.3354     1723.868     2001.596     91.36072     182.8659     364.3208      2.098     5.80     1202.573     64.24302     122.8602        11     1.182     0.800 -79.64   0
       148    399.2987    743.3889 307.7473861  +6.3799390     554.9725     1042.727     1575.027     91.07114      181.852      364.212      2.441     5.01     1217.778     64.24302     112.0413         5     1.146     0.619  52.19   0
       149    999.7199    741.3790 307.4978824  +6.4007132     1563.484     2507.369     2385.572     90.92601     181.9246     364.4658      1.754     4.86     1200.621     64.24302     185.4313        17     1.258     0.937 -62.70   0
       150    801.3391    740.5024 307.5803729  +6.3944989     854.0063     1531.511     1912.815     91.07114     182.2872     364.5745      2.379     5.36     1204.744     64.24302     99.81775         7     1.200     0.676  89.36   0
       151    887.6837    737.3810 307.5445871  +6.3986519     1262.663     2391.849     3232.363     90.92601     181.9246     364.4295      2.075     6.19     1202.719     64.24302     153.5789        19     1.343     1.086 -52.67   0
       152    861.7056    732.5182 307.5555489  +6.3997986      780.069     1268.474     1059.572     91.07114     182.5768     364.5745      1.852     5.39     1203.579     64.24302     133.1827         7     1.007     0.814 -59.83   0
       153     43.7619    728.1782 307.8956743  +6.3743537     1733.501     3878.186      4305.89     90.92601     181.9972     364.2483      2.314     6.73      1223.76     64.24302     183.0288        30     1.824     1.263  89.54   0
       154    844.5939    728.7178 307.5627896  +6.4008005     1216.524     2292.642     2368.656     90.92601      181.852      364.212      1.948     6.45     1203.462     64.24302     140.9875        15     1.348     1.056 -48.96   0
       155    107.1687    726.9979 307.8693607  +6.3769605     698.5454     1592.975     2034.868     90.63504     182.0697      364.212      2.134     6.02      1222.28     64.24302     104.1954         9     1.968     0.518  51.55   0
       156    656.0698    716.4642 307.6415659  +6.3996017     4356.887     8990.176     9398.548     91.36072     182.3597     364.4658      2.172     4.83     1207.456     64.24302     442.8087        42     1.720     1.392 -70.67   0
       157    602.8016    716.0951 307.6637201  +6.3979834     999.0483     2141.926     2564.911     90.78064     181.9246     364.0307      2.519     6.61     1208.535     64.24302     111.4548        14     1.333     0.919 -35.52   0
       158    514.2543    716.5653 307.7005101  +6.3948437     654.1253     931.8972     595.1091     91.21604     182.2872     364.4658      1.399     3.41     1212.453     64.24302     104.7036         5     0.724     0.480 -13.32   0
       159    119.1798    712.5604 307.8648576  +6.3833236     2442.784     5402.958     5753.926     90.92601     182.0697     364.1758      2.283     5.15     1221.593     64.24302     295.1523        38     1.709     1.426 -72.64   0
       160    992.9138    711.5375 307.5017136  +6.4128113      2289.11     3783.285     3702.369     91.50516     182.5045     364.4658      1.722     4.19     1199.586     64.24302      292.652        20     1.344     1.029 -48.89   0
       161    630.1255    711.7639 307.6525085  +6.4006804     1464.651      3306.23     4423.118     91.21604     182.3597      364.502      2.749     5.90     1207.626     64.24302     194.1067        27     1.643     1.194 -38.09   0
       162    902.9044    707.9742 307.5392486  +6.4113004     2939.628      5295.11     6081.862     91.50516     181.9972     364.3208      2.011     4.68      1200.43     64.24302       368.36        28     1.619     1.094 -69.51   0
       163    472.0846    708.7294 307.7183028  +6.3966759     892.1675      2206.91     2060.227     91.50516     182.5768      364.502      2.374     7.92     1213.928     64.24302     118.7378         9     1.367     1.284  61.16   0
       164    246.7487    702.3867 307.8121789  +6.3917843     3708.297       8504.5     9565.617     90.63505     182.2148     364.1758      2.375     5.91     1219.369     64.24302     384.3461        49     1.959     1.526 -63.68   0
       165    653.5914    701.2996 307.6431070  +6.4057817     4932.908     9963.704     11522.12     91.07114      181.852     364.2845      2.199     5.00     1206.323     64.24302     518.8387        48     1.800     1.457 -47.01   0
       166    913.0423    693.7215 307.5355135  +6.4175223     973.2098     1712.256     1543.944     91.21604     182.2872      364.502      1.791     5.11     1199.437     64.24302     153.0929         9     1.117     0.661 -39.74   0
       167    725.2423    689.6674 307.6137152  +6.4129656     2556.442     5149.714     5592.505     91.36072     182.2148     364.5382      2.127     4.97     1204.121     64.24302     270.3862        30     1.523     1.283 -59.53   0
       168    773.0558    708.4725 307.5932071  +6.4067873     14541.31     28245.66     30572.18     91.21604     182.2148     364.4295      2.070     4.49     1203.573     64.24302     1577.796        58     1.827     1.407 -63.47   0
       169    991.4729    686.1705 307.5031644  +6.4232392     7740.093     12885.52     13432.57     91.21604     182.2872     364.4295      1.800     3.74     1198.688     64.24302     984.8066        41     1.572     1.206 -66.96   0
       170    929.9265    686.5805 307.5287349  +6.4210308     1952.272     3427.933     3025.283     90.92601     182.2148     364.3933      1.873     4.56     1198.776     64.24302     250.1084        22     1.438     1.020 -61.91   0
       171     11.3191    686.3577 307.9105763  +6.3905380     1242.843     2538.392      3126.63     91.36072     182.2872     364.4295      2.369     5.62     1223.499     64.24302     152.6182        15     1.429     0.854  -0.74   0
       172     69.1464    681.5339 307.8867045  +6.3944636     16155.23     35093.23     39209.32     91.36072     182.2148     364.4295      2.281     4.86     1221.944     64.24302     1899.234        72     1.957     1.629 -77.25   0
       173    530.0700    682.2596 307.6950934  +6.4095367     1290.277     2658.542     2488.485     91.50516     182.2872     364.4658      2.100     7.04     1209.281     64.24302     173.9369        19     1.346     1.201  -6.20   0
       174    499.2198    679.4968 307.7080102  +6.4096509     947.6571     1977.185     1895.184     91.21604     182.0698      364.212      2.080     5.44     1210.396     64.24302      154.668         8     1.273     0.655  34.62   0
       175    919.5764    678.3937 307.5333124  +6.4240687     767.0722     1505.847     1035.204     90.78065     182.0698     364.3208      2.071     5.42     1198.567     64.24302     95.94104         8     1.010     0.821 -67.53   0
       176    714.8821    673.4412 307.6185681  +6.4193223     2351.219     4883.595     5176.219     91.36072     182.2872     364.3933      2.095     5.69     1203.233     64.24302     252.6306        32     1.733     1.241 -48.50   0
       177    737.0091    671.6528 307.6094305  +6.4207957     2814.674     5662.658     5431.841     90.63504     182.1423     364.1395      2.036     5.10     1202.873     64.24302     307.8595        30     1.564     1.267 -56.35   0
       178    568.4174    669.5491 307.6795820  +6.4160614     2087.218     4527.844     4863.703     90.78065     182.3597      364.212      2.279     5.75     1206.753     64.24302     236.5383        31     1.614     1.350 -33.71   0
       179    404.8480    670.4408 307.7475435  +6.4102479     921.7083     2026.745     2148.529     91.21604     182.2148     364.3208      2.194     8.38     1214.121     64.24302     113.7607        13     1.490     1.316  24.17   0
       180    228.9287    669.6902 307.8206921  +6.4046915     1011.456     2413.219     2372.857     91.21604     182.5768     364.4658      2.301     7.64     1217.076     64.24302     134.0023        16     1.505     1.086  83.88   0
       181   1009.7761    667.6528 307.4961776  +6.4314926     4453.205     7229.216     7726.889     90.78064     182.2872     364.2483      1.739     3.62     1197.655     64.24302       582.54        27     1.426     1.070 -65.08   0
       182    975.2244    666.5356 307.5105782  +6.4308096     6806.486     11493.69     12752.59     90.92601     182.2872     364.3933      1.845     3.75      1197.64     64.24302     888.5327        38     1.544     1.232 -57.70   0
       183    312.7478    668.8328 307.7858808  +6.4078419     941.1831     1886.701     2364.215     91.21604     182.2872     364.3571      2.324     5.98       1216.3     64.24302     126.8109        11     1.423     0.707   0.91   0
       184    133.8838    660.2949 307.8605161  +6.4053975     15012.48     33453.25     37552.93     91.21604     182.7214     364.6107      2.314     4.91     1218.624     64.24302      1537.37        73     1.980     1.647 -69.31   0
       185     86.6429    663.9769 307.8800271  +6.4022984     669.9859     1245.363     959.6298       90.926     182.1423     364.2845      1.847     4.50     1220.694     64.24302      102.075         5     1.047     0.550 -12.39   0
       186    420.9479    661.0162 307.7411695  +6.4146762     1570.776     3711.761     4471.982     90.78064     182.3597     364.1395      2.372     7.73     1212.881     64.24302     179.6248        26     1.533     1.343 -23.95   0
       187    801.9657    659.9877 307.5828213  +6.4277692     866.6094     1562.751     2058.103     90.78064     182.0697     364.2845      2.003     5.36     1199.549     64.24302     118.6307         8     1.086     0.748  43.48   0
       188    970.0905    649.5104 307.5132843  +6.4376703     5743.641     10770.08     11727.06     91.36072     182.8659     364.5745      2.035     3.99     1196.004     64.24302     648.3608        45     1.629     1.454 -77.07   0
       189     14.7477    649.6979 307.9103943  +6.4057909     841.1342     1615.963     1924.165     91.21604     182.2872     364.6831      2.220     5.47     1222.491     64.24302     127.6332         8     1.048     0.806 -40.91   0
       190   1023.5733    645.1367 307.4911980  +6.4412478     26748.67     36888.43     39108.58     80.60899     146.6318     276.1464      1.363     4.04     1194.787     64.24302      6305.65        42     1.721     0.758 -88.96  24
       191    171.6040    641.6120 307.8454700  +6.4143724     1762.037     4044.613     4398.326     90.92601     181.9246     364.3208      2.298     6.17     1217.121     64.24302     195.6356        30     1.590     1.422 -54.85   0
       192    563.7214    644.9982 307.6823621  +6.4260436     29102.62     65330.98     74580.38     90.63504      181.634      364.212      2.317     5.05     1204.853     64.24302     2822.833        87     2.037     1.661 -60.21   0
       193     63.9215    635.7405 307.8904283  +6.4131988     962.8188     1880.047     1671.552     91.50516     182.2872     364.3933      1.996     5.66     1219.943     64.24302     122.4817        10     1.252     0.720   2.37   0
       194    461.0241    628.8447 307.7255970  +6.4292962     36769.49     85567.25     98440.46     90.78064     182.2872     364.3208      2.377     5.20     1208.576     64.24302     3712.885       101     2.071     1.737 -63.32   0
       195      4.5691    630.9235 307.9152617  +6.4132031      847.901     1972.911     1894.149     91.21604     182.3597     327.7175      2.301     6.89     1222.503     64.24302     141.5909        11     1.386     0.961 -69.25  16
       196    135.8208    623.6266 307.8609529  +6.4206040     895.2991     1724.403     1011.495     90.92601     182.0697     364.3933      1.907     6.42     1217.162     64.24302     118.6459         9     1.364     0.848  68.90   0
       197    306.9454    618.4985 307.7899945  +6.4284338     1329.665     3179.066     3701.273     91.21604     182.2872     364.7194      2.503     7.20     1212.482     64.24302     172.9678        25     1.600     1.401 -21.20   0
       198    732.9806    612.1845 307.6131074  +6.4452199     3500.826     7014.426      7412.66     91.07114     181.9972     364.3571      2.087     5.61     1198.073     64.24302     397.1633        36     1.790     1.285 -65.54   0
       199    786.4716    607.5206 307.5910277  +6.4489218     9584.106     18882.85     20783.03     91.64938     182.5768     364.4295      2.107     4.62     1197.076     64.24302      997.866        57     1.842     1.457 -59.61   0
       200   1003.6747    607.6685 307.5007282  +6.4560619     754.8219     1401.151     1590.281     91.50516     182.4321     364.4658      2.015     5.48     1190.881     64.24302     121.7111         9     1.227     0.817 -61.83   0
       201    610.5713    605.7311 307.6642109  +6.4438172     1646.238     3676.515     4192.981     91.07114     182.2872     364.3933      2.278     6.55     1200.551     64.24302     164.4043        28     1.633     1.278 -58.30   0
       202    528.7361    607.2430 307.6981788  +6.4404707     770.7605     1633.022     2202.368     91.36072     182.2148      364.502      2.691     6.42     1203.209     64.24302     113.0746         9     1.316     0.880  18.43   0
       203    926.9226    601.3381 307.5328482  +6.4561333     899.8177     1462.707     2009.185     91.64938     182.3597     364.4658      1.896     5.35     1192.941     64.24302     103.8737        10     1.212     0.668 -34.37   0
       204    223.5804    599.8663 307.8252780  +6.4333464     553.7381     1122.769     989.7954     90.92601     182.2872     364.3571      2.027     5.45     1215.163     64.24302     97.39026         6     1.292     0.648 -49.72   0
       205    862.3448    590.7771 307.5600494  +6.4583536     1907.225      3711.73     4616.815     90.92601     182.2872     364.2483      2.093     5.26     1194.949     64.24302      254.592        26     1.586     1.167 -61.10   0
       206    821.2598    587.9866 307.5772231  +6.4581430     1715.083     3105.633     3578.121     90.63504     182.2148     364.1395      2.087     4.14     1195.347     64.24302     232.9412        20     1.283     1.071 -60.83   0
       207    249.4371    583.4442 307.8150855  +6.4409908      4399.99     10431.01     12092.66     91.07114     182.2872     364.3208      2.426     5.65     1211.776     64.24302     442.2965        52     1.972     1.563 -83.71   0
       208    801.8043    579.4371 307.5855988  +6.4610280     104739.8     219142.4     245280.1     90.34314     181.9972     364.2483      2.198     4.70     1195.047     64.24302     10792.58       158     2.271     1.717 -45.20   0
       209    183.6277    577.9414 307.8426278  +6.4410662     33303.01     78932.59      93443.4       90.926     182.3597     364.3571      2.464     5.42     1213.698     64.24302     3343.517       108     2.162     1.805 -67.57   0
       210    107.6959    574.1791 307.8743188  +6.4400832     3720.245      8587.14     10061.58     91.21604     182.0698     364.2483      2.348     5.30      1214.61     64.24302     408.2012        50     1.929     1.535 -83.89   0
       211    972.7570    571.2026 307.5148063  +6.4700969     1162.623     2107.036     2695.603     90.63504     181.7794      364.067      2.008     5.93     1189.077     64.24302     148.0554        15     1.597     0.937 -49.49   0
       212    993.4930    570.1453 307.5062212  +6.4712205     772.2982     1449.598     941.3633     91.21604     182.2148     364.6831      1.874     3.42     1188.013     64.24302     150.9464         7     1.076     0.810 -70.88   0
       213    838.4782    566.5563 307.5707860  +6.4675641     3152.043     6206.274       6822.3     91.21605     182.2872      364.502      2.130     5.14     1193.898     64.24302     342.8287        41     1.820     1.402 -74.05   0
       214    357.0445    564.9264 307.7709799  +6.4522268     9326.302      22751.4     26426.24     91.21604     182.3597      364.502      2.461     5.57     1206.102     64.24302     960.2373        73     2.074     1.727 -65.22   0
       215    158.6770    564.1000 307.8534681  +6.4459486     1050.502     2404.779     2908.792     90.78064     182.4321      364.502      2.313     7.31     1213.609     64.24302     127.9237        16     1.530     1.132 -89.03   0
       216    792.3464    559.9042 307.5901880  +6.4687805     3881.656     8087.186     9459.099     91.21604     182.2872     364.7556      2.259     4.94     1194.059     64.24302      384.063        42     1.790     1.407 -66.42   0
       217    523.3154    559.8154 307.7020325  +6.4598758     3673.393     8617.513     9794.533     90.92601     181.9972     364.3571      2.439     5.42     1201.064     64.24302     363.7659        46     1.837     1.562 -49.02   0
       218    234.4440    561.3581 307.8220653  +6.4496107     693.6194     1461.191     1997.581     91.07114     182.2872     364.2845      2.427     5.14     1209.638     64.24302     102.1248         6     1.151     0.648  19.25   0
       219    381.9905    557.1132 307.7608738  +6.4562848      759.798     1505.224     1973.935     90.92601     181.9246     364.2845      2.232     7.40      1204.82     64.24302     116.8109         9     1.356     1.129   3.99   0
       220    170.3610    553.1969 307.8489805  +6.4508412     3714.779     9054.688     10712.07     90.34314     181.9972     364.1395      2.538     5.77     1212.303     64.24302     404.0052        47     1.851     1.577 -59.42   0
       221    567.9143    553.0247 307.6837212  +6.4641640     1378.738     3366.981      4158.87     91.36072     181.9972     364.2845      2.582     7.44     1199.447     64.24302     163.0498        27     1.533     1.477 -45.66   0
       222    265.6222    549.5703 307.8095035  +6.4555190     46982.78     115916.2     135265.3     90.63505     181.9972     364.2483      2.493     5.62     1207.213     64.24302     4995.635       111     2.153     1.821 -65.33   0
       223    808.6133    552.3607 307.5836793  +6.4724355     924.6756      1741.85     2068.877     90.78064     182.0698      364.212      2.076     4.99     1193.299     64.24302     166.1104         9     1.277     0.747 -40.87   0
       224     42.1233    551.9282 307.9023303  +6.4470792     3000.754     6832.323      8777.27     91.64938     182.5768     364.4658      2.532     5.46     1213.846     64.24302     369.3634        46     1.934     1.500 -83.30   0
       225    788.6285    541.7560 307.5923444  +6.4761515     10408.11     21965.23     23713.41     90.92601     182.3597     364.3571      2.174     4.80     1193.051     64.24302     1068.596        60     1.835     1.532 -61.68   0
       226    492.3235    540.3113 307.7155746  +6.4668984      23258.4     57245.91     68479.79     91.36072     182.6491     364.5382      2.534     5.46     1199.973     64.24302      2171.87        98     2.127     1.898 -48.69   0
       227    965.2361    542.7521 307.5188888  +6.4815968     1261.145     2285.631     2045.735     91.07114     182.2148     364.3571      1.841     6.80     1187.509     64.24302     142.4954        16     1.377     0.943 -66.10   0
       228    652.3839    535.2297 307.6492052  +6.4743213     1823.359     4244.954     5799.005     90.92601     181.9972     364.3933      2.982     5.63       1195.5     64.24302     240.2505        31     1.686     1.302 -59.33   0
       229    205.5297    536.7499 307.8349178  +6.4588073     901.7643     1985.218     2638.668     91.36072     182.2148      364.502      2.208     7.13     1208.702     64.24302     135.9641        11     1.724     0.827 -69.78   0
       230    714.1651    533.9186 307.6235652  +6.4769155     774.7327     1498.658     1749.415     91.21604     182.2872     364.4658      2.382     5.30     1194.046     64.24302     122.6281         7     0.988     0.804 -61.73   0
       231    391.0050    530.6710 307.7580199  +6.4675045     834.7181     1642.062     1389.511     90.92601      181.852     364.3208      2.060     6.63     1202.102     64.24302     106.5571         9     1.520     0.810  56.75   2
       232    388.3372    531.6639 307.7590954  +6.4670056     615.7382     1170.617      1075.88     91.36072     182.2872      364.502      1.870     4.29     1202.274     64.24302     91.48779         5     1.214     0.433  78.29   2
       233    136.7554    528.0129 307.8638031  +6.4601181     14753.22     34977.53     40499.61     90.78064     182.0697     364.1758      2.417     5.21     1211.521     64.24302     1667.871        81     2.032     1.777 -71.28   0
       234    321.7616    529.1008 307.7868583  +6.4658445     2237.062     5059.213     5734.818     91.36072     182.1423     364.7194      2.384     5.80      1203.69     64.24302     259.2891        36     1.578     1.555 -43.95   0
       235    501.4099    528.5120 307.7121955  +6.4720735     1143.945     2653.275     3176.228     90.92601     181.9246      364.212      2.769     7.27     1198.838     64.24302     145.3346        19     1.705     1.137 -49.98   0
       236    101.9991    526.5140 307.8783019  +6.4595755      1521.58     3499.647     3803.288     90.48921     181.7067     364.1032      2.374     7.52     1212.227     64.24302     216.9611        30     1.948     1.264 -73.31   0
       237    864.6990    527.1301 307.5612113  +6.4847154     1201.279     2493.487     2595.951     91.21604     182.4321      364.502      2.046     7.28     1190.731     64.24302      142.777        17     1.555     0.955 -67.77   0
       238    962.0126    522.1241 307.5209221  +6.4900086     3785.055     6995.495     7933.796     90.92601     181.9246     364.2483      1.977     4.45     1186.566     64.24302     440.9187        33     1.598     1.184 -71.00   0
       239    535.4253    515.0712 307.6985080  +6.4787560       736.57      1556.39     1828.245     90.92601     182.1423     364.3933      2.188     7.34     1197.226     64.24302     114.9331         8     1.415     1.066  -9.88   0
       240      2.1533    512.2482 307.9202909  +6.4621275     13799.08     23195.88     24960.45     89.31397     158.1579     289.3191      1.829     5.11     1212.391     64.24302     1825.136        43     1.953     1.076 -84.45  24
       241    641.6979    508.5878 307.6545457  +6.4849680      7125.16      16304.8     18189.98     91.07114     181.9972      364.212      2.348     5.44     1193.837     64.24302     661.4751        55     1.878     1.589 -64.52   0
       242    433.6801    508.9844 307.7410117  +6.4778819     22923.01     55749.56     65054.12     90.92601     181.9972     364.2483      2.471     5.57     1198.847     64.24302     2329.502        91     2.124     1.771 -66.11   0
       243    198.9514    506.6748 307.8386706  +6.4710069     10254.16     25799.38      31345.2     91.21604     182.3597      364.502      2.573     5.66     1207.321     64.24302     1076.736        81     2.163     1.811 -78.18   0
       244    164.6080    507.7942 307.8529095  +6.4693977     896.9847     2152.964     2730.931     90.63505     182.0697     364.2845      2.469     5.59     1209.234     64.24302     152.3047        14     1.416     1.338  34.42   0
       245    975.3495    506.7710 307.5158931  +6.4967907     891.3509     1799.814     2186.416     90.92601     182.4321     364.3571      2.177     6.68      1185.08     64.24302     109.5562        11     1.230     1.016 -80.39   0
       246    563.6198    505.4438 307.6871116  +6.4836698     1500.593     3538.786     3519.503     90.78065     182.1423     364.2845      2.332     7.89     1195.792     64.24302      153.925        31     1.785     1.380 -57.66   0
       247    937.1240    502.4257 307.5319315  +6.4973186     3477.842     6715.203     6883.073     90.92601     182.2148     364.4295      2.014     4.52     1186.775     64.24302     415.4159        36     1.665     1.251 -62.43   0
       248    610.4588    501.0405 307.6677874  +6.4870461     3688.989     8395.012     9981.033     91.36072     182.2872     364.5382      2.394     5.53     1194.624     64.24302     372.9503        48     1.841     1.559 -65.04   0
       249     99.0323    501.7472 307.8803745  +6.4697035     706.9648     1404.592     1362.818     91.21604     182.2872     364.3571      2.303     4.46     1211.197     64.24302      103.106         6     0.821     0.688  -3.10   0
       250    959.6299    494.7989 307.5228309  +6.5012140     2604.625     4904.607     5320.323     90.63505     182.0697     364.2483      1.972     4.83     1185.217     64.24302     314.5736        26     1.564     1.091 -63.97   0
       251    522.5796    492.1954 307.7046204  +6.4877751     3958.832     9693.595     11556.62     90.92601     181.9246     364.2483      2.502     5.73      1195.05     64.24302     384.4043        55     1.955     1.652 -62.30   0
       252    369.0223    492.0380 307.7684642  +6.4827253     1337.362     3264.852     3704.795     90.92601     181.9972     364.2483      2.393     7.38     1198.312     64.24302     151.7886        25     1.588     1.269 -29.85   0
       253    879.2081    487.9583 307.5564965  +6.5013730     2131.468     4275.878     5275.599     90.63504     182.0697     364.1758      2.284     5.43     1186.952     64.24302     225.9607        29     1.588     1.252 -53.90   0
       254    886.4133    482.2643 307.5536924  +6.5039633     1584.117      3156.09      3564.54     90.78064     182.0698     364.3208      2.163     5.36     1186.371     64.24302     170.2878        21     1.417     1.077 -57.60   0
       255    925.7302    481.6688 307.5373661  +6.5055127      1019.94     2110.865     1804.119     91.36072     182.4321     364.4295      2.086     5.88     1185.988     64.24302     133.5084        12     1.318     0.753  53.52   0
       256    710.3519    478.5406 307.6270159  +6.4996576     1812.997     4156.334      4838.19     91.36072     182.2872     364.5382      2.380     7.45     1189.843     64.24302     205.1777        34     1.813     1.514 -56.64   0
       257    381.2891    476.6822 307.7638835  +6.4894753     1989.796       4973.5      6734.05     91.07114     182.5045     364.5382      2.812     6.89       1196.8     64.24302     230.0775        36     1.729     1.516 -77.59   0
       258     72.1657    477.4718 307.8923659  +6.4788296     1115.001     2618.586     2852.919     91.21604     182.2148     364.4658      2.365     7.04     1210.535     64.24302     131.8805        16     1.654     0.841  60.11   2
       259    609.1213    473.1178 307.6692850  +6.4985324     5696.384     13132.51     15378.65     91.50516     182.5768     364.6107      2.397     5.59     1192.668     64.24302     549.7393        57     1.965     1.568 -63.70   0
       260    771.9514    469.4818 307.6017108  +6.5054442     10004.27     21778.34     25691.78     91.36072     182.2872      364.502      2.348     5.25     1188.944     64.24302     995.1667        70     2.279     1.505 -54.86   0
       261    291.5578    470.5099 307.8013962  +6.4890319     1466.329     3450.995     4281.276     91.36072     182.2872      364.502      2.477     7.29     1199.995     64.24302     157.3275        24     1.699     1.183 -53.76   0
       262    376.0622    466.4797 307.7664013  +6.4935142      957.828     2114.235     3517.518     91.50516     182.3597     364.4658      3.049     5.84     1196.197     64.24302     128.2933        11     1.409     0.738 -56.31   2
       263    800.0038    466.4370 307.5901502  +6.5076327     787.4066     1592.415     1756.022     90.34314     182.0697     364.2483      1.993     5.30     1188.575     64.24302     117.7987         7     1.282     0.618 -66.01   0
       264    956.9352    464.4354 307.5249715  +6.5136636     1439.371     2467.478     2644.387     91.21604     182.2872      364.502      1.855     7.21     1183.006     64.24302     165.5474        17     1.595     0.923 -55.50   0
       265    109.5530    462.0045 307.8773478  +6.4864665     2526.242     6076.865     6885.917     90.63504     181.9972     364.1032      2.421     5.89     1208.493     64.24302     272.2736        41     1.739     1.586 -63.05   0
       266   1010.7896    459.1925 307.5027568  +6.5176128     3141.853     6285.466     6896.733     90.78064     182.0697     364.3571      2.110     4.82     1179.966     64.24302      340.416        35     1.535     1.421 -84.41   0
       267    747.4273    460.7417 307.6122011  +6.5082392     1455.673     3079.526      3253.99     90.92601     182.3597     364.3208      2.163     6.20     1188.526     64.24302     174.5474        23     1.549     1.138 -29.99   0
       268    345.5030    456.4195 307.7794459  +6.4966497     1708.083     4124.371     5134.482     91.21604     182.0698      364.212      2.537     6.80     1196.842     64.24302     184.9849        32     1.617     1.472 -34.62   0
       269    701.2333    453.7675 307.6316415  +6.5095849     968.2997      2258.73     2549.068     90.78064     181.9972     364.1758      2.439     7.08     1188.339     64.24302     117.4612        13     1.338     1.051 -83.84   0
       270    464.3174    445.7383 307.7304107  +6.5050199     921.4851     2225.143     2438.058     91.50516     182.2872     364.4295      2.408     7.14     1191.523     64.24302     116.7432        12     1.445     0.989 -20.96   0
       271    828.5188    443.9467 307.5790517  +6.5178666      814.385      1569.61     1806.771     91.36072     182.2872     364.5382      2.139     4.96     1185.533     64.24302     120.5396         8     1.016     0.684  82.13   2
       272    812.9194    443.2107 307.5855622  +6.5176529     1030.455      2462.09     2337.547     90.92601     181.9972     364.2845      2.247     9.01     1186.154     64.24302      145.792        18     1.800     1.260 -21.92   0
       273    710.2743    441.4162 307.6282987  +6.5149858     8796.614     19553.34     22720.68     90.78064     181.9972     364.3208      2.343     5.13     1187.487     64.24302     801.6439        61     1.953     1.572 -68.58   0
       274    631.0024    437.5691 307.6613865  +6.5139400     1301.571     3206.167     4377.694     90.63504     182.0698      364.212      2.658     7.65      1188.63     64.24302      149.795        22     1.563     1.221 -53.21   0
       275    603.8232    432.5588 307.6728555  +6.5151052     7835.474     21166.54     29412.05     90.92601     182.0697      364.212      2.994     6.90     1188.735     64.24302     817.9629        98     2.529     2.016  34.10   0
       276    935.3951    431.1342 307.5350465  +6.5267019     2716.606     5109.291     5659.461     90.78064     181.9246      364.212      2.029     4.96     1180.997     64.24302     273.0626        27     1.544     1.191 -47.60   0
       277    374.7709    427.4573 307.7682571  +6.5095853      14959.9     37705.75      44092.3     90.92601     182.3597     364.3571      2.533     5.74      1193.99     64.24302     1522.751        84     2.112     1.809 -68.07   0
       278    121.1042    427.1882 307.8737254  +6.5012296      1222.02     3078.485     3345.846     90.92601     181.9972      364.212      2.464     8.26     1205.696     64.24302     170.2377        27     1.735     1.518  88.33   0
       279    890.7241    426.7793 307.5537660  +6.5270194     893.6173     2368.864     3286.975     90.92601     182.0698     364.3933      3.044     7.22     1182.036     64.24302     97.08484        15     1.348     1.083 -77.40   0
       280    904.2914    421.5402 307.5483013  +6.5296328     3681.035     7325.185     8114.004     91.21604     182.2872     364.5382      2.111     4.75     1181.242     64.24302     378.4739        36     1.642     1.313 -52.55   0
       281     54.6429    422.6061 307.9015106  +6.5008997      883.777     1881.207     2153.907     90.63505     181.9246     364.1395      2.569     7.34     1209.001     64.24302     131.1008        11     1.541     0.980 -84.33   0
       282    232.2907    418.0786 307.8278097  +6.5087051     7245.736     18406.93     21416.05     91.07114     182.5768     364.5382      2.516     5.81     1199.442     64.24302     778.9668        67     2.089     1.729 -67.10   0
       283    955.1753    410.0304 307.5275316  +6.5360725     659.0442       1308.2     1355.029     90.78064     182.1423     364.2483      1.893     4.68     1178.233     64.24302     105.6278         6     1.123     0.554 -67.84   0
       284    132.6379    406.8782 307.8696187  +6.5100018     2716.561     6842.604     7608.867     91.21604     182.3597     364.4658      2.459     6.01      1204.12     64.24302     272.9462        46     1.792     1.669 -58.58   0
       285    155.0740    403.2081 307.8604155  +6.5122670     1436.009     3573.391     4375.117     90.92601     181.7794     364.2845      2.483     6.42     1202.873     64.24302     180.3147        21     1.509     1.174  -3.82   2
       286    377.9320    397.4251 307.7679580  +6.5220924     1186.803     2523.545     2389.354     90.92601     182.1423     364.3571      2.125     7.35     1191.531     64.24302     142.8276        16     1.373     1.104 -21.70   0
       287    966.6786    396.0142 307.5232198  +6.5422418     717.3085     1386.281     1708.549     90.92601     181.9972     364.2483      2.393     6.11     1176.685     64.24302      93.4115         8     1.053     0.995 -72.82   0
       288     28.3089    391.8451 307.9135017  +6.5127212     1782.977     4286.756     4940.464     91.36072     182.2148     364.6107      2.499     7.07     1208.734     64.24302     244.3785        35     1.830     1.503 -72.12   0
       289    431.8316    390.7960 307.7457727  +6.5266261     3766.557     9660.302     11309.36     90.63504     182.1423      364.212      2.538     6.13     1187.805     64.24302     387.5344        51     1.999     1.605 -65.87   0
       290    772.3298    388.0322 307.6042958  +6.5390920     7928.124     17262.72      19860.1     91.21604     182.2872      364.502      2.272     5.09     1182.977     64.24302     771.9133        55     1.871     1.526 -60.37   2
       291    764.3621    389.5251 307.6075583  +6.5382110     1295.667     2764.469     3358.066     91.21604     182.3597      364.502      2.313     6.83     1183.296     64.24302     156.2224        19     1.588     1.076 -52.69   3
       292   1016.1099    383.0414 307.5031025  +6.5492365     2742.808     4750.585      4802.25     91.36072     182.2872      364.502      1.791     4.15     1173.301     64.24302     314.7268        25     1.439     1.085 -62.65  16
       293    947.1092    378.7385 307.5319372  +6.5487275     484.4388      623.316      541.571     91.36072     182.4321     364.5382      1.360     3.43     1176.564     64.24302     94.78296         5     1.555     0.219 -27.40   0
       294    450.7633    376.6834 307.7383783  +6.5330846     866.5811      1658.55     1980.952     91.36072     182.2148     364.3933      1.787     6.64     1186.458     64.24302     137.6158         9     2.182     0.567  85.07   2
       295    453.0000    375.0170 307.7375046  +6.5338472     1038.399     2427.888     2432.982     90.78064     181.7067      364.067      2.182     6.57     1186.265     64.24302     112.0367        11     1.460     0.829  75.55   3
       296    480.1062    374.2489 307.7262606  +6.5350672     1742.046     4011.474       4412.3     91.21604     182.1423     364.6107      2.335     6.89     1185.132     64.24302     191.2083        28     1.611     1.303 -74.64   0
       297    837.7547    370.8857 307.5776701  +6.5483442     21986.39     45882.85     51086.16     91.36072     182.1423     364.4658      2.218     4.83     1180.505     64.24302     2241.911        79     2.017     1.546 -68.78   0
       298    609.5685    363.4183 307.6727986  +6.5438481     1528.964     3727.226      4095.06     90.92601     182.0698     364.3208      2.423     7.40     1182.757     64.24302     184.7853        25     1.609     1.356 -54.62   0
       299     17.3441    362.2728 307.9190633  +6.5245658     628.7259      1289.19      1942.34     91.21604     182.1423     364.4295      2.482     5.40     1206.809     64.24302     96.82959         5     1.051     0.782  66.78   0
       300    694.2280    356.9439 307.6378166  +6.5493360      45472.5     105360.2       121172     90.92601     182.3597     364.3571      2.382     5.36     1181.505     64.24302     4148.234       110     2.117     1.738 -62.86   0
       301    852.5029    357.6578 307.5719830  +6.5542961     833.0078     1561.337     2022.763     91.21604     182.2148     364.6469      2.351     5.74     1179.628     64.24302      119.009         9     1.166     0.867  42.60   0
       302     75.1208    356.9200 307.8952243  +6.5287087     733.6113     1545.935     1886.159     91.64938     182.5768     364.6469      2.208     3.09     1205.139     64.24302     144.7499         5     1.021     0.527 -59.98   0
       303     94.1923    352.6484 307.8874401  +6.5311102     3173.027     8098.871     9230.975     90.78064     182.0697     364.0307      2.527     5.98     1204.626     64.24302     445.8864        49     1.963     1.596 -63.88   0
       304    556.6508    353.8407 307.6951240  +6.5460428     1421.696     3657.546     4323.007     91.36072     182.2872     364.4295      2.644     8.76      1182.04     64.24302      148.361        28     1.583     1.434 -35.95   0
       305    539.9684    349.8675 307.7021943  +6.5471284     3679.925     9020.658     10249.28     91.21604     182.2872     364.4295      2.461     5.84     1181.726     64.24302     382.0387        52     1.915     1.635 -65.72   0
       306    269.1119    347.6085 307.8148862  +6.5390343      1342.95     3667.062     4222.501     90.92601     181.9246      364.212      2.710    10.33     1193.193     64.24302     166.0817        33     1.837     1.620 -69.50   0
       307    402.9690    345.2173 307.7593130  +6.5444860     13097.64     34014.18     40026.44     90.92601     182.0697     364.3571      2.550     5.91     1186.604     64.24302     1371.417        77     2.112     1.772 -68.30   0
       308    492.0643    335.5838 307.7225943  +6.5514321     4507.762     11346.38     13285.29     90.78064     182.1423     364.3208      2.492     5.80     1181.243     64.24302     446.1495        56     1.954     1.678 -49.76   0
       309    761.3570    334.1018 307.6106742  +6.5609986     1878.684     4311.374     5042.229     91.36072     182.1423     364.7194      2.386     7.14     1178.846     64.24302     199.7218        30     1.676     1.365 -26.44   0
       310    154.7338    326.4850 307.8631561  +6.5439375     739.8557     1589.618      777.096     91.50516     182.5768     364.5382      2.176     7.47      1199.56     64.24302     95.10938         9     1.530     1.020 -16.56   0
       311    381.8342    319.8621 307.7689575  +6.5542518     3705.737     9915.584     11578.78     91.21604     182.3597     364.4295      2.609     6.55     1185.627     64.24302     394.8673        54     2.069     1.658 -67.75   0
       312    238.6368    320.7474 307.8284660  +6.5491091      1052.07     2445.821     2815.634     91.21604     182.2872      364.502      2.541     7.62     1193.766     64.24302     139.5547        18     1.654     0.983 -55.72   2
       313    749.7208    315.4843 307.6161396  +6.5683004      32337.1     72290.65     81989.89     91.36072     182.6491     364.5745      2.320     5.16     1177.156     64.24302     3030.212        94     2.069     1.686 -64.62   0
       314    421.5706    315.5191 307.7525824  +6.5573696      1155.91     2828.005     3360.588     91.21605     182.1423     364.4658      2.482     8.39     1182.825     64.24302     142.7087        20     1.661     1.184 -23.10   0
       315    984.3173    312.2778 307.5186995  +6.5774061     1200.612     2422.302     2145.052     91.50516     182.5768     364.5745      2.058     6.05     1169.294     64.24302     145.2664        15     1.335     0.982 -55.36   0
       316    925.4901    311.4152 307.5431898  +6.5758128     1526.038     3230.505     3812.607     91.07114     182.0698     364.2845      2.327     6.37     1171.929     64.24302     166.3523        20     1.466     1.038 -63.18   0
       317    568.7720    312.5906 307.6914760  +6.5634804     692.2456     1556.594     1931.191     90.92601     182.0698     364.3208      2.467     3.78     1177.291     64.24302     89.09253         5     1.008     0.407 -83.66   0
       318    458.8446    311.9855 307.7372037  +6.5600706     721.2418     1587.463     1794.789     90.63504     182.0697     364.1758      1.945     5.01     1180.121     64.24302     75.96094         5     1.183     0.601 -12.14   0
       319    407.6185    310.2541 307.7585615  +6.5590788     1013.173      2309.52     2487.349     90.78064     182.2872      364.212      2.349     7.03     1183.138     64.24302     129.1895        13     1.309     1.058 -44.74   0
       320    830.0632    305.1740 307.5830797  +6.5752251     747.1172     1719.251     2151.742     90.92601     182.2872     364.3933      2.455     6.01     1174.931     64.24302     113.7561         7     1.112     0.912 -36.15   0
       321    184.7150    302.2330 307.8515123  +6.5549537     1347.106     3284.269     3712.708     91.36072     182.0697     364.4295      2.443     6.99     1196.772     64.24302     159.7224        27     1.648     1.354 -56.69   0
       322    748.2217    299.9548 307.6172861  +6.5746636      3708.76     8098.002     8506.434     90.92601     182.2872     364.2845      2.220     5.31     1175.687     64.24302     391.7928        40     1.766     1.413 -83.72   0
       323    766.3196    298.3156 307.6098160  +6.5759415     899.8837     1095.568     1710.321     91.21604     182.6491     364.5745      1.430     4.88     1175.424     64.24302     150.3062        10     1.257     0.594 -70.23   3
       324    763.6588    297.8534 307.6109379  +6.5760440     1453.491     2925.279     3246.271     91.50516     182.2148     364.4658      2.163     7.33     1175.431     64.24302     167.6937        19     1.844     0.816 -74.31   3
       325     68.1371    293.8505 307.9002664  +6.5545187     632.9781     1435.576      1645.14     91.36072     182.2148     364.5382      2.187     7.42     1203.347     64.24302     112.4675        10     1.373     1.123  -4.46   0
       326    354.1071    292.7527 307.7814026  +6.5645221     1041.812     2532.108     2727.768     91.21604     182.2148     364.6107      2.605     7.26       1186.1     64.24302     126.6427        15     1.398     1.056 -17.69   0
       327   1002.7653    288.6705 307.5118217  +6.5877660     4734.606     8540.866     9574.419     91.21604     182.2148      364.502      1.943     4.23     1166.448     64.24302      489.851        40     1.664     1.274 -64.98   0
       328    480.7463    289.3158 307.7288628  +6.5701615     1064.458     2695.379     2879.119     91.36072     182.2872     364.6469      2.520     8.03     1176.125     64.24302      139.238        16     1.484     1.215 -63.70   0
       329    243.4881    284.7147 307.8276688  +6.5641504     3051.894     7764.976     8592.373     91.07114     182.5768     364.5745      2.437     6.35     1191.744     64.24302      335.606        46     1.934     1.576 -66.57   0
       330    377.5346    274.9380 307.7722640  +6.5726596     933.3514     2354.847       2518.5     91.36072     182.2872     364.4658      2.366     7.59     1182.696     64.24302      124.025        14     1.413     1.139 -74.04   0
       331    964.1812    274.9746 307.5283263  +6.5921436      724.076     1187.515     1466.898     90.78064     182.0697     364.3933      1.664     4.30     1167.374     64.24302     113.4021         6     1.030     0.511  12.33   0
       332    147.6078    271.4745 307.8679828  +6.5664153      834.665     1845.463     2209.748     90.92601     181.7794     364.2845      2.502     6.48     1198.654     64.24302      139.146        11     1.562     0.754  72.11   0
       333    556.8016    266.5128 307.6980084  +6.5821099     1193.596     2989.831     2764.666     90.48921     181.7794     364.1395      2.298     9.38     1172.747     64.24302     140.8767        26     1.974     1.242  79.02   0
       334    720.6259    264.2018 307.6299654  +6.5885113     2957.593     6834.311     7691.684     90.92601     181.9246      364.212      2.395     5.87     1173.183     64.24302     294.5358        43     1.880     1.438 -67.16   0
       335    900.8635    265.7032 307.5549674  +6.5938734      1106.55     2299.977     2897.649     91.21604     182.4321      364.502      2.054     6.33      1169.26     64.24302     149.4279        17     1.625     1.062  -0.33   0
       336    661.5707    264.0728 307.6545260  +6.5866021     1281.654     3048.353     3316.996     91.21604     182.2872     364.4295      2.418     7.44     1172.766     64.24302     168.7302        25     1.511     1.362 -37.26   0
       337    221.2290    249.5331 307.8381150  +6.5779351     1116.098     2677.476     3450.645     91.07114     182.2872     364.4295      2.655     7.55     1192.734     64.24302     138.7684        17     1.539     1.036 -79.93   2
       338    863.0261    248.6834 307.5712739  +6.5996469      1089.97      2253.07     2748.132     91.36072     181.9972     364.3933      2.226     7.14     1169.306     64.24302     117.9946        17     1.490     0.959 -21.16   0
       339    752.5866    249.0582 307.6171855  +6.5958265     910.4709     2044.279       2705.2     90.63504     182.2148     364.1395      2.603     6.66     1172.524     64.24302     123.5864        10     1.235     1.007  -0.71   0
       340    454.1775    239.4789 307.7415937  +6.5898565     11473.67     30070.14     37224.77     90.92601     181.9246     364.4295      2.661     5.97     1173.657     64.24302     1186.456        82     2.214     1.804 -58.94   0
       341    142.4722    233.3624 307.8714096  +6.5819815     1166.508     3127.171     4027.116     91.21604     182.2872     364.5382      2.703     6.95     1198.115     64.24302      150.506        21     1.704     1.369 -59.60   0
       342    780.0764    238.5522 307.6061082  +6.6010778     8185.141     18374.81     21157.54     91.21604     182.3597     364.4295      2.350     5.22     1172.004     64.24302      777.028        60     1.971     1.578 -49.09   0
       343    117.0809    232.6857 307.8819901  +6.5814123     617.1699     1502.373     1499.794     91.07114     182.6491     364.5745      2.017     3.93     1199.912     64.24302     101.8033         5     1.329     0.332  49.30   0
       344    916.0294    228.8848 307.5498992  +6.6095807     969.2066     1776.698     2061.174     91.36072     181.9972     364.3208      2.071     6.96     1166.641     64.24302     113.1852        14     1.205     1.128 -75.45   0
       345    577.9879    225.3080 307.6905892  +6.5998303     2564.594     6083.812     6794.954     91.07114     181.9972      364.212      2.399     6.28     1169.419     64.24302     238.2335        42     1.840     1.550 -76.75   0
       346    540.7056    225.4457 307.7060875  +6.5985328     1073.031     2754.296     3287.556     91.21604     182.2148     364.6107      2.407     7.41     1169.442     64.24302     152.5432        17     1.462     1.190 -86.01   0
       347    885.0986    221.6440 307.5630051  +6.6115451     7762.701     15592.56     17125.79     91.36072     182.2148     364.7194      2.138     4.56     1166.856     64.24302     810.2577        52     1.814     1.427 -67.14   0
       348    383.6912    224.7690 307.7714002  +6.5935819     845.4758     1776.454     2013.668     91.50516     182.0697     364.4295      1.904     3.83     1178.318     64.24302     120.1865         6     1.103     0.381 -75.37   0
       349    938.8459    222.3933 307.5406294  +6.6130178     1894.146     3479.899     3473.071     90.78064     181.9972      364.067      1.927     5.20     1165.431     64.24302     221.8608        21     1.268     1.246 -56.44   0
       350    971.6434    219.4286 307.5270903  +6.6153290      7378.66     13691.58     14383.09     90.92601     182.3597     364.3571      1.975     4.24     1163.839     64.24302     772.2211        47     1.698     1.370 -58.71   0
       351     11.3883    218.6258 307.9264132  +6.5836828     14046.53     33900.31     40084.16     90.92601     182.0698     364.3933      2.492     5.51     1205.658     64.24302     1562.037        80     2.137     1.721 -71.81  16
       352    684.2242    220.3464 307.6465802  +6.6054119     1202.447      2428.86      3312.98     90.78064     182.2872     364.2483      2.501     5.72     1170.034     64.24302     160.0771        13     1.663     0.554 -58.70   2
       353    682.0074    219.2681 307.6475384  +6.6057835     1293.221     2447.959     3076.045     90.78064     181.9972     364.3571      2.175     6.23      1169.96     64.24302     150.5294        15     1.432     0.892 -68.97   3
       354    490.9559    214.0123 307.7271608  +6.6015978     994.1413     2563.325     2466.668     90.78064     182.1423     364.1758      2.454     7.66     1169.234     64.24302     127.1021        15     1.627     1.010 -59.57   2
       355    823.7194    211.1694 307.5888818  +6.6138344     1364.385     2784.595     2507.657     91.21604     182.2148     364.4295      2.058     5.27     1168.774     64.24302     175.3291        20     1.335     1.108 -64.77   0
       356    503.6642    209.9973 307.7220119  +6.6036790     1221.369     2974.476     3712.638     90.63504     182.0698      364.212      2.524     7.38     1168.918     64.24302      137.927        17     1.345     1.133 -28.27   2
       357    875.5914    210.2747 307.5673411  +6.6159248      1422.15     2866.086     3907.994     90.92601      181.852     364.2845      2.354     5.17     1166.149     64.24302     178.1074        18     1.424     1.077 -82.96   0
       358    735.2632    207.7019 307.6257824  +6.6123293     23747.89     53921.15     61316.09     91.21604     182.4321      364.502      2.357     5.27     1169.949     64.24302     2269.324        84     2.042     1.671 -61.55   0
       359    338.4562    207.0740 307.7908081  +6.5993804     3462.036     9582.349     12722.06     91.21604     182.1423     364.4295      2.898     7.56      1181.76     64.24302      353.804        69     2.547     1.698 -79.07   0
       360    968.9149    206.2640 307.5286675  +6.6206750     2231.084     4119.297     4094.008     91.50516     182.4321     364.4658      1.946     4.73     1162.941     64.24302     260.1636        25     1.504     1.104 -66.72   0
       361    903.0980    204.6142 307.5560930  +6.6191746     5164.688     10280.17     10908.01     91.21604     181.9972      364.212      2.128     4.62     1165.005     64.24302     507.8676        44     1.835     1.328 -68.86   0
       362    446.8018    204.0829 307.7458566  +6.6042274     2613.628     6689.915     7971.364     90.63504      181.852     364.1395      2.544     5.97     1171.636     64.24302     316.3657        47     1.889     1.602 -61.21   0
       363   1007.1429    204.9443 307.5128146  +6.6224865     1416.302      2621.11     2588.261     91.50516     182.3597      364.502      2.026     3.87     1161.527     64.24302     193.9437        15     1.173     0.863 -60.08   0
       364    104.2167    195.4575 307.8886011  +6.5963549     2631.745     6660.384     7665.458     90.78064     182.2148     364.1758      2.416     6.00     1199.764     64.24302     304.2971        43     1.789     1.628 -80.46   0
       365    249.7793    193.4065 307.8281440  +6.6020651     3390.141      8565.78     9983.864     90.92601     181.9972     364.2483      2.495     6.13     1190.826     64.24302     391.8188        52     2.045     1.594 -62.30   0
       366    274.4833    192.0322 307.8179182  +6.6034573     17364.26     44778.33     53378.12     91.36072     182.0697     364.3933      2.581     6.00     1190.119     64.24302     1836.705        91     2.172     1.857 -64.02   0
       367    398.4846    187.4895 307.7665091  +6.6094693      25345.7     65705.84     78416.26     91.07114     182.5768     364.6107      2.604     5.99     1174.169     64.24302     2625.227       103     2.212     1.871 -66.58   0
       368    154.5175    189.2961 307.8678945  +6.6005805     1990.609     5070.694     5797.189     91.21604     182.7214     364.5745      2.436     7.08     1196.495     64.24302     241.6277        36     1.844     1.427 -38.74   0
       369    416.4910    188.3082 307.7589938  +6.6097314      850.008     1740.079     1925.704     91.36072     182.8659     364.5382      2.218     7.06     1172.558     64.24302     105.6027        10     1.334     1.046 -22.67   0
       370    302.6765    185.1822 307.8064266  +6.6072268     9152.557     23711.55     30130.33     90.78064     181.9972     364.4295      2.678     6.06     1187.344     64.24302     999.7833        92     2.349     1.993 -25.38   2
       371    311.3727    185.6943 307.8027932  +6.6073055     993.7338     1724.948     3217.058     91.50516     181.9972     364.2845      2.277     4.96     1185.903     64.24302     155.5043        10     1.171     0.695 -66.69   3
       372    737.7031    183.5573 307.6255813  +6.6223809     19826.36        44102     50443.61     91.36072     182.2148     364.6831      2.320     5.09     1168.101     64.24302     1900.219        88     2.027     1.735 -62.53   0
       373     54.6930    181.2080 307.9096766  +6.6005827     5253.598     12386.98     14880.03     90.92601     181.9246     364.2483      2.463     5.25     1202.839     64.24302     639.5897        57     2.007     1.635 -77.80   0
       374    995.7137    178.2126 307.5184659  +6.6331470     877.7523     1663.462      1817.96     90.92601     182.1423     364.3208      2.286     6.72      1160.06     64.24302     130.8224        12     1.483     0.921 -66.86   0
       375     88.8567    179.6061 307.8955254  +6.6023869     1000.949     1829.174     1827.143     90.78064     182.1423     364.1395      1.804     6.04     1200.279     64.24302     120.8516        12     1.192     0.862 -17.71   0
       376    996.7928    163.8298 307.5185005  +6.6391222     1901.709     3385.174     3947.932     90.78064     182.0697      364.212      1.937     4.33     1159.078     64.24302     247.7266        22     1.348     1.081 -75.10   0
       377    273.3583    158.3562 307.8195258  +6.6173258     15518.86     40418.07     48267.33     91.07114     182.2872     364.3208      2.583     5.92     1190.648     64.24302     1582.044        87     2.195     1.819 -68.78   0
       378    588.5739    159.5570 307.6884059  +6.6273343     1020.181     2741.159     3684.418     90.92601     182.2872     364.3571      2.742     7.69     1166.937     64.24302      126.127        16     1.347     1.229 -64.59   0
       379     18.7040    157.1450 307.9254576  +6.6093149     2567.539     6215.438     7029.556     91.21604     182.2148     364.7194      2.457     6.56     1205.635     64.24302      292.576        46     1.994     1.545 -77.96   0
       380    704.9228    154.7594 307.6401836  +6.6331840     4725.694     10976.41     12469.97     91.21604     182.2872     364.5382      2.332     5.39     1166.604     64.24302     452.7941        52     1.859     1.587 -63.09   0
       381    115.7445    152.1408 307.8852763  +6.6146272     2494.071     6464.926     7458.043     91.50516     182.2872     364.4658      2.541     6.15     1197.684     64.24302     304.0594        50     1.964     1.652 -63.15   0
       382    386.4884    148.5846 307.7728129  +6.6251348     2096.031     5268.086     6088.091     91.07114     181.9972     364.3208      2.566     6.46     1173.161     64.24302     224.3151        39     1.751     1.557 -80.32   0
       383    351.0868    146.8709 307.7875923  +6.6246620     1740.987     4566.778     5601.212     91.50516     182.5768     364.4658      2.648     8.03     1177.535     64.24302     209.0626        35     1.756     1.578 -68.54   0
       384    106.4620    148.1285 307.8892722  +6.6159736     787.3813     1924.083     2677.238     91.50516     182.2872     364.5382      3.084     6.80     1198.037     64.24302     130.6041        11     1.669     0.777 -59.32   2
       385    997.4477    140.8664 307.5189999  +6.6486267     1270.249     1930.091     1967.897     91.36072     182.2148     364.4658      1.695     5.88     1157.177     64.24302     139.3229        13     1.095     0.887 -24.27   0
       386    202.8274    135.8294 307.8496176  +6.6242729     2902.595     7545.932     9333.435     90.78064     182.0697     364.2483      2.556     6.29     1192.247     64.24302     304.8119        50     1.995     1.628 -49.72   0
       387    664.3828    134.5825 307.6577228  +6.6401686      3423.59     8025.819     9476.565     91.07114     181.9246     364.3933      2.426     5.73     1165.669     64.24302     343.3833        45     1.867     1.532 -77.72   0
       388     84.9588    137.9896 307.8985575  +6.6194413     1017.922     1639.364     2431.094     90.63504     182.0697     364.1758      2.296     5.71     1199.251     64.24302      129.449        11     1.141     0.805 -57.92   3
       389     87.1482    134.8273 307.8977543  +6.6208203     963.7207     2105.475     2813.443     90.92601     182.4321     364.3933      2.532     7.57     1198.957     64.24302     138.3423        13     1.942     0.827   2.95   2
       390    616.6605    132.0410 307.6776544  +6.6396312     5138.696      12757.2     15125.97     91.36072     182.2872     364.5745      2.493     6.29     1165.388     64.24302     470.2642        51     1.865     1.664 -39.74   3
       391    620.1853    123.3799 307.6764807  +6.6433250     29090.45     70728.74     83068.12     91.07114     181.9972     364.3571      2.458     5.61     1164.675     64.24302      2770.96        99     2.191     1.753 -64.82   3
       392    812.9974    133.9483 307.5959404  +6.6453672     676.3477     1310.386     1081.139     90.63504     181.9246     363.9944      1.843     5.65     1163.178     64.24302     112.7644         7     1.241     0.725  46.22   0
       393    344.0375    127.8720 307.7911663  +6.6322723     1997.908     5237.943     6648.597     91.21604     182.2872     364.5382      2.671     7.39         1179     64.24302     245.7323        43     2.058     1.542 -54.89   0
       394    525.4443    126.9567 307.7157590  +6.6386954     1041.675     2330.547     2679.295     91.36072     182.2872     364.3208      2.264     8.35       1165.1     64.24302     117.0463        15     1.783     1.093 -81.36   0
       395    299.4846    117.2564 307.8100526  +6.6351695     1866.728     4643.811     5644.751     91.36072     182.2872     364.6107      2.482     8.12     1188.418     64.24302     204.5486        36     2.097     1.340 -48.73   0
       396      2.2227     99.5294 307.9342662  +6.6325543     41075.86     72013.62     90334.12     89.75649     159.5712     290.8216      2.222     5.31     1206.996     64.24302     10100.89       170     3.353     1.862  89.33  24
       397    671.1506    110.5061 307.6557201  +6.6503359      782.332     1851.851     2142.769     91.21604     182.1423     364.6107      2.430     7.01     1163.808     64.24302     104.5012        10     1.556     0.884  -6.94   0
       398    684.6283    107.3064 307.6502230  +6.6521052     1833.595     4210.879     4355.582     91.50516     181.9972     364.3571      2.264     7.00     1163.438     64.24302     183.2085        30     1.649     1.364 -33.69   0
       399    426.4877     98.5189 307.7578717  +6.6471424     2160.464     5068.795     5471.301     91.07114     182.5768     364.5745      2.383     7.16     1167.635     64.24302     245.1752        33     1.937     1.246 -55.55   0
       400    880.6364     94.3915 307.5691424  +6.6639466      1413.49     2844.151      2899.68     90.78064     181.9972      364.212      2.049     5.99     1157.475     64.24302     156.1019        21     1.368     1.151 -78.85   0
       401    898.7704     93.6557 307.5616254  +6.6648519     2796.094     5484.094     5844.904     91.07114     182.3597     364.3933      2.055     4.70     1157.017     64.24302     302.2357        28     1.371     1.322  81.45   0
       402    590.9507     92.4850 307.6896809  +6.6551105     895.0741     2454.524       2812.8     91.36072     182.2872     364.5745      2.653     8.40     1162.756     64.24302     136.2661        17     1.462     1.350 -38.27   0
       403    390.7288     90.0125 307.7730300  +6.6494630     1012.404     2117.126     2039.278     90.78064     181.9972     364.2483      2.200     5.57     1171.977     64.24302     118.6146         9     1.150     0.761 -73.18   0
       404    137.8429     87.1553 307.8782901  +6.6422005     1720.199      4240.26     4641.646     91.21604     182.2872     364.3571      2.435     6.89     1193.688     64.24302      219.545        35     1.873     1.438 -67.54   0
       405     19.5524     85.2620 307.9275442  +6.6390257     7126.635     17237.99     22158.91     91.21604     182.2148     364.5382      2.665     5.48     1203.242     64.24302     794.9022        76     2.214     1.762 -53.75   0
       406    286.8807     85.2272 307.8163780  +6.6479748     773.1125      1565.45     2525.398     91.21604     182.0697      364.502      2.825     6.47      1190.04     64.24302     111.9083         9     1.360     0.864 -68.64   0
       407    821.1805     79.4840 307.5943711  +6.6681299     4131.152     8499.553     9530.072     90.92601     181.9246     364.4295      2.144     5.05      1158.74     64.24302     425.9052        43     1.781     1.408 -73.08   0
       408    766.2061     79.9452 307.6172187  +6.6661143     2009.438     4437.572     5015.602     90.78064     181.9972     364.1032      2.352     5.80     1160.799     64.24302     230.6077        31     1.629     1.428 -59.96   0
       409     59.9698     77.1052 307.9110138  +6.6437463     1951.884     4565.269      4611.61     91.50516     181.9972     364.4658      2.296     6.06     1198.738     64.24302     231.7661        37     1.855     1.383  89.14   0
       410    421.5606     77.0373 307.7606469  +6.6558488     504.4983     1321.061     1510.122     91.07114     182.2148     364.3208      2.327     5.06      1168.76     64.24302     96.49207         5     1.466     0.493 -87.81   0
       411     44.9626     78.0471 307.9172225  +6.6428553      529.019     1319.766      1084.59     91.21604     182.2872     364.3571      2.169     5.22     1200.099     64.24302     93.41968         5     1.384     0.557 -12.45   0
       412      2.5826     72.6578 307.9350286  +6.6436623     1614.113     3340.041     4269.596     90.78064     164.5424      296.711      2.317     6.71       1202.8     64.24302     187.1173        25     1.710     1.086 -73.24  24
       413    761.1294     67.7159 307.6197421  +6.6709958     1167.432     2428.968     2140.282     91.64938     182.5768      364.502      2.179     7.03     1160.189     64.24302     140.6659        18     1.629     0.954 -75.17   0
       414     87.7831     61.3482 307.8999823  +6.6511832     5396.413     12992.19     14997.91     90.78064     182.3597     364.1758      2.437     5.56     1195.526     64.24302     606.5668        58     1.972     1.659 -69.10   0
       415    416.3168     61.0585 307.7633678  +6.6622722     1247.849     3231.739     3112.073     91.50516     182.2872     364.5382      2.386     9.17     1170.062     64.24302     130.9128        25     1.585     1.481  81.78   0
       416    630.3420     53.0538 307.6746293  +6.6727037      10620.2     24621.32     28914.66     91.50516     182.2872     364.4658      2.413     5.50     1160.969     64.24302     1068.695        68     2.009     1.668 -68.70   0
       417    530.1409     49.1678 307.7164327  +6.6709742     2759.393     6947.328     7954.423     91.07114     182.3597     364.4295      2.445     6.22     1162.796     64.24302      274.615        45     1.895     1.570 -74.41   0
       418    250.2852     48.8742 307.8328274  +6.6617646     961.0152     2846.625      6258.36     91.50516     182.6491      364.502      4.604     8.76     1190.216     64.24302     144.5948        13     2.023     1.059 -25.16   3
       419    435.7163     44.8663 307.7558474  +6.6696052     12127.48     30450.02     35915.56     91.50516     182.5768     364.5382      2.516     5.78     1169.201     64.24302     1263.145        79     2.102     1.772 -59.67   0
       420    256.3254     45.3709 307.8304341  +6.6634129     5034.506     12559.71     15893.57     91.21604     182.2872     364.4295      3.025     5.83     1189.879     64.24302     513.2223        63     2.074     1.709 -64.70   0
       421    913.2689     44.7631 307.5572406  +6.6855229     1588.621     3150.007     2699.355     91.21604     182.2872     364.5745      2.056     5.35      1153.33     64.24302     198.9772        22     1.404     1.232 -45.22   0
       422    244.5602     41.9743 307.8354419  +6.6644226     1611.442     3905.888     5651.347     90.92601     182.0697     364.2483      3.028     7.77     1190.371     64.24302     191.6804        30     1.736     1.440 -67.86   2
       423     22.1297     44.7640 307.9278469  +6.6558346     1406.596     3236.931     3783.431     91.21604     182.2872      364.502      2.434     7.61     1197.281     64.24302     172.6503        23     1.703     1.203 -54.85   0
       424    616.4714     43.0802 307.6807345  +6.6763609      1997.63     4858.976     6329.919     91.64938     182.5768      364.502      2.656     6.20     1160.591     64.24302     199.9257        36     1.626     1.523 -64.62   0
       425    934.2760     35.7481 307.5488068  +6.6899422     561.4395     758.5593     824.6083     91.36072     182.3597     364.4658      1.384     3.86     1151.957     64.24302     89.05408         5     1.359     0.314 -30.17   0
       426    685.5528     34.1811 307.6523042  +6.6823328     1137.422      2374.45     2645.194     90.78064     182.2872     364.2483      2.089     7.52     1160.037     64.24302     137.9692        17     1.447     1.093 -16.86   0
       427    727.4236   1020.4808 307.6016731  +6.2764255     933.6781     1435.544     1210.987     90.92601     181.9246     327.0721      1.664     3.58     1224.889     64.24302     150.2643         7     0.932     0.744  39.12  16
       428    919.2924     24.6000 307.5554137  +6.6940490     3099.479      5788.52     6034.645     90.78064     181.7067      364.067      1.977     4.40     1151.893     64.24302     341.7152        33     1.534     1.286 -52.49   0
       429    518.3005     25.1999 307.7221664  +6.6804773     1601.734      4006.06     4605.193     90.78064      181.852     363.9944      2.424     7.04      1162.89     64.24302     184.3248        33     1.575     1.536 -86.44   0
       430    720.0703     23.7178 307.6383011  +6.6878007     1239.114     2566.043     2299.536     91.64938     182.5768      364.502      2.131     6.00     1159.014     64.24302     184.0576        19     1.413     1.204 -30.70   0
       431    457.4268     23.7986 307.7475304  +6.6790283     932.6979     1867.423     1990.126     90.92601     181.9246      364.212      2.108     6.08     1167.848     64.24302     124.2698        12     1.329     0.781  36.21   2
       432    454.6524     24.3551 307.7486655  +6.6787061     598.4223     1243.099     1078.575     91.36072     182.2872     364.4658      1.670     3.94     1168.054     64.24302       111.05         5     1.185     0.375  57.81   2
       433    983.7946     21.0148 307.5287070  +6.6976676     1598.184      2803.91     3369.746     90.92601     181.9246     364.2845      2.040     4.61     1144.953     64.24302     198.4303        15     1.154     0.954 -73.47   0
       434    358.4432   1018.8350 307.7550623  +6.2648322      1592.33     2777.852     2742.832     91.07114     182.2872     347.3974      1.903     4.95     1231.765     64.24302     215.3175        17     1.381     0.900 -84.41  16
       435    968.0936   1015.9279 307.5018095  +6.2862866     686.8059     914.5159     262.8366     91.21604     182.3597     364.5382      1.324     4.45     1219.594     64.24302     126.4196         6     1.022     0.552 -81.19   0
       436    745.1052   1008.2921 307.5947352  +6.2820459     7166.688     11868.13     12738.36     91.36072     182.8659     364.4658      1.767     3.67     1223.217     64.24302     929.6301        37     1.580     1.152 -59.31   0
       437    540.7055   1008.9315 307.6796560  +6.2749898      3573.37     6489.007     6956.768     91.21604     182.5045      364.502      1.943     4.37     1226.979     64.24302     420.4944        33     1.627     1.162 -67.27   0
       438    510.9935   1010.2814 307.6919577  +6.2734439     936.3948     1589.796      1242.95     90.92601     181.7794     364.2483      1.779     3.81     1227.075     64.24302     147.8857         8     1.041     0.746  80.99   0
       439    291.0040   1007.7198 307.7834622  +6.2671743     11976.37      22168.5      25339.7     90.78064     181.7794     364.1758      2.055     3.92     1231.077     64.24302     1461.752        63     1.849     1.457 -55.45   0
       440    806.1187   1007.8979 307.5693927  +6.2842334     1015.048     1538.133     1656.455     91.21604     182.7214     364.5745      1.617     4.05     1220.196     64.24302      186.171         9     1.160     0.655 -81.89   0
       441    415.0181   1008.3594 307.7319061  +6.2710428     666.7598     1200.443     1226.285       90.926     182.0698      364.212      1.763     3.00     1228.224     64.24302     98.92542         5     0.860     0.480  -0.83   0
       442    262.5774   1005.4281 307.7953523  +6.2671726     783.5573      1368.78     1105.043     90.78065     182.0698     364.3208      1.543     4.67     1230.997     64.24302     142.9001         8     1.356     0.455 -42.41   0
       443    906.4075   1001.6125 307.5279259  +6.2901546     8565.585     13218.95     13916.73     90.92601     182.0698     364.3571      1.677     3.46     1219.352     64.24302     1168.039        36     1.518     1.051 -65.18   0
       444    537.8911   1001.1352 307.6810885  +6.2781157      6982.94      12451.5     13608.01     91.21604     182.5045      364.502      1.926     3.94     1226.649     64.24302     830.8477        40     1.589     1.256 -68.89   0
