#   1 NUMBER                 Running object number                                     
#   2 X_IMAGE                Object position along x                                    [pixel]
#   3 Y_IMAGE                Object position along y                                    [pixel]
#   4 ALPHA_J2000            Right ascension of barycenter (J2000)                      [deg]
#   5 DELTA_J2000            Declination of barycenter (J2000)                          [deg]
#   6 FLUX_APER              Flux vector within fixed circular aperture(s)              [count]
#   9 FLUXERR_APER           RMS error vector for aperture flux(es)                     [count]
#  12 FLUX_RADIUS            Fraction-of-light radii                                    [pixel]
#  13 FWHM_IMAGE             FWHM assuming a gaussian core                              [pixel]
#  14 BACKGROUND             Background at centroid position                            [count]
#  15 THRESHOLD              Detection threshold above background                       [count]
#  16 FLUX_MAX               Peak flux above background                                 [count]
#  17 ISOAREA_IMAGE          Isophotal area above Analysis threshold                    [pixel**2]
#  18 A_IMAGE                Profile RMS along major axis                               [pixel]
#  19 B_IMAGE                Profile RMS along minor axis                               [pixel]
#  20 THETA_IMAGE            Position angle (CCW/x)                                     [deg]
#  21 FLAGS                  Extraction flags                                          
         1    718.7355     17.4108 307.6452637  +6.6898702     7209.712     11127.91     11629.92     81.50971      163.476     327.1473      1.669     3.96     927.6295     57.68223     912.7584        35     1.589     0.999  68.57   0
         2    638.7997     16.6636 307.6785024  +6.6875005     3440.662     5378.023     5607.849     81.24805     163.4108     326.9845      1.658     3.99     929.6406     57.68223     479.6467        23     1.509     0.888  72.70   0
         3    341.1068     15.9322 307.8022157  +6.6778089     865.6088      1346.43     1089.578     81.90065     163.8663     327.2774      1.688     6.37     946.4411     57.68223     112.0234        14     1.463     0.779  85.65   0
         4    439.1261     12.8860 307.7615929  +6.6823603     5857.021     9501.919     10000.56     82.16024     163.9962     327.2449      1.735     3.87     936.0283     57.68223     678.0457        32     1.474     1.104  67.70   0
         5    686.1948     11.6652 307.6589778  +6.6911521     721.7351     1243.635     1042.313     81.50971     163.3457     327.0171      1.872     5.78     928.4924     57.68223     101.7816         9     1.521     0.618  83.42   0
         6    514.6573      9.9547 307.7303092  +6.6861063     920.1842      1358.08     1590.275     82.03055     163.6712       327.31      1.721     6.01     931.3505     57.68223     135.1669        11     1.237     1.014 -86.01   0
         7    335.6766      7.8674 307.8047442  +6.6809556     11848.87     19699.55     20796.33     82.16024     163.7363     325.0904      1.786     4.01     946.9398     57.68223     1352.025        46     1.594     1.251  69.57  16
         8    109.1719      8.0780 307.8988443  +6.6732438     2477.634     4260.719     4758.526     81.90065     163.6712     326.0388      1.856     4.44     950.2787     57.68223     299.3832        23     1.430     1.030  69.16  16
         9    100.6294      7.1173 307.9024259  +6.6733524     1418.901     2604.357     3269.945     81.90065      163.476     320.2398      1.990     5.11     950.1898     57.68223     179.2117        18     1.392     0.906  74.00  16
        10     40.1002     12.4705 307.9273924  +6.6691019      8132.15     13236.87     13923.45     81.90065     163.8013     327.2774      1.761     3.99     952.1472     57.68223     965.5032        37     1.585     1.101  69.77   0
        11    402.0108      5.9003 307.7772496  +6.6839972     2007.638     3536.861     3254.522     81.77055     163.2805     309.2456      1.872     4.41     940.3406     57.68223     257.4902        26     1.561     1.017  72.30  16
        12    803.9394      6.2207 307.6102371  +6.6973420     932.7028     992.4372     753.6978     81.64024     163.6062     312.6696      1.391     4.56      925.958     57.68223     127.1987         8     0.990     0.596  62.90  16
        13    470.4952      6.3486 307.7487798  +6.6861125     674.5364     896.8851     1257.528     81.90065     163.6062     313.9949      1.505     5.08     932.4237     57.68223     104.9428         7     0.992     0.737 -49.43  16
        14    996.8669      2.8535 307.5301855  +6.7051810     696.8567     1019.623     528.8569     82.03055     151.0173     270.8093      1.461     5.19     916.5222     57.68223     112.0826         9     1.241     0.614  70.72  24
        15    828.0979      1.9285 307.6003431  +6.6999221     1194.267     1761.462     1856.893     78.17593     139.2808     256.1819      1.487     4.31     924.9877     57.68223     209.2504        12     1.205     0.892  35.68  24
        16    662.8045      2.0918 307.6690187  +6.6943205     9187.215     11648.37     11732.56       79.258     141.1035     258.5811      1.364     3.25     928.7824     57.68223     1327.089        23     1.145     0.960  27.32  24
        17    540.4694      1.9736 307.7198532  +6.6902672     1049.684      1393.74     1354.388     78.44784     139.5862     256.8874      1.363     4.47     931.3394     57.68223     181.3337         9     0.969     0.745  82.32  24
        18     80.4362      1.6824 307.9109995  +6.6749153     740.2013     1293.828     1269.111     75.82527     135.5618     252.2027      1.723     5.34      950.373     57.68223     109.6532         9     1.156     0.696   4.75  24
        19    262.6874      1.0939 307.8352987  +6.6812966     678.5578       907.74     1021.021     68.13344     126.4597     242.1665      0.976     2.64     950.4854     57.68223     193.6204         5     0.902     0.290   2.31  24
        20    539.0656    996.8484 307.6869422  +6.2795073     4177.187     6435.005     6670.707     81.90065     163.5411     327.2774      1.612     3.85     968.9988     57.68223     636.7205        27     1.441     1.003  55.05   0
        21    966.6995   1022.7127 307.5085313  +6.2831361     6618.922     8806.094     9080.599     81.24805     144.3854     262.0983      1.468     3.62     958.3286     57.68223     965.4948        25     1.286     0.950  36.28  24
        22    726.6530   1021.3929 307.6082368  +6.2756576     3077.059     4538.487      4359.45     81.50971     158.5831     281.5271      1.584     3.86     965.4421     57.68223     481.8786        22     1.427     0.823  63.94  24
        23    720.8554   1023.2436 307.6105817  +6.2746996     798.1591     1038.156     1544.656     76.38487      136.423     253.2979      1.304     3.21     965.5054     57.68223     152.9275         7     0.877     0.556  57.17  24
        24    449.7060   1022.2032 307.7231877  +6.2660430     975.5779     1315.769      1134.66     81.77055     150.1689     269.6667      1.488     5.54      971.301     57.68223     134.8904        12     1.295     0.925  30.10  24
        25    251.1377   1022.8709 307.8056005  +6.2590983     1323.019     1798.419     1580.691     80.19283     141.9311     259.4854      1.512     5.41     972.2324     57.68223     201.1566        14     1.321     0.760  45.47  24
        26    648.8804    996.2964 307.6413689  +6.2834148     1384.943      1843.74     2302.604     81.77055     163.9312     327.3425      1.541     4.25     965.4974     57.68223     240.1273        14     1.309     0.726  77.96   0
        27     73.7597    995.1469 307.8801734  +6.2645749     829.4514     1309.863      1532.18     81.90065     163.6712     327.2449      1.884     5.20     973.3472     57.68223     117.2626         8     1.152     0.692  66.03   0
        28    492.3188    993.4948 307.7064629  +6.2793243     2365.676     3587.074     4008.673     81.77055     163.9312     327.3425      1.630     3.83     970.0911     57.68223     305.6077        19     1.332     0.822  71.92   0
        29    926.7462    985.5162 307.5263655  +6.2971582     46690.32     69859.59     73722.44     82.03055     163.6712     327.4075      1.635     3.88     958.7223     57.68223     6641.011        62     1.583     1.126  65.26   0
        30      1.0842    986.0621 307.9106508  +6.2658769     650.4511     943.1554     792.8273     67.82018     125.9535     241.9465      1.163     3.26     973.9155     57.68223     202.4601         6     1.263     0.244  83.86  24
        31    234.1787    983.6121 307.8139655  +6.2747350     1751.833     2603.445     2260.149     81.64024     163.4108     327.1147      1.627     3.95     972.0806     57.68223     253.7412        18     1.295     0.908  77.99   0
        32    121.9667    983.0787 307.8605683  +6.2711800     655.9079     887.4538     440.0958     81.90065     163.6712     327.2449      1.533     5.26     972.7237     57.68223     112.3643         7     1.302     0.627  71.43   0
        33    772.8904    977.2758 307.5905210  +6.2954178      7082.88     10823.92     11745.08     82.03055     163.9312     327.2774      1.673     3.92     963.3467     57.68223     1054.577        36     1.614     1.073  85.27   0
        34    633.0260    981.5608 307.6484464  +6.2889672     941.0388     1313.196     1017.191     81.64024      163.476     327.0822      1.520     5.49     965.5983     57.68223     146.0544        12     1.081     0.864  42.36   0
        35    824.6691    979.3191 307.5689546  +6.2963057     2343.251     3397.516     3473.222     82.28973     163.9312     327.2774      1.614     3.86     961.9691     57.68223     318.2532        19     1.330     0.868  69.97   0
        36    559.6315    976.5983 307.6790850  +6.2885566     1047.721     1333.623     1913.477     81.37898      163.476     327.0171      1.534     5.01     967.5869     57.68223     123.2671        15     1.326     0.797  68.67   0
        37    242.2135    976.0119 307.8108862  +6.2781427     1527.348     2183.187     1831.977     81.90065     163.3457     327.1798      1.504     4.29     972.0472     57.68223     250.2981        13     1.230     0.700  65.89   0
        38    207.0705    976.7360 307.8254516  +6.2766619     837.3644     1378.746      1163.69     82.03055     163.6712     327.2449      1.515     4.51     972.1591     57.68223     151.2064         7     0.977     0.592  16.22   0
        39     67.3853    974.3043 307.8835240  +6.2729644     2704.338     4220.066     3994.835     81.77055     163.4108     327.0171      1.684     4.25     973.0061     57.68223     365.4402        20     1.368     0.894  69.87   0
        40    961.0440    972.2674 307.5125692  +6.3037732     7213.109     10975.13     11409.46     82.03055     163.6062     327.2774      1.622     3.73     957.4061     57.68223      950.369        32     1.474     0.993  65.12   0
        41    217.4581    968.7885 307.8214074  +6.2802922     685.7491     1229.515     1305.815     81.37898     163.6062     326.9519      1.611     4.61     972.0811     57.68223     140.4875         7     1.384     0.437  55.28   0
        42    643.3145    966.8304 307.6446699  +6.2953930     759.8926     992.4821     1015.841     82.03055      163.476     327.1147      1.378     4.68     965.2098     57.68223     126.9559         8     1.273     0.489  60.15   0
        43    934.8653    964.0781 307.5237129  +6.3062799     2117.075      3415.96     3635.444     82.16024     163.7363     327.2123      1.719     4.55     957.8334     57.68223     324.8387        18     1.465     0.830  73.01   0
        44    267.7725    960.1523 307.8008102  +6.2855491      4517.21     6860.721     7073.913     81.64024     163.7363     327.1798      1.630     3.98     971.9305     57.68223     658.2468        29     1.558     0.951  71.12   0
        45    794.2181    960.4910 307.5822293  +6.3030605     1322.895     1873.807      1440.94     81.77055     163.4108     327.1147      1.597     4.53     962.3154     57.68223     178.0734        15     1.390     0.834  60.86   0
        46    655.5816    959.8480 307.6398114  +6.2986864      4652.88     6991.514     7066.691     81.50971     163.6712     327.0496      1.561     3.78     964.8276     57.68223     623.1702        24     1.372     0.907  69.85   0
        47   1004.8489    960.0883 307.4947894  +6.3102635      763.127     1105.672     858.8337     82.03055     163.5411     327.3425      1.549     4.41     956.1504     57.68223     119.5526         7     0.976     0.567  78.82   0
        48    477.8231    958.2705 307.7136667  +6.2933797       1168.2     1670.553     1742.483     81.64024     163.5411     327.2123      1.622     6.03     968.9088     57.68223     165.1949        14     1.487     0.688  82.71   0
        49     36.4284    957.3255 307.8969496  +6.2789307     2274.986     3348.745     2932.481     81.90065     163.6712     327.1798      1.621     4.00     972.8635     57.68223     299.1617        19     1.292     0.879  68.72   0
        50    887.1786    956.4701 307.5437673  +6.3078279     1009.521     1369.461     1409.459     81.64024     163.5411     327.2123      1.512     4.99     959.1024     57.68223     155.4791         9     1.232     0.572  71.99   0
        51    958.8776    953.8506 307.5140857  +6.3113041     803.6904      1087.25     329.7614     82.03055     163.7363     327.2449      1.464     5.19     957.0405     57.68223     143.1586         9     1.187     0.642  75.31   0
        52   1011.4575    952.3491 307.4923046  +6.3136791     859.5632      1655.68     1431.784     82.03055     163.6712     327.2449      1.987     6.03     955.9381     57.68223      153.793        12     1.645     0.622 -87.15   0
        53    979.6443    954.1042 307.5054548  +6.3118927     640.2513     939.9496     671.4673     82.03055     163.6062      327.375      1.359     4.53     956.6032     57.68223     99.26703         6     0.953     0.611  20.78   0
        54    580.3057    952.4821 307.6713126  +6.2992055     1765.926     2673.008      2377.29     81.77055     163.9962      327.375      1.636     4.35     966.3973     57.68223       246.42        16     1.430     0.695  66.34   0
        55    303.6158    953.7522 307.7861451  +6.2893959      948.633     1557.751     2091.436     81.50971     163.6712     326.9845      1.687     4.60     971.7083     57.68223     147.4532         8     0.963     0.624  73.46   0
        56    619.4985    948.5448 307.6551726  +6.3021442     1341.181     1923.602     1996.228     81.90065     163.6712     327.5051      1.614     3.98     965.5428     57.68223     195.3849        16     1.267     0.861  86.13   0
        57     69.2647    949.1839 307.8835928  +6.2833978     711.5529     1141.762     1439.641     81.50971     163.5411     327.1147      1.525     4.69     972.4951     57.68223      102.834         8     1.150     0.542  72.14   0
        58    299.1962    946.3966 307.7882281  +6.2922840     1315.144      2004.74      2692.08     81.37898     163.2152     327.0496      1.834     5.34     971.6937     57.68223     172.2234        10     1.290     0.624  79.08   0
        59    567.6777    944.7519 307.6768155  +6.3019736     753.9168      863.657     633.7544     82.03055     163.7363     327.1798      1.492     5.04     966.4495     57.68223     114.0229         8     1.131     0.634  -7.86   0
        60    766.0376    942.3923 307.5945372  +6.3095898     884.9912     1248.095     779.6585     81.24805     163.4108     326.9845      1.548     5.80     962.4445     57.68223     129.5256        11     1.256     0.755  66.26   0
        61    903.7906    939.1785 307.5374497  +6.3155216      7369.29      10848.8     11006.73     81.64024     163.4108     327.0496      1.555     3.79     957.9913     57.68223     1050.066        30     1.453     0.944  67.54   0
        62    439.4990    936.1370 307.7303233  +6.3012311     2214.495     3216.319     3292.451     81.77055     163.7363     327.2774      1.543     5.65     969.5386     57.68223     315.8096        19     1.575     0.812  64.16   0
        63    341.3169    934.6525 307.7711366  +6.2985475     9711.989     14714.55     15943.05     82.03055     163.6712     327.3425      1.664     3.88        971.2     57.68223     1262.407        41     1.606     1.023  66.13   0
        64    112.8096    938.1479 307.8658877  +6.2894200     456.1668     428.5961     232.3646     81.37898     163.5411     326.9845      1.110     3.42     972.1074     57.68223     88.48578         5     1.010     0.334  45.93   0
        65    261.4207    933.5698 307.8043440  +6.2963095      7308.33     11031.31     11378.88     81.50971      163.476     327.1473      1.643     4.01     971.8201     57.68223     999.5408        29     1.478     0.955  64.44   0
        66    179.9625    932.1163 307.8382120  +6.2941700     532.2027     616.4338     598.1284     82.03055     163.6062     327.1798      1.313     3.80     971.8864     57.68223      91.4425         5     0.806     0.514  56.14   0
        67    773.8312    928.0432 307.5917829  +6.3157743     636.5186     806.7019     1179.623     81.64024     163.6062     327.0822      1.627     5.20     961.8074     57.68223     96.49414         8     1.436     0.533  72.08   0
        68    589.5729    928.0146 307.6682877  +6.3096171     1086.761     1822.671     2211.913     81.64024     163.5411     327.1473      1.764     3.54     965.7756     57.68223     195.6104        11     1.198     0.672  65.73   0
        69    919.3884    924.1578 307.5314769  +6.3222438     1238.656     1777.387     2320.807     81.37898      163.476     326.9519      1.674     6.05      957.103     57.68223     188.4006        15     1.454     0.752  55.95   0
        70    876.2694    924.5416 307.5493674  +6.3206447     568.0304      789.687     709.6489     82.16024     163.6712     327.2123      1.213     3.85       958.42     57.68223     130.0682         5     0.866     0.491 -49.02   3
        71    875.0190    922.0345 307.5499706  +6.3216380     744.8759     1144.806     914.8149     81.50971      163.476     327.0171      1.609     5.42     958.3679     57.68223     101.4772        10     1.114     0.801 -19.75   2
        72    986.9263    920.2781 307.5035642  +6.3261006       837.96     1116.547     998.3841     82.28973     163.9312     327.2774      1.540     5.81     955.6547     57.68223     124.2697        10     1.105     0.859 -64.57   0
        73    755.9539    917.6234 307.5995554  +6.3194780     1850.401     2698.696     2813.458     81.64024     163.6712     327.1147      1.543     3.98      961.934     57.68223     272.5115        16     1.236     0.842  75.52   0
        74    631.5984    913.5519 307.6513250  +6.3169958     770.0623     1383.337     1640.892     81.37898     163.2805     326.8217      1.923     4.83        964.6     57.68223      133.194         8     1.415     0.646 -88.47   0
        75    619.8424    914.0491 307.6561894  +6.3163967     778.8591     1078.035      771.783     82.03055     163.6062     327.2123      1.643     4.72     964.8881     57.68223     105.3086         8     1.167     0.542  75.88   0
        76      6.4665    914.6443 307.9108317  +6.2955406     984.9127     1563.177     1488.609     82.03055     163.6062     314.9767      1.844     2.97     972.3069     57.68223     140.4479         9     0.930     0.658  57.49  16
        77    987.2352    913.1316 307.5036753  +6.3290613     1298.072     1820.366     1681.665     81.90065     163.7363     327.3425      1.570     4.16     955.3403     57.68223     183.9142        14     1.255     0.786  82.76   0
        78    540.9408    913.2154 307.6889773  +6.3140966     1246.647     1852.025     2120.673     81.50971     163.6712     326.9845      1.559     5.41     966.1503     57.68223     191.7379        14     1.278     0.776  79.42   0
        79    674.5571    910.5824 307.6335882  +6.3196604     2892.515     4337.417     4695.646     81.50971     163.5411     327.0171      1.652     4.08     963.5161     57.68223     415.0209        20     1.401     0.897  63.09   0
        80    964.8085    908.7264 307.5131349  +6.3301313     781.8596     1205.994     1383.793     81.64024     163.2152     327.0822      1.622     4.44     955.6803     57.68223     103.7544         6     0.990     0.566  66.46   0
        81    835.3948    906.9883 307.5669277  +6.3265253      801.972     1319.712     1023.355     81.64024     163.4108     327.1473      1.708     4.94     959.2891     57.68223     122.6593         9     1.161     0.594  77.28   0
        82    214.6584    905.8167 307.8246950  +6.3061942     2226.338     3372.514     3232.965     81.50971     163.6062     326.9845      1.534     4.06     971.7624     57.68223     309.9594        19     1.448     0.809  73.36   0
        83     71.0684    906.5759 307.8842841  +6.3010479     2871.819     4729.624     5023.149     81.64024     163.5411     327.1798      1.799     4.35      971.942     57.68223     373.2532        26     1.496     1.001  76.30   0
        84    952.5728    906.2053 307.5182998  +6.3307636     879.3333     1214.181     1127.792     81.50971      163.476     327.0496      1.495     4.32      955.876     57.68223     137.9088        10     1.189     0.639  57.61   0
        85     88.5522    906.0144 307.8770443  +6.3018685      2230.17     3170.031     3028.167     81.37898     163.6062     326.9519      1.531     3.79     971.8259     57.68223     296.9392        18     1.267     0.851  68.80   0
        86    248.7646    903.0656 307.8106277  +6.3084768     948.7156     1578.409     1321.273     81.90065     163.6712       327.31      1.680     4.94     971.6769     57.68223     135.2615        14     1.321     0.916 -78.06   0
        87    669.0323    899.7751 307.6362453  +6.3239370     7183.335     10752.58     11024.21     81.50971      163.476     327.0496      1.589     3.82     963.4418     57.68223     1057.012        28     1.413     0.959  67.92   0
        88    353.4948    901.6577 307.7671927  +6.3125776     854.0997     1211.584     1775.203     81.90065     163.6712     327.4075      1.646     5.14     970.7068     57.68223     155.8778         9     1.395     0.535  64.77   0
        89    806.4568    900.7153 307.5791536  +6.3281475     793.5203     1035.155     1094.932     82.03055     163.6712     327.3425      1.350     4.10     960.1423     57.68223     135.9626         7     1.078     0.445  76.82   0
        90     29.0148    898.0566 307.9020314  +6.3031481     1161.327     1675.097     1827.209     81.37898     163.5411     326.9194      1.489     5.04     972.1826     57.68223      172.116        12     1.339     0.643  59.92   0
        91    906.8553    896.1277 307.5376204  +6.3333971     2764.026     4149.218     3620.731     81.90065     163.5411     327.2123      1.568     3.79     956.8484     57.68223     426.5114        21     1.388     0.869  59.77   0
        92     42.2512    896.5842 307.8965858  +6.3042018     1090.866      1717.34     1477.522     81.37898     163.7363     326.9519      1.723     4.73      972.086     57.68223     157.5418        11     1.245     0.640  71.76   0
        93    352.0729    892.8755 307.7680791  +6.3161554      16459.5     25201.38     26602.97     82.28973     163.9312     327.2774      1.616     4.02     970.6161     57.68223     2192.975        45     1.552     1.077  67.25   0
        94     86.5972    893.8762 307.8782662  +6.3068135     1266.285     2060.462      2188.43     81.50971       163.15     327.1147      1.766     5.75     971.7272     57.68223     166.9249        13     1.322     0.705  65.18   0
        95    403.5339    892.5353 307.7467243  +6.3180240     644.6365     1047.362     936.8062     82.03055     163.6712     327.2774      1.608     3.56     969.5159     57.68223     95.70502         5     0.918     0.521 -43.72   0
        96    222.9022    892.4486 307.8217236  +6.3119901     1329.476     1885.401     1747.944     82.03055     163.6062     327.4075      1.554     5.44     971.6651     57.68223     169.0977        13     1.067     0.888  64.69   0
        97    429.8875    884.2880 307.7360602  +6.3223134     997.3711     1350.543     1097.415     81.77055     164.1908     327.3425      1.442     5.67     968.5067     57.68223     157.9675        12     1.318     0.688  80.49   0
        98    115.3430    883.5538 307.8666805  +6.3120427      1639.12     2622.642     3009.741     82.03055     163.6712     327.3425      1.776     4.68     971.5467     57.68223     261.3368        18     1.574     0.757  57.97   0
        99    897.2321    877.8323 307.5422295  +6.3406287     2130.307     3087.599      3083.97     81.50971     163.4108     326.9519      1.536     4.32     956.6741     57.68223     333.4008        16     1.364     0.808  72.43   0
       100    683.3996    879.7803 307.6309517  +6.3326727     769.4354     1166.264     1223.249     81.64024     163.2152     326.9194      1.614     5.04      962.679     57.68223     128.9147         8     1.105     0.651  42.68   0
       101    510.0580    879.5362 307.7029331  +6.3269649     642.5787     1129.844     1517.926     82.16024     163.6062     327.2774      2.095     4.69     966.2672     57.68223     98.07251         7     1.470     0.424  65.24   0
       102    867.9235    877.4136 307.5544131  +6.3398222     2097.278     3062.423     3397.268     81.64024     163.4108     327.0496      1.537     4.48     957.2856     57.68223     323.3803        20     1.423     0.944  62.91   0
       103    831.2385    876.7303 307.5696686  +6.3388780     3300.372     5104.982     5746.773     81.90065     163.6712       327.31      1.675     4.25     958.5588     57.68223     448.1012        22     1.381     0.884  64.84   0
       104     98.9607    877.1619 307.8736980  +6.3141298     2638.739     3745.799     4470.073     81.77055     163.6062     327.1147      1.494     3.84     971.4691     57.68223     384.7665        19     1.210     0.906  65.73   0
       105    461.6072    875.2877 307.7231932  +6.3270934     650.2513     1056.677     1659.193     81.50971     163.3457     326.9845      1.844     4.36     967.2125     57.68223     91.74988         5     1.181     0.459 -81.11   0
       106    567.1606    868.1275 307.6796075  +6.3335893     339553.2     516402.6     538682.4     81.90065     163.6712       327.31      1.618     3.93      964.985     57.68223     44257.84       158     1.688     1.233  68.52   0
       107    411.4186    870.7447 307.7441847  +6.3272845     7701.731     11754.59     12180.25     81.50971     163.6712     327.0496      1.659     3.88     968.7092     57.68223     1053.583        31     1.457     0.989  66.71   0
       108    654.9362    871.2155 307.6430580  +6.3352554     1263.104     1736.892     1727.578     81.50971     163.5411     327.1147      1.481     4.56        963.1     57.68223     179.9785        12     1.123     0.765  79.05   0
       109    354.6323    869.0932 307.7678181  +6.3260593     12718.31     19694.33     20577.79     82.16024     163.5411       327.31      1.669     3.89      970.265     57.68223     1736.347        42     1.554     1.066  67.13   0
       110    905.4413    864.3818 307.5392717  +6.3464559     5649.004     8711.314     9675.593     81.50971      163.476     327.0171      1.640     3.83     956.1708     57.68223     813.0574        29     1.501     0.923  66.17   0
       111    673.0498    865.4063 307.6357321  +6.3382603     3787.887     5705.395      6418.19     81.50971      163.476     326.8542      1.617     3.86     962.7103     57.68223     570.3975        25     1.399     0.949  65.35   0
       112    744.6636    862.4722 307.6060951  +6.3418687     901.1405     1281.997     887.1075     82.03055     163.6712     327.2774      1.561     5.05     960.2528     57.68223     137.4781         9     1.449     0.667  67.23   0
       113    647.7985    859.3581 307.6464202  +6.3399115     3377.655     5062.544     5326.919     81.37898     163.3457     326.9194      1.592     3.61     962.8381     57.68223     546.7214        26     1.406     0.990  71.80   0
       114    836.3214    858.6475 307.5681647  +6.3465133      1780.52     2551.975     2812.795     82.03055     163.7363     327.2123      1.542     3.94     957.8441     57.68223     268.8981        14     1.180     0.745  65.10   0
       115    638.5269    858.7133 307.6502916  +6.3398672     1033.408     1727.787     2129.619     82.16024     163.9962     327.2449      1.788     5.22     962.9599     57.68223     137.2311        11     1.156     0.797  73.58   3
       116    640.7542    854.2975 307.6495152  +6.3417648     2299.194     3769.157     4220.431     82.03055     163.5411     327.4075      1.699     3.95     962.7368     57.68223     336.0427        19     1.359     0.888  66.29   3
       117    963.4210    856.9124 307.5154470  +6.3514760     829.2075     1302.997     1090.225     82.03055     163.4108     327.1473      1.503     4.55     953.9692     57.68223     115.4513         9     1.013     0.687  67.59   0
       118    924.3711    852.1035 307.5318231  +6.3521572     3478.743     5235.978     5605.479     82.16024     163.4108     327.2449      1.638     3.88     955.2969     57.68223     432.7443        23     1.284     1.009  67.38   0
       119    334.7809    852.5179 307.7766192  +6.3322352     1111.553     1607.785     1470.492     81.64024     163.3457     327.1798      1.629     5.83     970.2668     57.68223     140.3699        12     1.242     0.770  62.62   0
       120    382.5528    848.1999 307.7569296  +6.3356224      2642.39       4309.4     4836.795     81.24805     163.2805     326.7565      1.777     4.33     968.8613     57.68223     383.2959        21     1.486     0.903  75.36   0
       121    863.4832    837.1241 307.5576082  +6.3563069     1168.769     1467.225     1824.059     82.16024     163.9962     327.3425      1.532     3.57     956.2847     57.68223     196.9167        12     1.208     0.717  71.74   0
       122    583.7305    835.4897 307.6738251  +6.3476187     896.4579     1032.381     1201.502     82.16024     163.9312     327.2449      1.344     3.63      963.248     57.68223     154.6925        10     0.968     0.794 -79.35   0
       123    572.4747    833.3381 307.6785712  +6.3481297     1230.259     2096.279     1590.197     82.28973     163.6712     327.2449      1.788     3.99     963.6176     57.68223     204.1094        15     1.287     0.864  67.55   0
       124    277.5697    834.3564 307.8009861  +6.3378100     582.8749     1077.571      1102.91     81.64024     163.6712     327.1147      1.792     3.49     970.8461     57.68223     88.03027         5     1.074     0.328  68.73   0
       125    483.2346    832.7518 307.7156454  +6.3453792       1545.7     2346.544     3051.227     81.77055     163.6712     327.1798      1.831     4.56     965.7771     57.68223     214.5776        14     1.355     0.670  75.03   0
       126    901.4626    831.9177 307.5420123  +6.3597255     1414.121     2027.015     1913.856     82.16024     163.6712     327.2449      1.510     4.34     955.1014     57.68223     207.5264        14     1.282     0.784  61.90   0
       127    124.9939    832.1031 307.8644118  +6.3336074     1405.891     1842.065     1955.592     81.77055     163.3457     327.0496      1.377     3.72     970.8024     57.68223     186.4172        13     1.159     0.789  60.35   0
       128    701.2091    830.5601 307.6252104  +6.3535888     792.9524     1041.242      998.386     81.37898      163.476     326.9845      1.501     5.25     960.7799     57.68223     117.4266         9     1.133     0.686  71.04   0
       129    536.2473    827.7893 307.6938004  +6.3492059     19681.55     30547.95     31337.17     81.50971     163.5411     326.9194      1.656     3.83      964.643     57.68223     2544.698        46     1.579     1.074  67.66   0
       130    518.7348    837.7717 307.7007360  +6.3444975     3141.044     4666.403     4331.657     81.77055     163.6712     327.1798      1.608     4.02      965.238     57.68223     445.7355        21     1.407     0.882  69.47   0
       131    949.9575    826.0656 307.5220712  +6.3637613     4106.686      6178.13     6232.373     82.03055     163.6062     327.2774      1.536     3.91     953.3697     57.68223     604.1728        26     1.373     1.001  70.14   0
       132     46.6236    818.2043 307.8974206  +6.3367056     1496.279     2601.819     2772.251     81.64024     163.4108     327.0822      1.818     4.80     970.3791     57.68223     198.7117        21     1.527     0.881  68.50   0
       133    565.5222    833.9227 307.6814384  +6.3476553     6183.385     9457.086     10525.66     82.28973     163.9312     327.3425      1.654     3.78     963.8761     57.68223     822.9927        32     1.489     1.018  69.71   0
       134    328.9842    816.5700 307.7802381  +6.3468807     3223.544     5041.099     5395.251     81.64024     163.4108     327.1798      1.686     3.87     969.4739     57.68223     464.5573        23     1.396     0.929  66.18   0
       135    794.4329    812.4050 307.5871100  +6.3642033     57526.09     85479.89     88600.65     81.37898     163.5411     327.0496      1.620     3.82     957.6207     57.68223     8527.621        61     1.550     1.075  67.93   0
       136     28.9094    814.5311 307.9048997  +6.3376251     2290.349     3580.872     3428.313     82.03055     163.8013     327.2123      1.682     4.39     970.3268     57.68223     352.8169        21     1.456     0.907  52.43   0
       137    732.9390    814.0713 307.6125889  +6.3614581      779.382     1251.243     1480.635     82.16024     163.6712       327.31      1.721     2.79     959.6053     57.68223     134.7939         8     0.810     0.659  38.05   0
       138    251.2072    788.7836 307.8134698  +6.3557373     766125.6      1833279      2025543     81.64024     163.4108     327.0822      2.324     6.18     969.9633     57.68223     63777.71       606     2.870     1.958  81.09   4
       139    919.6271    807.6516 307.5352830  +6.3703504      9043.91     13219.03     14433.81     81.64024     163.8013     327.1798      1.603     3.78     953.6205     57.68223     1395.789        34     1.450     0.995  67.14   0
       140    722.6516    807.0002 307.6170981  +6.3640330     21657.23     33372.29     35745.22     81.24805       163.15     326.7891      1.621     3.75     959.6692     57.68223     3167.065        47     1.591     1.059  67.94   3
       141    716.3798    803.4950 307.6198201  +6.3652701     91221.59     135167.5     140477.6     81.90065      163.476     327.0496      1.631     3.77     959.7139     57.68223     12766.45        78     1.600     1.128  69.20   3
       142    361.2590    804.3294 307.7672497  +6.3530182        20208     31737.66     33660.02     82.16024     163.6712       327.31      1.701     3.95     968.1989     57.68223     2579.331        48     1.589     1.127  67.27   0
       143    410.5352    804.4694 307.7467844  +6.3546151     1522.628     2517.513     3137.427     82.03055     163.7363     327.2774      1.845     4.77     966.6948     57.68223      179.759        17     1.447     0.871  66.16   0
       144    649.7673    804.2697 307.6474543  +6.3627199      800.431     1162.899     1283.959     81.90065     163.6712     327.2774      1.490     4.82      960.718     57.68223     124.2476         8     1.306     0.756 -77.08   0
       145    423.1703    802.2050 307.7416142  +6.3559741     21676.49     34113.31      35574.6     81.50971      163.476     327.0496      1.656     3.86     966.3388     57.68223     2782.373        49     1.567     1.122  67.11   0
       146    960.1562    801.2844 307.5186667  +6.3743326     2191.511     3563.501     3515.126     82.03055     163.6062     327.2123      1.674     3.94     952.1682     57.68223     311.9271        21     1.482     0.827  80.56   0
       147    916.6315    799.0823 307.5368143  +6.3737880     7073.397     10355.85     11080.88     81.90065      163.476     327.1473      1.562     3.71      953.394     57.68223     1083.134        30     1.429     0.952  64.58   0
       148    889.0789    800.0141 307.5482243  +6.3724828      695.181      948.791     387.2431     81.64024     163.4108     327.0496      1.395     4.47     954.3678     57.68223     110.9629         7     1.071     0.531  58.89   0
       149    657.1902    798.1323 307.6445783  +6.3655023     6415.502     9795.903     10370.38     81.50971      163.476     327.1147      1.597     3.85     960.4377     57.68223     835.5293        31     1.438     0.998  67.89   0
       150    445.8860    796.0996 307.7323877  +6.3592571     1611.695     2607.056     2658.385     82.03055     164.1908       327.31      1.713     4.55     965.7162     57.68223     256.6191        17     1.356     0.910  78.14   0
       151    171.5060    795.6130 307.8463324  +6.3502368     750.5254     1178.449     1280.262     81.77055     163.4108     327.0822      1.650     3.81     970.6074     57.68223     134.2357         5     0.950     0.480  80.11   0
       152    610.1497    790.0197 307.6643842  +6.3672756     799.3551      1260.62     1575.211     81.50971     163.7363     327.0822      1.738     5.36     960.6989     57.68223      127.243        11     1.324     0.746  80.21   0
       153    885.0869    790.0787 307.5502152  +6.3764511     802.4805     1107.341     771.5301     81.90065     163.9962      327.375      1.412     3.77     954.2017     57.68223     119.5959         7     0.874     0.536  48.36   0
       154    692.3384    788.0876 307.6303208  +6.3708260      2518.28     3610.088     3047.148     82.03055     163.8663     327.2774      1.561     3.84     959.4048     57.68223     316.9977        20     1.301     0.946  63.63   0
       155    161.7150    788.8547 307.8506260  +6.3526973     918.8383     1273.497     1367.045     82.03055     163.6712     327.4075      1.567     5.87     970.5147     57.68223     134.4832        11     1.163     0.833  62.01   0
       156    136.6186    788.6448 307.8610535  +6.3519392     1076.771     1625.041     1825.166     81.64024     163.5411     326.9845      1.591     4.97     970.2401     57.68223     172.2769        13     1.418     0.686  71.77   0
       157    426.0866    784.8640 307.7409875  +6.3632309     52093.26     82418.66     86321.01     82.03055     163.8013     327.2774      1.695     3.94     965.7344     57.68223     6836.312        76     1.636     1.214  69.20   0
       158    969.0704    787.0372 307.5154425  +6.3805121     711.7578     1004.826     1311.755     81.90065     163.7363       327.31      1.505     5.40     951.5174     57.68223     108.1634         9     1.234     0.680  82.98   0
       159    543.8080    783.8726 307.6921387  +6.3675896     6987.181     10766.36     10664.73     81.50971     163.2152     327.1473      1.621     3.95     962.8829     57.68223     1022.346        31     1.459     0.994  66.78   0
       160    460.6027    782.5593 307.7267329  +6.3653408     4339.625     6784.867     7688.657     81.24805     163.4108     326.9845      1.772     4.09     965.0449     57.68223     610.4615        32     1.583     1.072  63.88   2
       161    457.2619    775.8741 307.7283453  +6.3679886     2249.594     3792.254     3631.472     82.28973     163.6712     327.2449      1.806     4.12     964.9041     57.68223     293.3447        19     1.365     0.902  69.29   3
       162    789.0009    780.4791 307.5904373  +6.3772019     12075.52     17934.93     18560.78     81.24805     163.0847     327.0171      1.607     3.76     956.3181     57.68223     1895.001        41     1.583     0.983  70.19   0
       163     18.6535    776.4277 307.9104466  +6.3530091     1008.145     1381.415     1209.844     81.77055     163.8013     327.1473      1.599     3.72     969.8355     57.68223     191.7873        11     1.093     0.740  63.24   0
       164    810.7274    774.7265 307.5816084  +6.3803034     1450.114     1810.766     1650.971     82.28973     163.8013       327.31      1.440     4.01     955.4779     57.68223     217.8821        16     1.261     0.871  73.51   0
       165    146.8198    772.4714 307.8573642  +6.3589593     11468.63     18319.23     19962.02     81.64024     163.5411     327.1798      1.725     3.92     970.0164     57.68223     1589.464        41     1.629     1.074  65.28   0
       166    154.9285    772.6981 307.8539896  +6.3591387      2882.09     4590.732     4717.628     81.90065     163.8013     327.2449      1.693     3.97     970.0885     57.68223     384.5311        22     1.400     0.913  65.31   0
       167    138.8953    769.9257 307.8607406  +6.3597435     2899.501     4724.766     5150.689     81.77055     163.8663     327.2449      1.739     4.10     969.9321     57.68223     351.4309        25     1.494     0.968  71.56   3
       168    139.1964    763.5465 307.8608311  +6.3623871     2071.698     3162.832     3282.103     81.37898     163.4108     326.8542      1.718     3.88     969.8275     57.68223     247.5344        19     1.324     0.926  74.20   3
       169    983.7652    769.2667 307.5099357  +6.3883391     1601.002     2300.328     3271.991     81.90065     163.7363       327.31      1.521     4.52     950.5008     57.68223     267.6734        14     1.426     0.629  66.01   0
       170    934.5269    769.1424 307.5303867  +6.3867462     6793.605     10114.36      10511.3     82.16024     163.6712     327.2123      1.595     3.58     952.1422     57.68223     1048.024        32     1.462     0.943  65.10   0
       171    437.9880    811.0503 307.7351636  +6.3528199     936.2039     1394.686     1608.375     81.37898     163.5411     326.9519      1.469     5.40     966.2886     57.68223      125.394        12     1.218     0.863  62.77   0
       172    690.1033    766.5316 307.6319732  +6.3796503     1752.828     2622.585     2679.223     81.90065     163.8013     327.2449      1.730     5.05     958.3152     57.68223     251.3846        14     1.173     0.839  63.98   0
       173    576.9379    765.9317 307.6789854  +6.3761069     2408.566     3442.705     3133.886     82.03055     163.6062     327.2774      1.521     3.86     961.2177     57.68223     334.9718        17     1.241     0.835  55.66   0
       174    424.6964    765.2752 307.7422247  +6.3712711     1246.679     1893.682     2002.141     81.64024     163.8013     327.2774      1.799     6.09     965.1032     57.68223     171.7915        14     1.310     0.797  64.65   0
       175    708.1866    764.3945 307.6245359  +6.3811380     543.9044     556.7667     764.1168     81.64024     163.4108     327.1147      1.191     5.90     957.6846     57.68223     84.40308         7     1.122     0.873  55.74   0
       176    989.1109    760.4079 307.5080126  +6.3921748     2000.427     3124.552     2850.882     81.50971     163.3457     326.9845      1.596     4.17     950.0446     57.68223      340.809        19     1.628     0.717  62.91   0
       177    245.4739    761.9615 307.8167556  +6.3666173      699.204     1801.099     4572.081     81.90065     163.6712       327.31      5.289     7.10     969.3589     57.68223     114.2706        12     2.004     0.706 -45.64   1
       178    958.2108    760.5164 307.5208407  +6.3910983     3498.812     4984.994     5594.227     81.64024     163.4108     327.0822      1.607     4.18     951.1588     57.68223     426.8842        24     1.388     0.896  60.58   0
       179    928.6574    760.9717 307.5330980  +6.3899234     3162.086     4804.606     4792.205     81.64024     163.7363     327.1473      1.622     3.91      952.171     57.68223     468.8303        22     1.320     0.968  63.67   0
       180    681.0161    760.1790 307.6359602  +6.3819687      1555.52      2285.49     2705.117     81.77055     163.4108     327.1473      1.594     5.30     958.1796     57.68223     204.1495        12     1.242     0.719  61.29   0
       181    828.2242    758.4874 307.5748876  +6.3875927     962.2852      1423.14     1706.094     82.03055      163.476     327.1147      1.693     3.78     954.3761     57.68223     143.0715         9     1.078     0.559  64.94   0
       182    253.6118    755.8406 307.8135831  +6.3694178     2006.039      3616.93     4792.688     81.37898      163.476     326.9845      2.109     4.55     969.0715     57.68223     276.7552        24     1.523     0.996  88.41   0
       183    903.7591    756.4109 307.5435903  +6.3909745     850.2271     1177.239     1226.179     81.37898      163.476     326.9519      1.463     5.53     952.6951     57.68223     98.24939        10     0.992     0.871 -31.18   0
       184    690.8447    752.7119 307.6321298  +6.3853804     789.3737      1282.12     1377.353     82.03055     163.5411     327.2774      1.825     6.18     957.5322     57.68223     118.3925        10     1.208     0.887 -88.55   0
       185    946.7178    751.0518 307.5259307  +6.3946220     1201.918     1612.357     1385.247     82.03055     163.6712       327.31      1.524     4.22     951.2957     57.68223     193.7391        12     1.230     0.663  82.72   0
       186    273.7866    750.3597 307.8053908  +6.3723588     781.7617     1175.517     794.4871     81.50971      163.476     326.9845      1.498     4.61     968.5406     57.68223     124.0215         8     1.059     0.757  49.28   0
       187    169.6627    750.6326 307.8486170  +6.3687437     676.0619     901.2923     831.4588     81.77055     163.7363     327.2123      1.345     4.57     969.5688     57.68223     122.2688         7     0.882     0.701  15.28   0
       188    973.0566    748.3947 307.5150819  +6.3965984     2628.113     3891.076     4326.452     81.50971     163.5411     326.9519      1.558     4.33     950.2548     57.68223     416.5926        19     1.358     0.760  62.97   0
       189    920.2651    749.0004 307.5369844  +6.3945853     1106.028     1745.962     1954.376     81.24805     163.2805     326.9845      1.752     5.31     952.1276     57.68223     166.4765        14     1.402     0.776  73.93   0
       190    692.9312    747.4653 307.6314397  +6.3876163     1121.527     1431.064     1268.769     82.03055     163.7363     327.2774      1.427     4.15     957.1486     57.68223     156.3716        11     1.174     0.621  66.26   0
       191    483.9119    742.7632 307.7183940  +6.3825520     698.8064     869.6751     353.8073     82.03055     163.5411     327.2449      1.534     5.21     963.4202     57.68223     93.48773         9     1.101     0.696  78.27   0
       192   1014.5656    741.7845 307.4980659  +6.4007130     1658.262      2735.26     2605.926     81.64024     163.4108     327.0822      1.726     3.96      948.473     57.68223     277.0972        17     1.362     0.927  58.17   0
       193    816.1821    740.2463 307.5805004  +6.3947206     1147.206     1941.999     1976.763     81.50971     163.5411     326.9845      1.624     4.17      953.741     57.68223     197.3971        16     1.444     0.829  71.72   0
       194    641.1428    741.0073 307.6531623  +6.3885480     665.3228     831.6591     863.4739     81.37898     163.5411     326.9845      1.505     3.86     958.7547     57.68223     155.0258         8     1.257     0.648  64.86   0
       195    902.4637    737.5213 307.5447617  +6.3987296     1581.327     2356.807     2793.854     82.28973     163.7363     327.2449      1.663     4.68     952.2624     57.68223     244.1746        14     1.201     0.764  47.26   0
       196    876.8243    732.7551 307.5555689  +6.3998406      984.359      1354.89     1611.572     81.50971     163.6712     327.1147      1.518     3.53     952.6926     57.68223     159.8779         8     1.060     0.652  53.69   0
       197    859.2231    728.9081 307.5630072  +6.4008405     1578.108     2300.425     2130.104     82.03055      163.476     327.0822      1.528     4.29     952.9438     57.68223     202.9835        15     1.290     0.760  70.24   0
       198     58.5625    727.9991 307.8955136  +6.3743461     2146.756     3516.186     3465.919     81.11689      163.476     327.0496      1.764     4.31       969.57     57.68223     296.9725        23     1.425     1.027  67.21   0
       199    122.9592    726.8115 307.8688144  +6.3770053     929.7097     1864.133     1689.745     81.37898      163.476     326.9519      1.994     6.37     969.2177     57.68223     135.0233        14     1.722     0.661  71.37   0
       200    671.1807    716.3566 307.6415173  +6.3997307     6272.956     9669.737     10453.93     81.50971     163.5411     327.0171      1.649     3.65     956.2292     57.68223     833.3687        33     1.457     1.075  71.62   0
       201    528.8132    716.9514 307.7006175  +6.3947140     670.0746     958.1909     567.8404     81.37898     163.6062     326.9519      1.458     4.96       960.49     57.68223     97.87256         7     1.046     0.666 -89.50   0
       202    617.8785    715.8580 307.6636687  +6.3981511     1296.826      2219.91     2236.415     82.03055     163.6712     327.2123      1.754     4.63     958.5292     57.68223     172.9531        15     1.342     0.809  47.91   0
       203    539.5951    716.6227 307.6961513  +6.3952113     608.7177     675.5068     624.3056     81.64024     163.4108     327.0496      1.334     3.49     960.1295     57.68223     116.1652         5     0.756     0.466  74.94   0
       204    134.2072    712.2993 307.8646342  +6.3833750     3518.697     5823.314     6109.366     81.77055     163.2805     327.0496      1.795     4.06     968.7405     57.68223     439.1117        29     1.527     1.060  73.68   0
       205    644.9467    712.2618 307.6525491  +6.4005426     2161.313     3364.752     3652.128     82.03055     163.6062     327.2123      1.722     3.61     957.1487     57.68223      346.501        20     1.340     0.906  73.01   0
       206   1008.1243    711.5823 307.5017525  +6.4129668     2704.703     3789.981     3973.673     81.50971     163.4108     327.1798      1.500     3.76     947.7072     57.68223      413.345        21     1.359     0.833  62.33   0
       207    917.9321    708.2349 307.5393200  +6.4113371     3731.831     5331.777      5268.61     81.90065     163.7363     327.3425      1.527     4.07     951.2483     57.68223     556.5934        22     1.432     0.916  72.02   0
       208    788.0390    708.5046 307.5932530  +6.4068836     20905.11     31042.38     33002.38     82.03055     163.5411      327.375      1.593     3.76     953.4573     57.68223     3035.496        46     1.523     1.070  66.04   0
       209    470.5928    710.2839 307.7250186  +6.3955135     478.3934      688.044     572.7938     81.64024     163.3457     327.0822      1.517     4.17     961.9641     57.68223     81.16809         5     1.197     0.414  76.40   0
       210    487.0468    708.5972 307.7182427  +6.3967620     1271.806      2148.33     2287.474     81.37898     163.3457     326.8542      1.850     4.85     961.3651     57.68223     169.4031        15     1.363     0.829  65.30   0
       211    515.7026    708.2657 307.7063542  +6.3978601     827.2394     1164.392      731.533     82.03055     163.7363     327.2774      1.574     5.30     960.4645     57.68223       128.78         8     1.220     0.651 -86.02   0
       212    332.7444    708.5005 307.7823210  +6.3916209     651.9612     937.0439     778.8714     81.77055     163.6712     327.5376      1.638     5.22     965.6813     57.68223     96.87848         7     1.224     0.629  70.83   0
       213    289.3790    708.2188 307.8003381  +6.3902798     672.8232     1163.375     807.7507     81.77055     163.6062     327.1473      1.805     5.32     966.8846     57.68223     114.6645         7     1.194     0.669  76.40   0
       214    261.4983    702.1411 307.8121205  +6.3918514     5896.342     9570.687     9732.037     81.77055     163.6062      327.375      1.723     4.02     967.0986     57.68223     809.1466        34     1.566     1.059  66.31   0
       215    668.5765    701.2981 307.6431049  +6.4058602     6982.878     10665.13     10911.48     82.16024     163.4108     327.0822      1.648     3.72     955.5359     57.68223     974.6674        31     1.470     1.012  60.63   0
       216    650.8268    702.0630 307.6504501  +6.4049499     1061.144     1561.153     1801.027     81.64024     163.6062     327.1798      1.537     5.02     956.3671     57.68223     166.3669        10     1.302     0.578  60.76   0
       217    364.0856    701.1559 307.7695541  +6.3957059     581.3795     1024.403     890.4558     82.03055     163.5411     327.2123      1.593     4.00     964.7162     57.68223     116.6071         6     1.456     0.314  65.40   0
       218    928.5028    693.9404 307.5354094  +6.4175916     1374.841     1894.409     1817.136     81.77055     163.6712      327.375      1.539     5.00     950.6801     57.68223     169.8218        14     1.231     0.785  58.24   0
       219    740.3382    689.7221 307.6136928  +6.4130417     3817.999     6225.351     6194.739     82.28973     163.7363     327.2449      1.717     3.96     953.7173     57.68223     502.8693        29     1.591     0.950  64.61   0
       220    695.5876    690.0674 307.6322653  +6.4114012     1060.512      1794.85     2427.733     81.50971      163.476     327.1473      1.786     3.92     954.4203     57.68223     164.3589        10     1.170     0.582  65.93   0
       221      5.8520    688.1624 307.9187480  +6.3890148        612.3     917.2521     919.1351     81.90065     163.6712     309.0045      1.578     5.31     968.9555     57.68223     90.37598         7     1.475     0.540  75.65  16
       222   1006.5944    686.3323 307.5032337  +6.4233400     9488.649      13790.3     14250.34     81.50971     163.2805     327.0496      1.566     3.59     946.8633     57.68223     1528.757        29     1.431     0.923  61.95   0
       223     25.7360    686.3379 307.9105531  +6.3904383     1896.214     2980.499      3858.26     82.03055     163.6712     327.2774      1.917     4.25     968.9012     57.68223       219.94        19     1.256     1.033  57.18   0
       224    945.0555    686.8718 307.5287723  +6.4210626     2437.925     3419.069     2465.808     81.90065     163.6062     327.2123      1.490     3.61      949.778     57.68223     389.9793        18     1.277     0.813  63.43   0
       225     83.9752    681.1182 307.8865464  +6.3945554     24348.19     39065.64     41004.84     81.77055     163.4108     327.2123      1.694     3.94     968.7822     57.68223     3181.115        54     1.649     1.145  70.83   0
       226    545.2271    681.9954 307.6949778  +6.4096955     1982.622     3024.494     3233.342     81.50971      163.476     327.0822      1.640     4.03     958.6466     57.68223     259.9288        19     1.270     0.949  65.16   0
       227    513.8993    679.1406 307.7080835  +6.4098233     1324.195     2153.927     2305.271     81.77055     163.6712      327.375      1.780     6.11     959.0425     57.68223     177.5102        16     1.529     0.716  81.37   0
       228    934.8432    678.5222 307.5332932  +6.4241686     1134.928     1599.001     1726.347     81.90065     163.6712     327.2774      1.588     5.30     950.0544     57.68223     142.3205        12     1.170     0.749  59.54   0
       229    554.3834    675.9172 307.6913800  +6.4125118      961.811     1512.804     1370.198     81.64024     163.3457     327.1473      1.686     4.73     958.1955     57.68223      138.142        11     1.288     0.707  58.50   0
       230    730.0002    673.4388 307.6185330  +6.4194180     3394.401     5342.913      5903.44     80.98553     163.4108     326.9845      1.672     3.98     953.3063     57.68223     494.5719        25     1.545     0.867  66.66   0
       231    751.9640    671.6261 307.6094727  +6.4209015     4168.539     6173.003     5824.383     81.64024      163.476     327.0171      1.565     4.26     953.0538     57.68223     556.9648        25     1.419     0.923  62.20   0
       232    583.3994    669.6941 307.6795397  +6.4160536      3139.86     4954.455      5167.87     81.50971     163.2805     326.8868      1.688     4.08     957.1989     57.68223     395.6115        24     1.464     0.923  70.37   0
       233    419.5120    669.9013 307.7475911  +6.4104701     1200.249     1927.794     1744.741     82.03055      164.126     327.2774      1.657     4.15     962.9438     57.68223     195.3543        12     1.308     0.751  75.41   0
       234    243.9490    669.1402 307.8205218  +6.4048848     1556.098     2535.609     2765.959     82.03055     163.6062     327.2449      1.728     4.88     966.0015     57.68223     198.3583        19     1.427     1.017  61.85   0
       235   1023.7542    667.1694 307.4967492  +6.4318240     2191.615     2864.791     2934.209     69.98355     128.7955     244.7032      1.173     3.63     945.2946     57.68223     530.2556        11     1.305     0.423  86.19  24
       236    327.5526    668.3620 307.7858307  +6.4080167      1316.33     2086.327      1575.17     81.90065     163.6712     327.0822      1.673     4.38      964.604     57.68223     191.2456        16     1.295     0.919  57.73   0
       237    990.2401    666.6115 307.5106863  +6.4309357     8530.169     12305.37     12469.04     81.37898      163.476     326.9845      1.563     3.94     946.9406     57.68223     1195.753        29     1.396     0.921  63.49   0
       238    710.0774    665.1235 307.6270861  +6.4221840     1005.202     1571.069     1742.823     82.28973     163.9312       327.31      1.770     6.04      953.393     57.68223     131.2146        14     1.278     0.832  56.55   0
       239    102.1013    664.1662 307.8795927  +6.4021640     805.1615     1139.224     1297.627     82.03055     163.5411      327.375      1.723     4.37     968.2122     57.68223       122.24         8     1.036     0.625  59.86   0
       240    435.6889    660.9335 307.7411754  +6.4147154     2697.756     4473.905     5396.446     82.16024     163.8663     327.2123      1.866     4.73     961.4918     57.68223     335.0304        25     1.595     0.994  80.01   0
       241    148.7427    660.0483 307.8603639  +6.4054345     22890.85     37001.44     38322.68     82.03055     163.6712      327.375      1.726     3.91     967.0458     57.68223     2950.582        52     1.645     1.139  67.71   0
       242    816.8885    660.6648 307.5828781  +6.4275986     1302.171     1751.568     2322.612     82.03055     163.8663     327.2449      1.590     4.37     952.1577     57.68223     175.2904        12     1.090     0.754  59.93   0
       243    368.6924    655.1485 307.7691922  +6.4148538     814.8732     1443.298     1903.144     81.90065     163.5411       327.44      2.098     5.51      963.116     57.68223     95.45715         9     1.209     0.709 -56.10   0
       244    985.2234    649.6859 307.5133369  +6.4377558      7340.49     11232.04     12067.89     82.03055      163.476     327.1147      1.686     4.24     946.3193     57.68223     893.1516        39     1.645     1.069  52.22   0
       245     29.5480    648.7610 307.9102413  +6.4060791     1204.135     2042.302     2100.598     81.90065     163.6712     327.2123      1.730     4.59     968.2906     57.68223     166.5976        14     1.241     0.783  53.48   0
       246    578.6969    644.8976 307.6823268  +6.4261328     46188.84     73309.62     76492.55     82.03055     164.1908     327.0822      1.728     3.89     956.1919     57.68223     6226.482        69     1.639     1.195  68.59   0
       247    943.0382    646.5140 307.5309629  +6.4376566     826.4102     1042.634     978.2956     82.03055     163.6062     327.2449      1.392     4.38      948.185     57.68223     113.6368         9     1.099     0.688  62.65   0
       248    538.2161    645.4868 307.6991182  +6.4245323     738.4746     1054.868     1016.326     81.64024     163.4108     327.1473      1.657     5.57     957.2081     57.68223     86.81952         9     1.229     0.711  54.19   0
       249    186.3155    641.6427 307.8453832  +6.4142974     2563.998     4187.284     4261.136     82.03055     163.5411     327.2123      1.720     4.25     966.0757     57.68223     338.9596        22     1.437     0.930  68.55   0
       250     78.8200    635.9086 307.8902157  +6.4130451     1196.931     1766.849     1694.881     81.90065     163.4108     327.1147      1.662     4.39     967.4982     57.68223     192.7888        14     1.334     0.716  81.11   0
       251    475.9672    628.7122 307.7255340  +6.4293691     58115.85     94157.16     99040.88     82.16024     163.5411     327.2449      1.747     3.90      958.593     57.68223     7398.888        76     1.694     1.229  68.50   0
       252    150.3474    623.9316 307.8609179  +6.4203982     1687.679     2688.026     1992.284     81.90065     163.6062     327.1798      1.657     4.47     966.1521     57.68223     224.2173        22     1.354     1.116  72.20   0
       253    945.0252    621.4457 307.5309781  +6.4480722     635.6423     885.5501     661.3705     81.50971     163.7363     327.1147      1.538     4.40     946.7498     57.68223     91.30737         6     1.150     0.478  71.64   0
       254    429.3542    621.3073 307.7451413  +6.4308615     707.4922     1050.715     1312.384     82.03055     163.6062      327.375      1.896     4.47      959.654     57.68223     110.2781         7     0.977     0.666 -88.13   0
       255    621.9888    620.4434 307.6651707  +6.4376792     825.4179     1259.657     1698.687     81.50971      163.476     326.9519      1.513     3.40     954.1014     57.68223     137.9578         9     0.922     0.685  60.68   0
       256    662.0418    626.0839 307.6483470  +6.4366925     906.1082     1347.854     895.6158     82.03055     163.6062     327.1798      1.496     2.95     953.3698     57.68223     152.9088         7     0.845     0.622  61.04   0
       257    321.3206    618.1176 307.7901134  +6.4285494     1901.536     3205.934     3306.766     82.16024     163.9312      327.375      1.794     4.69     962.3705     57.68223     275.1523        22     1.471     1.055  65.18   0
       258     19.6224    630.3481 307.9149859  +6.4133456     1674.668     2629.702     3155.861     81.50971     163.6712     327.1147      1.753     4.20     968.1371     57.68223     245.3469        14     1.232     0.743  65.26   0
       259    748.0258    612.2812 307.6131015  +6.4452695     5247.439     7932.827     7936.753     81.90065      163.476     327.2449      1.607     3.73     952.2579     57.68223     722.0546        27     1.439     0.956  68.97   0
       260    801.5728    607.4858 307.5910240  +6.4490407     14139.86     21426.39     22194.54     82.16024     163.4108     327.1147      1.669     3.90     951.6569     57.68223     2037.916        42     1.549     1.070  65.56   0
       261   1018.8318    608.1586 307.5007703  +6.4560219     945.7831     1129.101     1209.602     81.50971     163.6062     311.9878      1.345     5.10     942.5984     57.68223     161.6521        10     1.202     0.612  69.74  16
       262     48.8826    608.8128 307.9035638  +6.4232219     6966.107     7656.745     8398.612     81.64024     163.4108     327.0822      0.523     3.33     967.2755     57.68223     5089.561        13     0.671     0.478  42.11   0
       263    544.0596    606.6488 307.6979986  +6.4407618     1105.495     2053.736     2521.452     82.03055     163.6712       327.31      2.007     5.94      955.361     57.68223     186.9456        18     1.738     0.805 -87.14   0
       264    625.3612    605.7133 307.6642655  +6.4438733     2721.464     4122.075     3921.135     82.03055     163.6062     327.2449      1.638     3.94     953.5417     57.68223     352.4975        24     1.423     0.997  69.14   0
       265    942.4941    601.5146 307.5326975  +6.4562161     1221.707     1713.083     2460.166     82.03055     164.0611     327.3425      1.553     4.59     945.9614     57.68223     159.3751        11     1.109     0.710  47.74   0
       266    384.0902    599.6556 307.7646687  +6.4382800     966.7153     1553.719     1051.022     81.90065     163.5411      327.375      1.680     4.04     960.0242     57.68223     138.7031        12     1.203     0.730  89.52   0
       267    237.9362    599.2765 307.8253772  +6.4335238     1106.566     1947.023     2123.666     82.28973     163.6712     327.2123      1.994     4.87      963.946     57.68223     173.1857        14     1.459     0.840  83.58   0
       268    877.5526    590.7335 307.5600306  +6.4584971     2913.971     4324.732     4266.165     82.03055     163.6062     327.2774      1.609     4.10     948.6033     57.68223     429.6884        18     1.509     0.752  68.19   0
       269    172.6847    590.2122 307.8527810  +6.4350702     733.1329     1118.135     1571.433     81.64024      163.476     327.0822      1.725     4.93      965.015     57.68223     85.04315         8     1.209     0.569  54.88   0
       270    836.3597    588.4031 307.5772170  +6.4580821      2423.68     3824.262     4137.167     81.24805     163.3457     326.9519      1.692     4.00     949.9102     57.68223     345.7586        24     1.468     0.964  74.82   0
       271    816.9663    579.3873 307.5855741  +6.4611557     154245.9     238425.9     249170.1     81.50971     163.4108     327.1147      1.658     3.84      950.041     57.68223     22007.06       111     1.669     1.199  67.24   0
       272    807.3810    584.1526 307.5893951  +6.4588678     2327.005     3887.659     4727.358     81.50971     163.6712     327.0496      1.889     4.07     950.5496     57.68223      307.608        21     1.398     0.947  66.54   0
       273    264.3906    583.1765 307.8149346  +6.4410600      7137.09     11553.24     11644.45     81.64024      163.476     327.1147      1.718     3.92     962.3973     57.68223     871.0924        36     1.582     1.090  68.25   0
       274    198.5701    577.6475 307.8424557  +6.4411283     54237.74     89867.89      94914.9     81.64024     163.7363     327.1473      1.800     4.10     964.1068     57.68223     6894.247        75     1.711     1.265  70.65   0
       275    746.5632    579.9348 307.6147955  +6.4585743     566.9505     1103.922     2039.839     81.90065     163.6712       327.31      3.609     5.67     950.9972     57.68223     108.0393         7     1.283     0.707  85.96   0
       276    122.6238    573.8170 307.8741244  +6.4401530      5719.19     9665.396     10046.67     81.77055     163.5411     327.1473      1.803     4.30     965.2398     57.68223      705.068        37     1.614     1.127  68.80   0
       277    987.8004    571.2396 307.5148955  +6.4702277     1250.102     1673.838     1217.176     81.11689     163.4108     326.9519      1.562     5.34     942.7657     57.68223     191.5833        12     1.304     0.643  60.10   0
       278   1008.3408    569.9883 307.5064064  +6.4714300     783.2994     977.2132     777.5464     81.37898     163.5411     326.9519      1.334     4.28     941.9471     57.68223     150.0194         6     1.174     0.445  59.45   0
       279    237.0555    569.0048 307.8267650  +6.4459910     735.1594     1220.176     1244.269     81.37898      163.476     326.9519      1.657     5.41     962.7524     57.68223     104.3962         8     1.482     0.558  56.56   0
       280    853.5538    566.6543 307.5708058  +6.4676358     4381.665     6691.694     7041.737     82.03055     163.6712     327.2774      1.668     3.85     948.3417     57.68223     653.5745        28     1.540     0.945  63.96   0
       281    371.9586    564.8353 307.7708809  +6.4522472     15506.66     25904.15     27195.54     81.77055     163.6712     327.0822      1.772     3.96     958.8442     57.68223     1914.116        48     1.665     1.169  69.01   0
       282    173.7856    564.0069 307.8532092  +6.4459253     1775.149     3013.267     3662.904     81.64024     163.4108     327.0822      1.851     5.48     964.2809     57.68223     215.7831        19     1.451     0.908  83.24   0
       283    462.4262    564.7289 307.7333128  +6.4553289     739.8625     1048.223     862.7089     81.64024     163.5411     327.1798      1.441     5.25     956.5917     57.68223     116.2337         8     1.014     0.767 -64.93   0
       284    248.8914    561.3724 307.8221073  +6.4495400     836.0942     1442.961     1368.714     82.16024     163.4108     327.1147      1.732     7.29     962.0527     57.68223     117.7115        14     1.488     1.000  40.18   0
       285    807.4709    559.9305 307.5901710  +6.4688706     5740.926     8918.579     9715.752     82.03055     163.8013     327.2123      1.679     3.84     949.5231     57.68223      784.312        32     1.499     1.022  68.03   0
       286    538.3590    559.7240 307.7019457  +6.4599427     6030.041     9747.383     10329.99     81.90065     163.6712     327.2774      1.734     3.87      954.223     57.68223     732.2651        34     1.515     1.113  68.54   0
       287    179.3746    561.0863 307.8509868  +6.4473191     589.8056     891.7833     1325.259     82.16024      163.476     327.0822      1.685     3.49     964.0609     57.68223     93.63367         5     0.808     0.435  71.86   0
       288    111.3168    560.4661 307.8792713  +6.4452836      786.368     1296.042     1122.203     82.28973     163.9312       327.31      1.859     4.92     965.0443     57.68223     105.5384         9     1.075     0.636  83.37   0
       289    396.6551    556.3757 307.7609095  +6.4565691     1071.812      1859.63     2248.458     81.64024     163.7363     327.0496      1.737     4.36     958.1707     57.68223     169.5652        14     1.369     0.733  54.11   0
       290    185.3370    552.8329 307.8487894  +6.4509269     6067.843     10185.03     10152.25     81.77055     163.7363     327.2123      1.766     4.06     963.6492     57.68223     793.8857        37     1.627     1.112  73.52   0
       291    583.0260    552.8296 307.6836268  +6.4642866      2224.55      4165.91     4253.299     81.50971      163.476     327.0822      1.963     4.27     952.9732     57.68223     307.3312        27     1.473     1.194 -73.52   0
       292    280.5868    549.3176 307.8093512  +6.4555824        78395     131394.2     139191.7     81.64024     163.4108     327.0822      1.823     4.05     960.6529     57.68223     9435.822        89     1.752     1.295  69.56   0
       293    824.1550    552.1880 307.5835015  +6.4726250     1381.527     1978.462     1998.845     81.50971      163.476     326.9519      1.512     4.08     948.6021     57.68223     211.2873        14     1.287     0.729  69.23   0
       294     57.0002    551.4711 307.9021323  +6.4471670     4841.258     7783.796     8288.354     81.50971       163.15     327.0171      1.735     4.13     966.0898     57.68223     592.4796        29     1.518     0.991  66.39   0
       295    570.0277    547.2838 307.6892119  +6.4661403     845.3918     1277.299     1284.515     82.03055     163.4108     327.1147      1.641     5.31     953.1109     57.68223     125.0883        10     1.212     0.660  77.12   0
       296    979.9723    543.0107 307.5190929  +6.4816204      1695.66     2590.302     2932.444     81.64024      163.476     327.1147      1.657     3.99     942.1058     57.68223     261.9387        17     1.338     0.822  64.65   0
       297    264.4985    544.3022 307.8162020  +6.4571118      1435.13     2261.614     2253.139     82.03055      164.126     327.0822      1.799     5.11     960.9566     57.68223      185.828        17     1.279     0.897  73.27   0
       298    803.6954    541.7618 307.5923491  +6.4762451     15635.62     24323.76     25407.48     82.16024     163.5411      327.375      1.681     3.91     948.8773     57.68223     2229.504        43     1.545     1.092  65.05   0
       299    507.3336    540.1685 307.7154894  +6.4669751     36773.98     65496.57     71506.67     81.90065     163.7363     327.1798      1.932     4.09     954.1743     57.68223     4160.763        83     1.792     1.442  55.40   0
       300    658.1956    538.8308 307.6528780  +6.4725847     857.5922     1339.259     1708.905     81.50971     163.5411     327.0171      1.605     5.32     950.4254     57.68223     124.0953        12     1.368     0.606  58.82   0
       301    729.4025    534.3337 307.6234549  +6.4768257     1229.288     2048.566     2468.017     81.37898     163.3457     327.0171      2.173     6.82     949.1965     57.68223     161.9744        17     1.709     0.778  85.75   2
       302     55.2694    536.9241 307.9033431  +6.4531139     1166.609     1624.576     1333.797     82.16024     163.8013     327.2774      1.497     4.64       965.98     57.68223     138.0547        13     1.229     0.756  68.00   0
       303    667.3274    535.2968 307.6492042  +6.4743496     2805.214     4486.169     5110.574     81.64024     163.8663     327.2123      1.712     3.67     950.0228     57.68223     383.7523        24     1.358     0.996  63.74   0
       304    219.7047    536.0919 307.8350821  +6.4589945     1615.859     2770.121     3034.589     82.03055     164.2557     327.2123      1.795     4.64     961.8977     57.68223     227.7067        18     1.362     0.950  64.80   0
       305    677.3315    535.0872 307.6450562  +6.4747712     1372.977     2331.132      2697.28     82.16024     163.9312     327.2774      1.913     4.56     949.7985     57.68223     193.7365        15     1.280     0.869  50.76   0
       306    404.8698    530.8690 307.7583577  +6.4673748     1644.357     2804.073     2746.351     82.03055     163.8013     327.2123      1.807     4.65     957.1885     57.68223     198.2745        17     1.368     0.837  58.95   0
       307    151.6935    527.6561 307.8636121  +6.4601879     23809.09     39157.89     41373.06     81.90065     163.6712       327.44      1.773     4.04     963.8403     57.68223     3071.846        54     1.681     1.189  72.32   0
       308     84.2214    530.7986 307.8915267  +6.4566182     661.7644     1656.444     1869.846     81.64024     163.3457     326.9519      2.413     8.05      965.087     57.68223     113.9722        12     1.915     0.946  37.40   0
       309    516.3619    528.5863 307.7121298  +6.4720594     1967.004     3415.109     4028.407     81.64024      163.476     326.9519      1.774     4.77     953.4373     57.68223     248.7645        20     1.516     0.882  72.78   0
       310    336.4208    529.0694 307.7868462  +6.4658182     3452.643     5878.155     6360.797     81.64024     163.5411     327.1473      1.825     4.05     958.1437     57.68223      405.514        29     1.548     1.059  68.48   0
       311    879.5775    527.6426 307.5613064  +6.4846112     1525.785     2236.597     2566.116     81.64024     163.5411     327.0822      1.626     4.14     945.4487     57.68223     200.1478        17     1.359     0.779  62.81   0
       312    116.8989    525.8806 307.8781222  +6.4597491     2441.868     4202.305     4509.541     81.90065     164.0611       327.31      1.873     4.49     964.3398     57.68223     326.9899        25     1.521     1.019  59.21   0
       313    353.6710    524.3011 307.7798428  +6.4683664     962.7539     1462.765     1927.642     81.90065     163.8663     327.2449      1.711     6.14     957.4738     57.68223     132.8757        13     1.324     0.840  54.22   0
       314    977.1956    522.3018 307.5209404  +6.4900772     5000.876     7361.895     7645.008     81.77055     163.3457     326.9194      1.600     4.42     941.9501     57.68223     682.7504        25     1.428     0.892  61.20   0
       315    550.2807    514.8177 307.6985060  +6.4788811     1287.707         1822     1896.175     81.64024     163.3457     327.1473      1.532     5.38     951.9271     57.68223     193.9683        12     1.239     0.681  71.15   0
       316     15.9714    512.0340 307.9205053  +6.4620642     22858.67     38164.88     40168.67     81.50971     163.4108     327.0171      1.763     4.13     966.9811     57.68223     2776.907        52     1.686     1.160  69.25   0
       317    448.6998    508.8137 307.7408975  +6.4779515     38166.54     63817.62     67396.95     81.77055     163.4108     326.9519      1.802     4.06     954.7382     57.68223     4795.155        64     1.684     1.248  71.14   0
       318    656.6639    508.4621 307.6545354  +6.4850706     11529.78     18092.81     19184.93     82.03055     163.6712     327.2774      1.726     3.96     949.4405     57.68223     1508.835        41     1.582     1.090  65.18   0
       319    296.6400    508.9731 307.8040457  +6.4727773     828.2348     1528.519     1027.033     81.64024      163.476     327.0822      1.902     6.46     958.5006     57.68223     126.0158        11     1.515     0.774  75.75   0
       320      1.4691    506.4119 307.9267183  +6.4638961     12371.95     17497.26     19401.96     72.81683     132.0608     248.3312      1.442     3.91     967.4164     57.68223     3070.601        38     1.857     0.841 -86.80  24
       321    213.8434    506.3617 307.8385204  +6.4710705     17198.71     29980.13     31913.74     81.77055     163.6712     327.1147      1.882     4.26     960.9014     57.68223     1939.966        55     1.774     1.226  61.65   0
       322    179.7269    507.8112 307.8526403  +6.4693239     1325.311     2227.622     1602.239     81.50971     163.2805     327.1147      1.709     6.08     962.3693     57.68223      151.126        15     1.384     0.791  72.30   0
       323    990.7144    507.0918 307.5158351  +6.4968079     1145.826     1572.177     1365.059     81.77055      164.126     327.3425      1.559     4.57     941.5067     57.68223     189.5051        12     1.105     0.793  76.17   0
       324    919.0565    505.9829 307.5456355  +6.4948724      804.483     1208.781      1124.28     81.50971     163.6062     326.9845      1.551     4.75     943.0248     57.68223     140.0602         7     1.009     0.633  84.46   0
       325    830.3448    506.1769 307.5824752  +6.4918271     873.6508      1103.52     898.4486     81.64024     163.6712     327.0496      1.486     5.22     946.5288     57.68223     134.9014         8     1.190     0.646  60.46   0
       326    578.4615    505.4300 307.6871176  +6.4837016     2712.814      4251.11     4247.596     81.77055     163.6712     327.1798      1.721     4.16      951.041     57.68223     311.9054        24     1.458     0.980  66.26   0
       327    952.4076    502.4022 307.5319032  +6.4974648      4960.88     7394.846     7571.604     81.37898     163.3457     327.0171      1.606     3.95     942.1237     57.68223        636.5        25     1.436     0.922  68.38   0
       328    625.5720    500.8567 307.6677048  +6.4871687     5929.128     9580.848       9776.5     81.64024     163.7363     327.1473      1.720     3.97     950.0419     57.68223     745.1669        33     1.524     1.064  64.48   0
       329    113.1523    501.3091 307.8805089  +6.4697665      1037.11     1600.902     2230.757     82.03055     163.6062      327.375      2.026     5.30     964.0298     57.68223     123.1492        14     1.192     0.895  70.61   0
       330    974.9549    494.7070 307.5227960  +6.5013947     3423.389     5235.776     6091.833     82.03055     163.6062      327.375      1.694     3.87       941.65     57.68223     532.6044        23     1.382     0.918  66.12   0
       331    537.6994    492.0810 307.7044969  +6.4878456     6750.305     11388.98     11991.26     82.03055      164.126     327.3425      1.786     4.21     950.9574     57.68223     794.5796        36     1.589     1.099  66.09   0
       332    383.6585    492.1305 307.7684733  +6.4826547     2281.815     3763.492     4082.187     82.16024     163.6712     327.2123      1.773     4.76      955.997     57.68223     286.9547        22     1.470     0.948  72.27   0
       333    753.2883    492.8890 307.6149266  +6.4947351     632.7678     905.9142      753.342     81.77055     164.1908     327.3425      1.325     3.49     947.2755     57.68223     95.08667         5     1.017     0.346  45.48   0
       334    413.6014    493.1385 307.7560032  +6.4832443     725.9587     1132.579     1258.903     81.37898      163.476     326.9519      1.610     3.04     955.4521     57.68223     110.0928         6     0.733     0.616  37.64   0
       335    106.6402    491.3939 307.8835486  +6.4736403      506.882     939.8054     631.2157     81.24805     163.3457     326.9194      1.723     3.80      964.032     57.68223     85.90869         5     1.011     0.409 -74.23   0
       336    894.1918    487.9112 307.5565693  +6.5015023     3067.428     4724.664     5681.685     81.50971     163.3457     326.9845      1.647     3.94     943.3214     57.68223     385.7615        22     1.361     0.920  65.85   0
       337    547.2080    488.7586 307.7006595  +6.4895361      791.127     1242.543      1167.07     81.37898      163.476     326.9519      1.411     5.01     950.5715     57.68223     112.5182         9     0.926     0.765 -83.62   0
       338    242.1911    486.3181 307.8274240  +6.4802986     563.6246     907.9615      979.757     81.64024     163.2805     327.0822      1.509     3.74     959.0898     57.68223     86.07373         5     1.225     0.328 -79.40   0
       339    901.4423    482.2159 307.5537489  +6.5040958     2173.144     3453.915     4262.178     81.50971     163.4108     327.0171      1.724     4.12     942.8503     57.68223      298.274        20     1.449     0.837  61.27   0
       340    940.9861    481.6787 307.5373420  +6.5056388     1249.897     1615.236     1496.909     81.64024     163.4108     327.0496      1.462     4.43     941.7747     57.68223     196.6859        12     1.271     0.642  57.41   0
       341    121.3564    481.1619 307.8777828  +6.4783599        604.4     1087.213     715.4189     81.77055     163.6712     327.0822      1.760     4.42     963.5081     57.68223      82.1037         5     1.203     0.463  33.23   0
       342    725.4810    478.2807 307.6269672  +6.4998351     2734.899      4471.55     4487.658     82.03055     163.9312     327.4075      1.742     3.97     946.9195     57.68223     360.4457        27     1.480     1.061  69.37   0
       343     87.4837    477.3401 307.8919797  +6.4787966     1818.399     3129.712     3004.284     82.16024     163.7363     327.2774      1.838     4.18     964.4517     57.68223     241.8889        19     1.353     0.931  74.62   0
       344    436.6440    477.0847 307.7469740  +6.4906454      932.862      1566.52     1580.755     82.03055     163.6062     327.2123      1.758     6.62     953.7599     57.68223     126.4769        12     1.504     0.861  68.32   0
       345    396.4846    476.4857 307.7636737  +6.4895441     3299.006     5614.614     5783.857     81.77055     163.8663       327.31      1.808     4.05      954.958     57.68223     415.6989        28     1.413     1.153  62.58   0
       346    624.1578    472.9962 307.6692294  +6.4986230     9063.889     14978.15        16250     81.37898     163.3457     326.9519      1.779     3.78     949.0003     57.68223       1120.8        39     1.590     1.122  70.88   0
       347    786.8870    469.5773 307.6017544  +6.5054832     15721.01     24342.44     25240.47     82.03055      163.476     327.1147      1.676     3.87     946.3213     57.68223     2205.232        42     1.578     1.054  67.01   2
       348    791.0638    464.9461 307.6001751  +6.5075349     1448.624     2266.497     2269.126     82.03055     163.6062     327.2123      1.660     4.50     946.1101     57.68223     204.8777        15     1.172     0.904  60.78   3
       349    306.8250    469.9451 307.8011327  +6.4892313     2292.839     3886.552     4175.925     81.64024     163.7363     327.0496      1.803     4.25     956.3436     57.68223     277.4343        22     1.427     0.983  70.10   0
       350    816.0354    466.8410 307.5897393  +6.5075879     1270.019     1987.712     1865.939     81.77055     163.6712     327.0822      1.587     5.80     945.5659     57.68223     160.5746        14     1.417     0.668  70.57   0
       351    389.8625    466.6553 307.7667555  +6.4933799     1482.912     2502.075     2824.687     82.16024     163.6712     327.2449      1.884     5.05     954.3902     57.68223     197.4896        20     1.476     0.937  57.95   0
       352    972.1063    464.5498 307.5249902  +6.5137496     2051.427     3078.658     3489.531     81.90065     163.5411       327.44      1.644     4.01     940.5228     57.68223     308.0728        19     1.530     0.779  55.37   0
       353    124.2946    461.4880 307.8772276  +6.4865806     4094.705     6788.343     7285.616     82.03055      164.126       327.31      1.782     4.01     962.9955     57.68223     484.4744        31     1.537     1.107  70.05   0
       354    762.4730    460.5894 307.6121969  +6.5083768     2205.262     3408.216     3485.772     81.50971     163.2805     327.1147      1.709     4.16     946.0142     57.68223     266.3075        20     1.364     0.887  73.03   0
       355    378.2928    462.4331 307.7717032  +6.4947343     606.3987     947.6588     927.7189     82.16024     163.5411       327.31      1.603     3.39     954.2105     57.68223      107.493         5     0.765     0.436  22.05   0
       356   1023.9064    457.9912 307.5036939  +6.5181866     796.8374     860.5742     539.7702     67.50547     125.8689     241.8585      0.985     2.91     938.5993     57.68223     261.4813         6     1.084     0.291 -89.96  24
       357    282.3196    458.4275 307.8116992  +6.4931621     1294.013     2041.115      2683.13     81.90065      163.476     327.2774      1.859     4.94     956.2349     57.68223     171.3739        11     1.110     0.790  42.31   0
       358    360.2215    456.2081 307.7794188  +6.4966970     2867.586     5048.649      4613.52     81.64024      163.476     327.0171      1.837     4.45     954.0064     57.68223     350.0176        25     1.458     1.037  67.65   0
       359    716.2759    454.1590 307.6316013  +6.5094852     1604.624     2577.432     2870.742     81.90065     163.6712     327.2774      1.934     4.43     946.1906     57.68223     221.1279        17     1.415     0.782  63.00   0
       360    990.0565    452.8388 307.5179268  +6.5191838     532.0593     757.7155     1134.613     82.03055     163.7363     327.2123      1.493     4.98     939.1954     57.68223     90.16779         6     1.420     0.495  62.15   0
       361    248.1941    452.0878 307.8260867  +6.4946315     818.8449     1507.851     1394.573     81.50971     163.3457     326.9845      1.963     5.67     957.4404     57.68223     110.7078         9     1.258     0.725  79.10   0
       362    557.9238    447.1945 307.6976079  +6.5070544     794.8364     1354.995     1223.815     81.64024       163.15     327.0822      1.881     4.85     948.9013     57.68223     148.1697         9     1.312     0.776  80.62   0
       363    479.9269    445.4723 307.7300620  +6.5051488     1172.642     1903.516     2024.648     82.28973     163.8013       327.31      1.786     6.95     950.3326     57.68223     140.9293        18     1.411     1.065  69.18   0
       364    842.3055    444.1240 307.5795903  +6.5178448     1287.199     1941.535     1994.713     81.77055     163.8663     327.2449      1.703     4.93     943.6495     57.68223     184.1761        14     1.289     0.764  60.01   0
       365    828.1393    443.3163 307.5855016  +6.5177046     1964.792     2870.396     2843.668     82.16024     163.7363       327.31      1.546     4.21     944.1402     57.68223     232.6202        19     1.377     0.874  66.76   0
       366    725.3338    441.3548 307.6282693  +6.5150745     14200.48      22197.7     23597.84     82.03055     163.6062     327.2774      1.705     3.78     945.5576     57.68223      1753.26        43     1.610     1.076  65.53   0
       367    618.8003    432.5001 307.6728170  +6.5151615     12227.62     25270.23     31047.71     81.50971     163.2805     326.8217      2.379     6.69       947.25     57.68223     1652.935        72     2.479     1.315  40.60   0
       368    646.4833    437.3209 307.6611564  +6.5140990     2319.477     3722.914      4041.71     82.16024     163.9312      327.375      1.727     4.44     946.7958     57.68223     270.9323        21     1.439     0.902  74.92   0
       369    950.6006    431.2092 307.5350409  +6.5267957     3781.788     5664.936     5604.364     81.37898     163.3457     327.0171      1.588     3.80     939.5737     57.68223     598.3918        25     1.480     0.888  63.11   0
       370    389.7805    427.1981 307.7681200  +6.5096661     25417.02     43621.47     46402.23     81.64024     163.2152     326.9519      1.811     4.02      951.304     57.68223     3023.309        57     1.692     1.246  71.11   0
       371    426.7873    428.5878 307.7527024  +6.5103352     665.7455     1024.535      273.295     81.90065     163.3457     327.1798      1.565     5.06      950.968     57.68223     110.6483         6     1.158     0.626  42.37   0
       372    906.0983    426.6748 307.5536782  +6.5271810     1404.463     2249.446     3033.796     81.50971     163.8013     327.2123      2.079     7.84     941.2051     57.68223     208.5636        16     2.596     0.663  46.65   2
       373    135.7478    426.6031 307.8736501  +6.5013674     2095.941     3434.161     3823.939     81.37898      163.476     326.7891      1.766     4.59     961.7318     57.68223     269.3162        20     1.466     0.917  72.26   0
       374    919.4178    421.6611 307.5483137  +6.5296959     5020.622     7433.011     7293.154     81.64024     163.6062     327.0496      1.596     3.91     940.7719     57.68223     681.1452        25     1.421     0.904  59.99   0
       375     69.0272    422.0197 307.9015161  +6.5010117     1279.048     2252.376     2326.131     81.64024      163.476     327.1473      1.922     5.87     964.2499     57.68223     159.0044        17     1.472     0.875  64.15   0
       376    975.2280    419.8000 307.5251938  +6.5323284      684.223     825.9476     707.1039     81.50971     163.4108     327.0171      1.322     4.27     937.6045     57.68223     128.0753         7     1.078     0.609  53.52   0
       377    247.3193    417.7477 307.8276095  +6.5087784     12369.39     21049.63     22118.74     82.03055     163.6712     327.2449      1.827     4.11     956.0348     57.68223     1492.761        45     1.668     1.182  65.96   0
       378    710.2642    410.8910 307.6355527  +6.5271464     740.5149     1141.653     1038.227     82.03055     163.8663     327.2774      1.715     5.85     944.5436     57.68223     109.3243         9     1.147     0.909  84.75   0
       379     83.1275    411.8790 307.8960028  +6.5056731     667.3044     1074.837     742.6695     82.28973     163.9312     327.2123      1.414     2.84     963.4887     57.68223      134.165         5     0.760     0.513  37.06   0
       380    970.9950    410.8541 307.5272520  +6.5358802      848.933     1086.755     1227.054     81.37898     163.4108     326.9194      1.416     2.73     937.3262     57.68223      139.149         8     0.795     0.665 -51.03   0
       381    360.5307    407.4803 307.7809340  +6.5168233     1182.734      2126.64     1939.064     82.28973     163.9312     327.2449      1.898     4.22     950.2735     57.68223     166.2321        13     1.104     0.887  44.31   0
       382    192.2350    407.1911 307.8508450  +6.5112828     498.7012     818.5114     459.7108     81.50971      163.476     327.0496      1.337     3.79     958.3899     57.68223     77.96021         5     1.200     0.343 -77.49   0
       383    147.5926    406.3424 307.8694154  +6.5101302     4664.625      7914.55     8267.353     81.37898     163.5411     327.0171      1.809     4.02     960.3854     57.68223     591.4959        29     1.511     1.050  63.51   0
       384    252.3003    405.6570 307.8259490  +6.5139372      909.074     1711.229     1857.229     81.77055     163.6712     327.4726      2.222     5.79     955.0831     57.68223     133.3955        13     1.383     0.897  75.01   0
       385    169.5658    402.0506 307.8604341  +6.5126418     2256.027     3884.037     3182.329     81.90065     163.6712     327.1473      1.846     5.22     959.1904     57.68223     287.1924        26     1.771     0.924  81.02   0
       386    565.1964    401.1571 307.6961370  +6.5263039     852.3398     1410.563     1176.016     81.37898     163.2805     326.9194      1.771     5.71     946.4539     57.68223     126.0153         9     1.217     0.754  61.21   0
       387    393.2377    397.0628 307.7677002  +6.5222228     2025.713     3381.079     3660.486     82.03055     163.7363     327.2449      1.749     3.78      949.415     57.68223     239.3248        20     1.270     0.984  69.48   0
       388    281.0770    397.3902 307.8142757  +6.5183178     829.4873      1316.69     1662.306     81.64024     163.2805     327.0496      1.744     5.65      952.888     57.68223     103.9037        11     1.166     0.771  77.78   0
       389     11.6811    397.1929 307.9261737  +6.5093273      695.755     1298.486     802.2432     81.64024     163.2152     327.0822      1.800     5.09     965.4891     57.68223     94.19904         7     1.102     0.666 -84.40   0
       390    981.4115    395.9251 307.5234256  +6.5423914      972.864      1501.46     1985.734     81.64024     163.3457     327.0496      2.135     5.62     935.8218     57.68223     129.7795        14     1.228     0.900  74.30   0
       391    325.9990    394.8402 307.7957033  +6.5208809     549.1442     1000.784     1691.709     81.24805     163.4108     326.9845      1.591     3.83     950.9432     57.68223     84.48077         5     0.827     0.509  61.25   0
       392    446.9189    390.5989 307.7456211  +6.5266940     6429.672     10972.86     11071.01     81.24804     163.2152     326.9845      1.812     3.98     947.8917     57.68223     736.2379        40     1.589     1.209  70.82   0
       393     43.3856    391.4856 307.9131989  +6.5127523     2700.636     4975.733     5454.628     81.64024     163.4108     327.1147      1.984     4.26     964.0533     57.68223     320.6934        31     1.575     1.187  84.90   0
       394    779.6132    389.6342 307.6074610  +6.5382432     1981.015     3093.694      3356.78     81.50971     163.4108     327.1473      1.730     3.66     943.0075     57.68223     273.1066        20     1.278     0.945  68.45   0
       395    787.5378    387.8690 307.6042285  +6.5392371     12235.21     18998.34     20007.84     82.03055     163.6712     327.2774      1.667     3.81      942.881     57.68223     1556.364        39     1.557     1.057  66.59   0
       396    350.6082    386.3012 307.7857698  +6.5252331     924.4884     1535.578     1992.804     81.77055     163.2805     327.0496      1.958     7.21     949.6852     57.68223     112.2328        15     1.496     0.973 -89.23   0
       397    962.0293    379.1775 307.5320384  +6.5486582     621.3095     852.4122     996.2296     81.50971      163.476     327.0822      1.847     5.18     936.0031     57.68223     105.3645         6     1.109     0.682  83.32   0
       398    196.0470    378.8444 307.8502194  +6.5231131     659.8824     1118.155     751.2716     82.03055     163.6062     327.2123      2.092     5.25       956.69     57.68223     96.35736         7     1.143     0.682  72.24   0
       399    912.3887    378.1711 307.5526925  +6.5474153      538.433     912.3559     962.8544     81.50971      163.476     327.0822      1.896     3.47     938.4579     57.68223     73.29608         5     0.774     0.450  72.65   0
       400      1.7780    377.2933 307.9309604  +6.5172081     981.5895     1766.056     2545.549      76.8019     136.8127      253.466      2.492     4.39     965.5839     57.68223      149.525        10     0.990     0.851 -63.13  24
       401    495.0763    374.2752 307.7261680  +6.5350493     2822.805     4926.433     5105.812     82.28973     163.9312     327.3425      1.835     4.45     945.5377     57.68223        324.8        27     1.587     1.004  74.16   0
       402    924.1489    374.7333 307.5479227  +6.5492275     781.3534     1142.448     1382.366     81.90065     163.5411     327.2449      1.639     5.67     937.9041     57.68223     93.26422        10     1.404     0.646  54.65   0
       403    467.4660    374.8230 307.7376181  +6.5338965     1945.514     3456.103     3837.343     81.64024     163.6712     327.2123      1.986     4.18     946.2574     57.68223     236.2334        21     1.371     1.006  73.08   0
       404    852.8895    370.8497 307.5776537  +6.5484490     31610.54     50803.13     53323.41     82.03055      163.476      327.375      1.706     3.96     940.0175     57.68223     4227.806        57     1.680     1.131  74.89   0
       405    345.1602    366.3589 307.7887055  +6.5332827     786.8544     1446.992     1648.325     81.77055     163.7363     327.1147      1.947     5.89     949.1947     57.68223     118.9837         9     1.358     0.718  45.80   0
       406    624.7076    363.2231 307.6726941  +6.5439592     2477.997      3991.26     3951.376     82.03055      163.476     327.0822      1.736     4.29     942.9723     57.68223     272.0205        24     1.483     0.967  60.57   0
       407     33.0502    363.0749 307.9184530  +6.5241322     996.5748      1785.69     1631.673     82.03055     163.7363     327.2774      1.899     6.09     963.6389     57.68223     131.6085        13     1.522     0.686  76.74   0
       408    709.3552    356.8371 307.6377474  +6.5494312     72593.28     118121.3     123830.9     81.77055     163.6712     327.1473      1.749     4.00     941.9031     57.68223     8535.537        78     1.674     1.233  68.06   0
       409    867.6808    358.5440 307.5719226  +6.5540238     1175.842     1917.407      2246.04     82.16024     163.6712     327.2774      1.818     5.28     938.8318     57.68223      172.532        14     1.369     0.763  79.78   0
       410     88.5203    356.3400 307.8956415  +6.5287820     1447.575     2098.685     1687.909     82.16024     163.6712     327.2123      1.664     4.49     960.1079     57.68223     187.1466        18     1.261     0.997  62.35   0
       411    951.0145    353.8511 307.5374632  +6.5587460     697.2168     1224.397     1281.344     81.37898     163.6712     326.9845      1.837     4.50     935.1452     57.68223     124.8402         7     1.250     0.461  61.98   0
       412    571.7698    353.5320 307.6950098  +6.5461854     2472.656     4011.183     4340.076     81.77055     163.6712     327.2123      1.743     3.95      942.711     57.68223     291.1617        23     1.369     1.029  75.72   0
       413    109.1454    352.3391 307.8872101  +6.5311286     5587.095     9513.477     10873.24     82.16024     163.6062     327.2123      1.866     4.19     959.0712     57.68223     640.7367        36     1.671     1.140  73.53   0
       414    555.0693    349.6600 307.7020773  +6.5472238     6412.149     10859.52      11206.9     82.16024     163.6712     327.2449      1.805     4.03      942.549     57.68223     747.2131        38     1.600     1.177  72.81   0
       415    417.9935    344.9259 307.7591754  +6.5445777     22542.78     39149.72     41594.29     81.64024     163.2152     327.0822      1.852     4.11     945.7851     57.68223     2480.128        58     1.704     1.250  72.31   0
       416    284.1696    347.3437 307.8146807  +6.5390821     2349.255     3975.547     3708.395     81.90065     163.7363     327.1473      1.774     4.24     950.7227     57.68223     272.5879        24     1.390     1.097  68.13   0
       417    596.9549    344.2185 307.6848617  +6.5508747     694.3351     895.3071     689.9305     81.64024     163.5411     326.9845      1.637     6.05     941.8766     57.68223     84.07806         8     1.115     0.922 -10.93   0
       418    525.7081    343.4893 307.7144813  +6.5487863     1273.981     2112.454     1903.844     82.03055     164.1908       327.31      1.767     5.91     942.6528     57.68223     144.5304        15     1.312     0.895  61.84   0
       419    397.9443    342.9032 307.7675716  +6.5447393     858.4459     1872.368     3195.578     81.90065     163.6712       327.44      3.598     6.75     946.4377     57.68223     108.4227        14     1.428     1.182  55.48   0
       420    812.6436    336.8610 307.5955130  +6.5611348     873.8815     1354.799      1332.78     82.03055     163.6712      327.375      1.662     6.70     939.8543     57.68223      125.946        12     1.595     0.790  83.07   0
       421    507.1036    335.2945 307.7224853  +6.5515452     7609.272     13233.75     13865.75     82.03055     164.2557     327.1147      1.858     4.18     942.6288     57.68223     892.0987        40     1.643     1.176  74.17   0
       422    497.4293    340.1960 307.7263388  +6.5491971      816.108      1453.29     1470.583     81.50971      163.476     327.0822      1.879     6.52     943.1643     57.68223     93.81323        13     1.275     0.936 -83.27   0
       423    776.0784    334.0660 307.6107961  +6.5610654     3039.116     4759.938      4684.57     82.16024     163.8013     327.2123      1.644     3.86     940.1041     57.68223     419.7883        23     1.361     0.968  63.21   0
       424    931.3422    333.6993 307.5463111  +6.5664082      909.716     1394.376     1562.775     81.77055     163.6712       327.44      1.474     3.42      935.442     57.68223     147.1643         8     0.957     0.567  67.43   0
       425    723.8593    333.4489 307.6325086  +6.5595723     672.0557     964.4038     1451.008     82.03055     163.6712       327.31      1.442     4.40     940.2431     57.68223     101.8021         6     1.146     0.480  56.79   0
       426    333.5871    331.8575 307.7946767  +6.5471366     817.0926     1232.335     1161.803     81.37898     163.5411     326.9519      1.672     4.90     948.3589     57.68223     118.3186         7     1.056     0.645  66.58   0
       427    446.2730    326.7585 307.7480411  +6.5530273     505.9222     890.5516     670.8419     81.90065     163.7363     327.2774      1.797     4.42     944.0716     57.68223     86.20764         5     0.776     0.715  26.70   0
       428    169.3648    325.8517 307.8630929  +6.5440912     1056.146     1772.445     2020.314     81.90065     163.6712     327.1798      1.880     4.69     956.7732     57.68223     149.9418        13     1.286     0.695  56.19   0
       429    269.3537    325.5669 307.8215700  +6.5475736     527.5881     850.3212     955.8597     81.77055     163.6712     327.1798      1.680     4.25     950.8795     57.68223     87.19165         5     1.082     0.476 -87.66   0
       430    397.0318    319.5855 307.7687370  +6.5543347     6520.757     11096.52     11924.05     81.64024     163.4108     327.1798      1.842     4.21      945.632     57.68223     725.9241        38     1.705     1.103  68.17   0
       431    252.8012    319.9456 307.8286353  +6.5493374     1778.296     3038.082     3036.909     81.37898     163.4108     326.8542      1.728     5.24     951.6736     57.68223     211.6386        21     1.543     0.925  75.80   0
       432    764.8669    315.3944 307.6160807  +6.5683984     50374.16     80860.35     84902.11     81.50971     163.3457     327.0496      1.718     3.93     938.8775     57.68223     6618.479        70     1.663     1.189  68.02   0
       433    750.6577    319.3410 307.6218507  +6.5662936     845.9048      1219.01     1839.432     82.16024     163.6062     327.2774      1.622     4.27     939.1687     57.68223     139.4469         7     0.916     0.575  66.90   0
       434    436.4790    314.7433 307.7525144  +6.5576586     2206.634     3646.031     3717.181     82.03055     163.6712     327.2449      1.798     4.54     943.9222     57.68223     236.4227        21     1.445     0.968  64.27   0
       435    999.6751    312.5917 307.5186326  +6.5774044      1733.72     2315.285     2429.034     81.64024       163.15     327.0496      1.496     3.71     931.9745     57.68223     326.5589        17     1.326     0.821  66.49   0
       436    940.7188    311.6265 307.5431564  +6.5758339     2344.385     3838.769     3741.793     81.90065      163.476     327.2774      1.702     4.39     934.1587     57.68223      296.479        18     1.434     0.799  73.23   0
       437    582.6949    312.3853 307.6918567  +6.5635382     1054.852     1504.255     1913.374     81.77055     163.4108     327.0496      1.677     4.82     939.8748     57.68223     146.6636         8     0.945     0.696  82.23   0
       438    473.7363    311.1820 307.7371581  +6.5603796     858.8931     1643.396     1650.889     81.64024     163.6062     327.0822      1.927     5.22     942.1031     57.68223     139.2535        10     1.301     0.592  68.04   0
       439    422.9771    310.5444 307.7582646  +6.5589385     1701.698     2772.969     2807.889     81.64024     163.6712     327.0496      1.675     4.88     944.3103     57.68223     215.5431        19     1.442     0.987  68.62   0
       440    303.0423    309.8060 307.8081086  +6.5552130     542.9204     648.9666     260.0374     81.37898     163.3457     326.9519      1.496     3.75      948.683     57.68223     106.4014         5     1.202     0.337  65.59   0
       441    844.1356    304.9706 307.5835018  +6.5753536     1107.094     1867.871       1919.4     81.77055     163.7363     327.1798      1.793     5.65     937.3535     57.68223     134.1599        12     1.411     0.638  71.94   0
       442    453.9071    302.2598 307.7456957  +6.5633972     1004.866     1739.294     2141.705     81.90065     163.6062     327.3425      2.209     5.83     942.5166     57.68223     128.1289        11     1.056     0.906 -74.16   0
       443    199.7026    301.7935 307.8513044  +6.5550441     2059.702     3487.034     3451.946     81.77055     163.2805     327.0171      1.696     4.58     954.7473     57.68223     259.9368        19     1.396     0.869  70.96   0
       444    763.3660    299.9829 307.6172221  +6.5747106     5617.314     9107.204     9674.354     81.64024      163.476     327.0822      1.744     3.86     937.9005     57.68223     702.2904        33     1.514     1.063  67.96   0
       445    779.7603    297.8727 307.6104826  +6.5761304     2493.132     3860.823     4163.515     81.90065     163.6712       327.31      1.647     4.09     937.7228     57.68223     337.2482        23     1.448     1.050  82.57   0
       446    235.7767    300.5960 307.8363605  +6.5567525     563.9951     865.9792     495.7242     81.64024     163.4108     327.0822      1.539     3.50     952.4934     57.68223     80.33813         5     0.752     0.470  14.01   0
       447     95.9904    299.5706 307.8944589  +6.5524689     1061.316     1674.882     1829.599     81.50971      163.476     327.0822      1.846     5.79     959.1379     57.68223     138.9359        12     1.035     0.912  71.52   0
       448    353.4502    299.3316 307.7875234  +6.5612316     585.9138     890.5071      1008.51     81.90065     163.6062     327.2449      1.574     4.89     946.4747     57.68223     83.59216         6     0.950     0.713  20.27   0
       449     83.0929    293.2092 307.9000313  +6.5546603     1142.292     1936.859     1715.209     81.64024     163.2805     327.0496      1.672     5.49     959.4179     57.68223     151.8922        13     1.371     0.752  64.33   0
       450    369.3373    292.6697 307.7811488  +6.5645157     1452.994      3232.39      3294.47     82.03055     163.6712       327.31      2.267     6.95     945.6691     57.68223     165.4396        27     1.662     1.281  12.45   0
       451   1017.9060    288.8396 307.5118552  +6.5878188     5972.942     8777.354     8615.538     82.16024     163.6062     320.1733      1.546     3.95     931.3267     57.68223     934.0638        28     1.485     0.882  65.35  16
       452    496.0101    288.6797 307.7286639  +6.5704167     1853.901      3277.93     3298.046     81.64024     163.3457     327.1147      1.856     5.50     940.1374     57.68223     209.1755        22     1.460     1.004  69.63   0
       453    258.5728    284.1771 307.8274459  +6.5642975     5116.821     8870.567     9544.541     81.50971      163.476     327.1798      1.858     4.21     950.6179     57.68223     598.5645        37     1.654     1.144  66.23   0
       454    777.8958    277.8424 307.6119302  +6.5843372     821.7992     1108.978     804.8618     82.03055     163.6062      327.375      1.459     4.90     937.0123     57.68223     111.4081         8     1.151     0.591  62.56   0
       455    392.7070    275.1437 307.7720323  +6.5725360     1575.204     2845.327     2569.734     81.90065     163.6712       327.44      1.891     5.47     944.0015     57.68223     194.3787        20     1.591     0.888  68.44   0
       456    979.7152    274.0898 307.5282153  +6.5926329     1015.405     1562.368     1394.469     81.77055     163.9962      327.375      1.523     5.20     931.4327     57.68223     155.2307        10     1.325     0.605  72.47   0
       457    162.4083    271.1760 307.8678305  +6.5664279     1572.898      2798.92     3166.074     81.64024      163.476     327.0822      1.936     5.72     956.0971     57.68223     220.2079        19     1.421     0.965  74.39   0
       458    314.6654    270.9992 307.8045904  +6.5716240     1036.286      1977.92     2049.485     81.24805     163.3457     326.9845      2.048     3.87     947.0758     57.68223     133.2396        10     0.932     0.836  62.11   0
       459    572.1231    266.6024 307.6977896  +6.5820842      1928.18     3136.364     2941.741     81.37898       163.15     327.1147      1.763     4.52     937.9778     57.68223     223.1011        23     1.419     1.062  62.11   0
       460    915.9551    265.8809 307.5549785  +6.5938920     1754.354     2839.269     2960.027     82.03055     163.6712     327.2123      1.712     4.39     933.2642     57.68223     261.3595        17     1.359     0.798  57.35   0
       461    735.8087    264.0739 307.6298768  +6.5886125     4565.633     7509.518     7756.638     81.64024     163.2152     327.0822      1.687     3.95     936.9402     57.68223     592.0838        30     1.498     1.040  61.10   0
       462    676.5881    264.1247 307.6544765  +6.5866083     2183.645      3709.56     3325.668     81.64024     163.3457     327.0822      1.745     4.01     937.4409     57.68223     254.8257        22     1.396     0.939  75.19   0
       463    973.7363    263.8382 307.5310429  +6.5966655     807.2644     1283.979     1172.598     82.03055     163.6062       327.31      1.523     4.31     931.0586     57.68223     124.7969         7     1.157     0.457  60.11   0
       464    391.7753    258.7897 307.7729710  +6.5792560     669.1918      1017.98     1071.605     81.64024      163.476     327.1147      1.405     4.13     943.3116     57.68223     133.9816         6     1.097     0.636 -81.93   0
       465    931.6655    256.0821 307.5487807  +6.5984622     1059.403     1421.549     1071.061     82.28973     163.9312       327.31      1.500     5.34     932.2045     57.68223     146.6111        11     1.189     0.678  63.22   0
       466    234.9959    249.1134 307.8384239  +6.5779791     2122.766      3804.19     4130.977     81.50971     163.3457     326.9519      1.892     5.46     952.1408     57.68223     246.8299        25     1.631     1.003  67.82   0
       467    878.0186    248.5258 307.5713210  +6.5997888     1695.965      2782.38     3232.021     81.50971     163.5411     327.1473      1.838     4.38     934.1403     57.68223     233.5096        19     1.336     0.930  67.09   0
       468    768.3121    247.6916 307.6169246  +6.5964636     1550.414     2382.179     2364.961     82.03055      164.126      327.375      1.638     4.10      936.688     57.68223     198.8868        13     1.244     0.694  66.68   0
       469    469.1508    239.2686 307.7414866  +6.5899133      19996.6     34503.03     36392.63     82.03055     163.6062     327.2449      1.843     4.05     938.5567     57.68223     2198.219        55     1.675     1.261  67.13   2
       470    474.8719    234.3529 307.7392756  +6.5921346     1368.436     2211.734     3268.563     82.03055     163.7363     327.2449      1.892     4.90     937.9989     57.68223     172.8186        15     1.343     0.794  89.70   2
       471    795.2154    238.4637 307.6060582  +6.6011735     12610.51      19962.6     21757.45     81.50971     163.5411     327.1147      1.729     3.93     936.5549     57.68223     1604.926        48     1.581     1.256  60.70   0
       472    330.3408    240.9155 307.7990943  +6.5845702     588.7421     1039.193     847.0871     82.03055     163.7363     327.3425      1.851     5.57     945.5732     57.68223     92.99243         6     1.259     0.695  52.41   0
       473    734.2455    234.4272 307.6315227  +6.6007993     515.9826     828.5876     1346.832     81.50971     163.7363     327.1473      1.917     4.67     936.5578     57.68223      83.0448         6     1.511     0.410  54.63   0
       474    157.3479    232.5496 307.8712384  +6.5822030     2175.823      3446.11     3826.566     82.16024     163.5411     327.2774      1.752     4.15     954.6155     57.68223     251.5334        21     1.318     1.020  72.46   0
       475    132.3691    231.4127 307.8816529  +6.5818309     1030.167     1797.319     2051.807     81.50971      163.476     327.1798      1.984     6.42     956.1116     57.68223     129.3596        14     1.478     0.886  62.10   0
       476    183.5806    230.7558 307.8604020  +6.5838268     602.2559     1037.801     1506.036     81.50971     163.5411     327.0822      1.867     4.34      953.749     57.68223     103.1063         6     1.244     0.613  17.46   0
       477    931.4095    228.9694 307.5497966  +6.6096467     1489.844     2367.798     2726.974     81.50971      163.476     327.0496      1.750     3.77     931.1508     57.68223     216.1823        18     1.265     0.916  57.22   0
       478    593.2224    224.9872 307.6904255  +6.5999715     4232.624     7149.801      7252.97     81.77055      163.476     327.1473      1.819     4.20      936.593     57.68223     510.0944        31     1.581     1.047  64.48   0
       479    555.9413    225.2730 307.7059034  +6.5986033     1875.189     3043.301     2851.742     82.16024     163.6712     327.2123      1.650     4.48     937.0913     57.68223     231.4988        19     1.462     0.839  68.78   0
       480    313.6383    225.6069 307.8065493  +6.5903283     1061.694     1877.564     1705.975     81.24805     163.3457     326.9519      1.832     6.63     946.0767     57.68223     128.6794        15     1.439     0.858  58.48   0
       481    397.8954    224.0902 307.7715990  +6.5937863     1274.729     1894.002     1534.508     82.03055      164.126     327.2449      1.526     3.86     941.4171     57.68223     180.0775        14     1.151     0.830  69.40   0
       482    954.1796    222.2381 307.5405627  +6.6131863     2747.449     4303.226     4121.169     81.64024     163.4108     326.9845      1.679     4.20     929.7465     57.68223     354.4761        21     1.334     0.979  68.33   0
       483    900.2473    221.5648 307.5629913  +6.6116622      10984.9      16613.9      17146.5     81.64024     163.6062     327.1147      1.640     3.93     932.0967     57.68223     1412.252        40     1.559     1.005  67.04   0
       484    575.6257    221.6382 307.6978484  +6.6007641     782.6003     1493.259     1080.272     81.64024      163.476     327.0822      1.794     5.25     936.6998     57.68223     117.3706         9     1.440     0.540  73.58   0
       485    328.0674    221.9350 307.8006792  +6.5923293     898.6328      1547.43     1804.588     82.03055     163.6712     327.2774      2.021     5.80     945.3037     57.68223      104.604        11     1.239     0.764  69.27   0
       486    219.5122    222.4100 307.8457580  +6.5884816     549.4069     910.8395     1016.476     81.64024     163.3457     327.0822      1.655     4.22     952.8553     57.68223     85.30841         6     1.114     0.456  78.42   0
       487    986.8525    219.3748 307.5270849  +6.6154596     9792.282     14954.54        15383     81.64024     163.6712     327.1473      1.621     3.95     928.1199     57.68223     1531.168        34     1.516     0.973  65.44   0
       488    698.3808    219.5742 307.6469215  +6.6057301     2633.415     4325.423     4163.619     81.50971      163.476     327.1473      1.788     4.50     936.5104     57.68223     325.7725        25     1.541     1.046  68.29   0
       489     26.4474    218.1197 307.9261019  +6.5837484     23470.47     39385.04     42165.98     82.03055     163.6712     327.2774      1.831     4.15     959.8237     57.68223     2802.114        65     1.757     1.251  72.03   0
       490    272.6191    219.2793 307.8238028  +6.5915609     1045.762     1797.015     1893.578     81.64024     163.3457     327.1798      1.813     6.28     949.1038     57.68223     120.2142        13     1.305     0.849  64.37   0
       491    506.9503    214.3582 307.7266233  +6.6014656     1714.405     2904.034     2587.118     82.16024     163.6712     327.2123      1.688     4.20     936.7321     57.68223     210.8992        16     1.285     0.808  72.61   0
       492    838.8235    210.9728 307.5888650  +6.6139813     1900.462     2850.158     2657.639     81.50971     163.5411     327.0822      1.576     4.11     933.9108     57.68223     269.8647        17     1.330     0.809  58.97   0
       493    519.0526    210.2125 307.7217353  +6.6035831     2169.656     3344.413     3185.239     81.37898     163.6062     326.9519      1.647     4.03      936.519     57.68223      264.088        22     1.316     1.060  83.11   0
       494    891.0612    210.0526 307.5671939  +6.6161078     2051.241     3122.528     3375.242     82.03055     163.6062     327.2123      1.590     4.47     931.8933     57.68223     270.8187        17     1.306     0.850  68.27   0
       495    750.4409    207.5633 307.6256976  +6.6124317     37703.79     59744.75     62541.82     81.77055     163.6712     327.1147      1.737     4.05     935.7499     57.68223     4671.872        61     1.660     1.150  67.12   0
       496    353.5159    206.9726 307.7906125  +6.5993615     5388.512     11355.35     13284.06     82.16024     163.4108     327.1147      2.290     5.96     943.6972     57.68223     523.8699        51     2.147     1.280  88.77   0
       497    984.1967    206.1632 307.5286313  +6.6208251     2795.833     4123.756     4217.725     81.11689     163.5411     327.0171      1.558     3.91     928.0134     57.68223     385.6549        20     1.316     0.845  60.74   0
       498    918.3366    204.6997 307.5560421  +6.6192292      7394.12     11331.85     11928.34     81.77055     163.7363     327.2449      1.648     3.93     930.5512     57.68223     1016.616        36     1.515     1.082  71.57   0
       499   1022.5432    204.9500 307.5127408  +6.6226063     1674.775     2526.994     2614.404     82.03055     146.2901     264.8061      1.612     4.25     926.5016     57.68223     249.8282        15     1.327     0.759  63.39  24
       500    461.7914    203.7904 307.7457396  +6.6043124     4509.482     7824.883     8402.069     81.50971      163.476     327.1473      1.818     4.19     937.2648     57.68223     529.1451        32     1.549     1.107  73.84   0
       501    236.4893    200.2392 307.8394546  +6.5982054      712.375     1434.338     1231.002     82.03055     163.6712     327.2774      2.035     4.80      952.017     57.68223     110.3393         7     1.033     0.632  67.54   0
       502    119.1898    195.1447 307.8883542  +6.5963588     4363.283     7660.146     8557.287     81.37898     163.6062     326.9194      1.879     4.21     955.8853     57.68223     525.8431        31     1.625     1.041  71.79   0
       503    289.5163    191.6891 307.8177151  +6.6035190      30116.8     51704.51     54608.86     81.77055     163.9312     327.3425      1.844     4.22     949.4644     57.68223     3314.996        64     1.734     1.271  68.78   0
       504    264.9037    192.8093 307.8279018  +6.6022286     5862.495     10128.64     10535.14     81.77055     163.2805     327.0496      1.819     4.20     950.6543     57.68223     662.5244        40     1.638     1.185  71.62   0
       505    938.4964    193.8714 307.5480299  +6.6243731     860.0535     1161.691     1531.402     81.90065     163.8663     327.2449      1.505     4.36     929.2671     57.68223     115.9258         7     0.845     0.639  21.10   0
       506    718.8111    190.9493 307.6393965  +6.6182315     935.1686     1450.866     1198.331     81.37898     163.5411     326.9519      1.546     3.64     935.5657     57.68223     147.1971         8     0.922     0.735 -87.10   0
       507    413.5982    187.2005 307.7663198  +6.6095426     43836.73     76141.95     80409.79     81.37898     163.2152     326.9194      1.873     4.22     938.7988     57.68223     4894.541        71     1.723     1.304  68.19   0
       508    169.5471    188.5655 307.8676578  +6.6007710     3710.806     6406.483     6357.599     81.90065     163.6712     327.1798      1.857     4.43     953.7275     57.68223      462.223        31     1.579     1.116  72.01   0
       509    430.9960    187.7322 307.7590743  +6.6099075     1238.337     2013.343     1393.485     81.37898     163.2805     327.0171      1.687     6.27     937.9664     57.68223     133.5485        17     1.454     0.855  69.04   0
       510    317.6098    184.9108 307.8062733  +6.6072619     16051.76      27656.7     29625.39     81.77055     163.3457     327.0496      1.863     4.17     947.1656     57.68223     1783.506        52     1.684     1.244  70.90   0
       511    752.8965    183.4394 307.6254883  +6.6224730     31283.47     49570.61     51928.07     82.03055     163.5411     327.4075      1.722     4.01     934.6548     57.68223     4013.397        58     1.644     1.154  66.71   0
       512    701.1381    185.5289 307.6469209  +6.6198773     771.4869      1365.74     1467.471     82.16024     163.6712       327.31      1.678     6.11     935.5247     57.68223     108.9229         9     1.495     0.701  66.71   0
       513    325.0938    184.6646 307.8031725  +6.6076152     1868.646     3488.643     4024.229     81.90065     163.7363     327.2774      2.012     5.56     946.4849     57.68223     221.9526        22     1.525     1.015  83.13   0
       514    801.0693    183.9614 307.6054573  +6.6238696     1161.247     1656.376      1726.21     81.90065     163.6712     327.3425      1.475     4.84     932.9842     57.68223      178.512        14     1.606     0.592  56.22   0
       515     69.7086    180.5875 307.9094015  +6.6007006     8593.544      14122.4      15248.3     81.77055     163.4108     327.0171      1.785     4.02     957.9351     57.68223     1028.032        43     1.647     1.172  69.42   0
       516    103.6447    178.6564 307.8953695  +6.6026416     1329.388     2204.523     2031.322     82.03055     163.6712     327.2449      1.845     5.58     955.9396     57.68223     159.6656        17     1.448     0.870  54.38   0
       517   1011.2580    178.1763 307.5183269  +6.6332826      917.605     1550.731     2064.999     81.64024     163.6712     327.0822      1.550     5.00      926.858     57.68223     133.3256        10     1.303     0.543  53.21   0
       518    979.1757    176.6645 307.5317066  +6.6328355     569.2787     822.4319     504.5535     81.64024     163.6712     327.1473      1.624     4.46     927.5811     57.68223     86.60876         5     1.128     0.500  55.99   0
       519   1012.1401    163.9598 307.5184370  +6.6391812     2153.209     3391.391      3785.18     82.03055     163.6712       327.31      1.814     4.17     926.7891     57.68223     338.1599        21     1.564     0.769  63.55   0
       520      3.0588    165.4349 307.9376012  +6.6047082     888.1707     1376.687     1192.971     81.90065     153.3263     273.8588      1.668     5.51     962.7368     57.68223       126.92        11     1.280     0.670  40.07  24
       521    595.6533    162.2094 307.6915291  +6.6259693     1011.385     1697.739      1912.58     81.37898     163.6062     326.9519      1.839     5.79      934.452     57.68223     148.6862        13     1.476     0.639  55.01   0
       522    603.5486    159.6973 307.6883335  +6.6272711     1955.751     3203.129     3703.429     81.90065     163.6712     327.4726      1.725     4.75     934.4648     57.68223      240.085        19     1.396     0.938  71.33   0
       523    348.2177    160.0230 307.7943979  +6.6185650     860.0856     1308.127     1510.319     81.77055     163.5411     327.1798      1.533     4.93     944.3655     57.68223     114.8835         9     1.103     0.623  89.20   0
       524    288.4404    157.9610 307.8193009  +6.6174063     27267.06     47090.51     50470.41     81.77055     163.7363     327.1147      1.863     4.24     951.4615     57.68223     2986.182        62     1.726     1.276  67.23   0
       525     33.7005    156.4411 307.9251769  +6.6094544     4229.694     6974.251     7605.129     82.03055     163.5411     327.4726      1.816     4.38     960.3508     57.68223     486.3809        34     1.592     1.182  69.12   0
       526    720.0718    154.5512 307.6400966  +6.6332998     7554.462     11802.97      12527.1     82.03055     163.7363     327.2774      1.675     3.96     934.3475     57.68223     951.3742        31     1.548     0.978  69.41   0
       527    197.5946    156.1197 307.8571030  +6.6151094     779.6359     1193.049     1651.572     81.64024     163.2152     327.0171      1.886     6.04      952.959     57.68223     119.7457        10     1.274     0.826 -80.80   0
       528    130.9671    151.6764 307.8849319  +6.6146997     4456.527     7672.335     8135.515     81.90065     163.6712     327.2123      1.839     4.61     954.3561     57.68223     506.5757        31     1.632     1.093  76.44   0
       529    274.5685    152.4137 307.8252511  +6.6192297     768.3574     1363.955     1426.813     81.64024     163.4108     327.1798      1.993     4.68     951.6227     57.68223     121.9282         9     1.217     0.558  59.01   0
       530    470.0148    149.0657 307.7441680  +6.6271801     1114.143      1858.43     1152.814     81.50971     163.5411     327.1798      1.766     6.75     934.8517     57.68223     162.7277        16     1.463     0.875 -80.11   0
       531    401.5847    147.7430 307.7726415  +6.6254279     3599.973     6636.072      6689.27     81.37898     163.6062     326.9845      1.964     4.73      938.556     57.68223     385.5039        33     1.679     1.154  78.50   0
       532    658.6990    148.1983 307.6658081  +6.6338667     724.6823     1185.618     830.9652     81.50971     163.4108     326.9519      1.688     4.39     934.2264     57.68223     114.9545         7     1.060     0.518  63.06   0
       533    365.9405    146.5640 307.7874894  +6.6247169     2863.419     4910.519     4866.218     82.03055     163.6712     327.2123      1.836     4.61     942.4189     57.68223     320.5591        26     1.590     0.983  66.33   0
       534    120.4375    146.4349 307.8894834  +6.6165087     1822.127     2890.558     3434.079     81.77055      163.476     327.0171      1.960     4.57     954.4764     57.68223     218.8136        19     1.334     0.939  68.96   0
       535    682.2852    144.4696 307.6561345  +6.6361962     838.3291      1706.27     1604.183     82.16024     163.9312     327.2774      2.192     7.16     933.9804     57.68223      114.006        12     1.590     0.903  64.73   0
       536    756.4023    144.2653 307.6253485  +6.6387625     590.2525     648.1068     677.7833     81.37898     163.4108     327.0171      1.333     4.06     932.6527     57.68223     87.69989         5     0.988     0.738  16.06   0
       537   1012.7525    141.0684 307.5189501  +6.6486520     1542.111     2270.519     1912.099     82.03055     163.6062     327.2449      1.539     3.86     924.7328     57.68223     209.9733        15     1.288     0.762  60.65   0
       538    217.7764    135.4373 307.8494179  +6.6243267     5045.722     8452.746     8536.517     81.64024     163.4108     327.0171      1.825     4.07     952.4458     57.68223     555.0279        34     1.598     1.115  64.08   0
       539    100.5852    135.5624 307.8980983  +6.6203280     1986.566     3208.491     3646.754     81.77055      163.476     326.9845      1.752     4.03      954.699     57.68223     236.5013        18     1.273     0.924  75.11   0
       540    828.0361    134.5727 307.5959127  +6.6451609     947.5976     1588.921     1247.783     81.50971     163.3457     327.0496      1.565     5.50     929.8182     57.68223     134.8853        12     1.429     0.671  86.11   0
       541    679.5918    134.2794 307.6575962  +6.6403128     5646.669     9276.147     9484.922     81.64024     163.2152     327.0822      1.778     4.33       933.45     57.68223     687.3209        34     1.542     1.094  66.20   0
       542    631.7981    131.6319 307.6775418  +6.6398042     8583.483     14478.39      15946.6     81.37898      163.476     327.0496      1.819     4.06     933.4758     57.68223     1066.269        43     1.628     1.165  70.62   3
       543    635.3617    123.1348 307.6763472  +6.6434314     49012.42     80548.94     84855.76     81.90065     163.6062       327.31      1.779     3.96      933.084     57.68223     5709.405        71     1.699     1.224  67.17   2
       544    266.5204    132.3867 307.8292710  +6.6272264     688.5828     1086.664     1027.391     81.64024     163.4108     327.0496      1.731     5.32       951.65     57.68223     102.8922         7     1.151     0.695  51.95   0
       545     30.3908    130.9857 307.9274135  +6.6198509       837.41     1263.214     1350.551     81.77055     163.4108     327.1473      1.770     5.05     960.3019     57.68223     107.5951         9     1.035     0.696  60.71   0
       546    358.8928    127.4328 307.7910629  +6.6323777     3237.165     5829.573     6251.923     82.16024     163.5411       327.31      1.909     4.46     943.2081     57.68223     371.4786        32     1.570     1.208  73.02   0
       547    540.6708    126.8679 307.7155619  +6.6387151     1620.397     2819.438     2261.931     82.03055     163.8013     327.2123      1.845     4.21     933.1479     57.68223     202.3404        19     1.325     0.944  51.61   0
       548   1005.0317    125.7574 307.5226713  +6.6547151     875.4297     1364.179     1532.361     81.50971     163.5411     327.0822      1.698     5.34     923.5284     57.68223      140.886        10     1.410     0.571 -89.83   0
       549    314.4365    116.8095 307.8098907  +6.6352686     3178.722      5484.89     5746.859     81.50971     163.4108     326.9845      1.827     4.42     948.3627     57.68223      349.597        30     1.523     1.126  67.23   0
       550     11.9511     99.8860 307.9361269  +6.6320670     748520.4      1737661      1895821     82.03055     163.6062     327.2774      2.261     6.63     961.4226     57.68223     61920.02       447     2.260     1.801  75.52  28
       551    714.3268    111.5563 307.6439293  +6.6508569     868.8952     1368.983     868.2165     81.90065     163.7363     327.2774      1.653     5.76     931.8138     57.68223      100.222        10     1.280     0.731  57.31   0
       552    685.7164    110.4469 307.6558534  +6.6503566     1357.112      1884.27     1997.332     82.03055     163.6712     327.2774      1.524     4.18     932.0605     57.68223     177.9413        13     1.210     0.752  63.60   0
       553    699.7263    107.0298 307.6501476  +6.6522366     3068.049     4899.255     4475.965     81.90065     163.6712     327.2449      1.695     4.23     931.7043     57.68223      404.547        23     1.507     0.851  66.67   0
       554    441.5313     98.0434 307.7577218  +6.6472866      3661.19     6306.952      6476.49     82.03055     163.6062       327.31      1.837     4.53     935.0396     57.68223     425.1126        27     1.547     1.027  69.09   0
       555    896.0283     94.5993 307.5690058  +6.6639366     2141.973     3171.991     3135.742     81.50971      163.476     327.0496      1.565     4.81     926.1744     57.68223     269.6769        19     1.533     0.750  69.81   0
       556    914.0330     93.4996 307.5615620  +6.6649924     4018.671     6000.793     6396.278     82.03055     163.5411     327.4075      1.603     4.13     925.7062     57.68223     560.6011        28     1.536     0.926  66.87   0
       557    594.3751     94.5596 307.6943378  +6.6538540     728.1705     1107.487     678.5518     81.64024      163.476     327.0171      1.821     5.10     932.2385     57.68223     119.8904         7     1.284     0.676  33.06   0
       558    606.2789     92.2491 307.6894699  +6.6552069     1510.429     2671.853     2105.103     82.03055     163.7363     327.2449      1.829     5.13     932.1379     57.68223     184.0328        20     1.459     0.931  77.36   0
       559    251.7982     91.4040 307.8367716  +6.6436492     771.1446     1416.803     1366.928     81.37898     163.2152     326.9845      1.905     5.54      951.685     57.68223      116.494         8     1.398     0.618  83.99   0
       560    404.8536     89.7429 307.7732399  +6.6494812     1635.288     3003.667     2983.782     82.16024     163.6712     327.2449      1.961     4.85     937.5452     57.68223     229.0024        23     1.607     0.939  59.21   0
       561    152.8557     86.7895 307.8780331  +6.6422230     2869.098     5001.684     5219.338     81.37898     163.6062     326.9194      1.842     4.49     952.2613     57.68223     340.3704        30     1.620     1.060  68.46   0
       562     34.7134     84.6469 307.9271867  +6.6391255     11700.64     19598.46     21219.03     82.03055     163.5411     327.2449      1.812     3.95     958.3594     57.68223     1462.444        46     1.632     1.204  74.63   0
       563    301.0832     85.0889 307.8165093  +6.6479142     1361.622     2471.866     2949.475     81.77055     163.8663     327.2774      2.040     6.08     949.7401     57.68223     168.2813        13     1.313     0.792  72.04   0
       564    955.5473     83.7038 307.5446419  +6.6704235     540.1595     893.4691     1218.493     81.90065     163.6712     327.5051      1.768     4.59     923.3547     57.68223     125.0555         5     1.352     0.442  49.83   0
       565    769.8290     84.2000 307.6217891  +6.6640085     633.4963     1021.229     1437.318     81.24805     163.4108     327.0171      1.883     3.51      929.316     57.68223     99.47412         5     1.043     0.341  44.37   0
       566    561.8820     83.4561 307.7082116  +6.6573480     637.0292     1217.342     1207.399     82.03055     163.6712     327.2774      2.141     5.96     932.1255     57.68223     109.5905         7     1.027     0.973   9.86   0
       567    992.8079     82.8825 307.5291879  +6.6720071     508.3743      972.776     754.2289     81.64024     163.3457     327.1147      1.823     3.58     920.8157     57.68223     95.93109         5     0.736     0.692 -74.83   0
       568    836.5084     79.2619 307.5942506  +6.6682782      6034.39     9368.558     9853.922     82.03055     163.8013     327.3425      1.696     4.12      927.291     57.68223     773.5569        33     1.490     1.063  69.73   0
       569    781.5655     79.5881 307.6170677  +6.6663053     3218.336     4908.141     4698.688     81.50971      163.476     327.0822      1.655     4.02     928.9208     57.68223     431.0736        24     1.402     1.008  63.08   0
       570    426.6572     80.3231 307.7644991  +6.6541023     962.0516     1523.008       1531.4     82.03055     163.6062     327.1798      1.785     5.83     935.8671     57.68223     121.8175        11     1.216     0.786  68.81   0
       571    768.9670     79.8741 307.6222926  +6.6657656     709.3856     1392.387     1744.612     81.90065     163.6062     327.2123      2.492     6.07     929.1823     57.68223     107.2423         9     1.423     0.728  48.16   0
       572    543.9528     77.9325 307.7158468  +6.6590268     1044.551     1584.117     2057.614     82.03055     163.6062     327.2774      1.729     5.60     932.1751     57.68223     134.1215        14     1.217     0.915 -87.88   0
       573     74.9299     76.4526 307.9107565  +6.6438642     3066.676     5123.887     5558.908     81.90065     163.5411     327.1798      1.838     4.47     954.6467     57.68223     351.7397        32     1.649     1.129  72.43   0
       574     59.4599     77.0398 307.9171635  +6.6431003     1017.074     1710.112      1669.15     82.03055     163.6712     327.3425      1.668     4.96        955.9     57.68223      140.723        11     1.175     0.766  56.89   0
       575    435.8656     75.9678 307.7608201  +6.6562096     750.6218     1343.717     1550.021     81.90065     163.7363     327.2123      1.849     4.32     935.4963     57.68223     115.3584        10     1.161     0.761  67.35   0
       576    598.9736     73.3694 307.6931407  +6.6627559     1189.449      1843.49     2013.099     81.50971     163.4108     327.0822      1.628     4.51     931.7024     57.68223      168.737        15     1.349     0.731  84.17   0
       577     17.1909     71.7629 307.9349024  +6.6438531     2435.448     4433.846     5737.591     81.37898     163.4108     326.9845      2.242     5.13     958.5673     57.68223      313.306        29     1.701     1.121  54.18   0
       578      9.5388     73.4032 307.9380258  +6.6429179     452.2251     1173.513     3425.827     81.37898     163.4108     326.9519      5.083     4.81     959.1673     57.68223     77.61755         5     1.115     0.588 -57.84   1
       579    416.8280     67.7895 307.7690055  +6.6589462     993.8524      1681.54     1623.363     81.64024      163.476     327.1147      1.745     5.87     936.7258     57.68223     143.2151        12     1.365     0.711 -84.74   0
       580    776.1340     67.0339 307.6197464  +6.6713062     1925.562     3012.896     3207.283     81.90065     163.7363     327.2449      1.649     4.33      928.554     57.68223       261.08        22     1.417     0.995  68.65   0
       581     89.9821     67.9437 307.9047911  +6.6478841     767.4434     1196.908     1120.866     81.50971     163.6062     326.9845      1.515     5.29     953.1661     57.68223     131.8098        11     1.399     0.565  71.89   0
       582    114.5800     65.9004 307.8946411  +6.6495567     830.4612     1614.546     1869.167     82.03055     163.5411     327.0171      2.034     6.30     952.3461     57.68223     138.0535        13     1.443     0.988 -85.02   0
       583    102.7559     60.7350 307.8997282  +6.6512905     8960.951     14987.06     16088.35     82.03055     163.6062     327.2449      1.809     4.21     952.3207     57.68223     988.9584        47     1.666     1.236  71.14   0
       584    431.7986     60.5146 307.7630310  +6.6624523     2333.317     4051.442     4284.404     81.24805     163.2152     326.9194      1.891     4.43     935.9656     57.68223     298.7908        24     1.532     0.964  73.82   0
       585    251.9003     58.3339 307.8378465  +6.6573044     509.6408     1006.876     1828.784     82.03055     163.8013     327.2123      2.312     3.99     951.2303     57.68223     80.69965         6     1.090     0.419  12.48   0
       586    645.5146     52.8256 307.6744952  +6.6727970     17390.58      27829.3     29243.78     82.16024     163.4108     327.1147      1.724     4.06     930.5658     57.68223     2081.425        45     1.629     1.108  64.45   0
       587    269.1693     54.8023 307.8307912  +6.6593433     1260.279     2134.143     2966.663     81.37898      163.476     327.0496      1.933     4.27     951.0358     57.68223     183.5865        17     1.316     0.904  62.92   0
       588    675.1148     54.0313 307.6621561  +6.6732912     562.1302     1032.394     1256.987     82.03055      163.476     327.1473      1.993     4.00       930.16     57.68223     93.41663         6     0.954     0.481  56.21   0
       589    545.3018     48.9027 307.7162643  +6.6710561     4689.154     7959.315     7896.858     82.03055      164.126     327.0822      1.776     4.43     931.8566     57.68223     513.3907        33     1.582     1.090  65.83   0
       590    263.5371     49.2263 307.8333195  +6.6614557     1817.875     3152.257     4241.334     81.64024     163.6062     327.1798      2.164     4.29     951.0151     57.68223     241.3401        19     1.343     0.938  72.81   0
       591    631.8241     43.1597 307.6805088  +6.6763285      2920.44     5137.373     6553.843     81.64024      163.476     327.0171      2.234     5.73     930.4874     57.68223      365.501        31     2.112     0.886  69.92   0
       592    450.8397     44.5133 307.7556596  +6.6696974     20908.26     34842.12     36774.59     82.03055     163.6712     327.2449      1.809     3.98     934.7068     57.68223     2306.188        57     1.652     1.267  67.31   0
       593     12.7008     47.0708 307.9376040  +6.6538946     1025.403     1739.443     1659.696     81.90065     163.8013     327.2449      1.747     6.10     956.4097     57.68223     118.0851        13     1.266     0.828  76.50   0
       594    331.3083     45.4931 307.8052888  +6.6652763     1014.732     1754.956     1927.449     82.03055     164.1908     327.2449      1.875     5.94     946.9654     57.68223     131.0217        15     1.333     0.918  75.24   0
       595    271.4566     44.8596 307.8301768  +6.6635248     8506.071     14165.43     15839.02     82.16024     163.6712     327.2774      1.821     4.01     950.9247     57.68223     977.3055        40     1.596     1.166  67.43   0
       596     36.7806     44.5715 307.9276847  +6.6557386     2221.342     3679.372     3633.014     81.64024      163.476     327.1798      1.762     4.13     954.9342     57.68223     292.8624        23     1.409     1.035  68.22   0
       597    928.6901     44.5342 307.5571154  +6.6856966     2066.632     2798.883     2491.552     81.90065     163.8013     327.2449      1.510     3.81     924.3455     57.68223     306.4479        17     1.345     0.766  65.82   0
       598    563.7853     43.7245 307.7087591  +6.6738139     663.4972     1161.968     765.3482     81.50971     163.4108     327.0822      1.516     3.71     931.5246     57.68223        106.6         5     0.976     0.405 -85.69   0
       599    259.3672     41.6218 307.8353089  +6.6644546     2912.963       4841.3     5931.667     81.50971      163.476     327.0496      1.860     4.17     950.9681     57.68223     325.9868        24     1.433     1.021  74.65   0
       600    312.4290     39.3140 307.8133413  +6.6671923     998.6265     1524.962     1329.453     82.16024     163.3457     327.0822      1.630     4.76     948.7209     57.68223     131.8263        10     1.118     0.683  67.07   0
       601    949.2214     34.6759 307.5489154  +6.6904524      1050.56      1719.75     1616.625     81.64024      163.476     327.1798      1.852     5.19     922.3682     57.68223     141.0427        10     1.389     0.549  67.09   0
       602    700.5455     34.0990 307.6522604  +6.6823717     1781.906      2809.99     2851.551     81.90065     163.6712     327.5051      1.590     4.06     928.8123     57.68223     265.5287        15     1.278     0.714  64.08   0
       603    105.2232     34.7386 307.8995828  +6.6621051     603.8476     941.9546     881.6942     81.64024     163.6062     327.1473      1.606     5.96     951.2943     57.68223     107.3444         8     1.055     0.947  45.09   0
       604    266.8406     29.1846 307.8326241  +6.6698402     878.0259     1557.845     2017.688     81.50971      163.476     327.0171      1.890     5.50     950.7872     57.68223     120.8618        11     1.123     0.789  59.73   0
       605    211.9678     29.5788 307.8554088  +6.6678307     537.6877     686.0528     533.0737     81.50971      163.476     327.0822      1.381     4.38     950.9459     57.68223     91.18756         5     1.025     0.532 -74.33   0
       606    188.9326     26.9023 307.8650696  +6.6681600     9897.979     16701.82      18136.6     82.03055     163.7363     327.2774      1.793     4.03     950.9177     57.68223      1090.51        43     1.580     1.213  63.68   0
       607      2.0855     27.0384 307.9426926  +6.6618059     1018.502     1697.164     1483.125     79.65998      141.405     258.8692      1.787     6.74     954.9086     57.68223     130.4158        14     1.436     0.887  61.71  24
       608    533.1035     25.3149 307.7221273  +6.6803844     2638.865     4424.895     4760.031     82.03055     164.0611       327.31      1.787     4.08      931.621     57.68223     314.5126        23     1.395     1.006  73.27   0
       609    934.5416     24.6491 307.5553515  +6.6941012     4033.917     5996.926     5879.513     82.03055     163.6712       327.31      1.620     4.11     923.3663     57.68223     563.5443        25     1.430     0.928  69.59   0
       610    735.4451     23.4988 307.6381161  +6.6879165     1847.701     2730.466     2530.668     82.03055     163.6062     327.4726      1.672     4.05     927.3901     57.68223     273.4263        16     1.328     0.793  72.08   0
       611    471.5132     23.4801 307.7477792  +6.6790745     1623.959     2785.208     2860.545     81.77055     163.9312      327.375      1.778     4.33     932.5425     57.68223     220.4335        18     1.459     0.888  60.16   0
       612    999.3542     20.9761 307.5285442  +6.6977825     2002.449      3023.89     2403.409     81.64024     163.6712     327.1147      1.556     4.26     917.2388     57.68223     280.6031        15     1.268     0.813  67.19   0
       613    742.3832   1020.5502 307.6017344  +6.2765319     1120.385     1528.963     2036.196     81.50971     163.7363     292.6531      1.684     4.79     965.3228     57.68223     177.3217        11     1.426     0.566  70.27  16
       614    373.1243   1018.7191 307.7550981  +6.2649108     1830.793     2931.664     3225.105     82.28973     163.9312     313.3159      1.664     4.54     971.6077     57.68223     227.0617        17     1.404     0.791  69.10  16
       615    983.3636   1015.8845 307.5018413  +6.2865113     643.6155     1148.878     1665.647     82.03055     163.6712     327.2123      1.884     5.50     957.5927     57.68223      92.9762         8     1.383     0.616  49.52  16
       616    711.2292   1014.8666 307.6148595  +6.2778357     645.7842     1027.924      1415.46     81.77055     163.6712     327.2123      1.618     4.95     965.3284     57.68223     105.6644         6     1.142     0.607  73.63   0
       617    760.1168   1008.3233 307.5947823  +6.2821729     8295.604     12632.16     12996.44     82.16024     163.9962      327.375      1.614     3.72     964.5741     57.68223     1131.522        36     1.513     1.053  64.96   0
       618    555.3719   1008.8055 307.6797702  +6.2751177     4465.433     6806.954     6739.094     81.50971      163.476     327.0496      1.661     4.19     968.8243     57.68223     611.7396        29     1.547     0.947  62.88   3
       619    552.7335   1001.0760 307.6811256  +6.2782202      8741.44      13274.5     14073.22     82.16024     163.7363     327.2123      1.633     3.80     968.6423     57.68223     1332.062        37     1.565     1.007  71.60   3
       620    525.6540   1010.1216 307.6920638  +6.2735781      1176.02     1429.216     1508.987     82.16024     163.6712     327.2449      1.346     3.49      969.871     57.68223     158.6188        12     1.027     0.784  46.01   0
       621    305.8580   1007.4655 307.7834031  +6.2672971     15268.81     23529.07      25814.2     82.16024     163.6062     327.2774      1.727     4.06     972.0992     57.68223     2304.473        58     1.720     1.433 -65.70   0
       622    821.3053   1007.8006 307.5693958  +6.2844350     1243.345     1985.784     2165.238     81.50971     163.2805     326.8542      1.723     4.35     963.0761     57.68223     205.3455        14     1.444     0.718  66.73   0
       623    429.9590   1007.9786 307.7318647  +6.2712527     1031.589     1211.048     1022.708     81.64024      163.476     327.0496      1.443     4.92     970.8729     57.68223     170.5632        12     1.205     0.682  77.68   0
       624      2.1766   1008.1884 307.9094490  +6.2567797     734.4999     1068.447     772.3241     80.05995     142.2309     260.1411      1.626     4.82     974.5313     57.68223     121.2346         8     1.204     0.546  77.37  24
       625    131.9914   1007.8826 307.8555689  +6.2612779     532.6858     707.2077     921.6569     81.64024     163.2805     327.0822      1.343     4.60     973.0004     57.68223     81.04651         7     1.080     0.555  59.65   0
       626    276.7787   1005.0596 307.7955565  +6.2673131     888.1196     1461.158     751.0504     81.64024     163.6062     327.1473      1.588     5.14     972.1793     57.68223     137.7465        10     1.518     0.493  60.16   0
       627    921.4057   1001.8408 307.5280358  +6.2902404     9048.747     13868.87     14834.81     81.24805     163.3457     326.9519      1.639     4.00     959.4341     57.68223      1134.35        35     1.548     1.021  64.10   0
       628    895.0250    997.9344 307.5391196  +6.2909719     12672.01     19999.28     20671.75     81.64024     163.6712     327.1147      1.654     3.89     960.2365     57.68223     1755.709        47     1.548     1.176  62.27   0
       629   1016.6870    997.4526 307.4886232  +6.2952329     5066.073     7714.048     7523.377     82.03055     163.5411     326.9845      1.664     4.01     956.1862     57.68223     641.6847        29     1.487     0.985  70.87  16
       630    607.8253    998.3695 307.6583441  +6.2811838     1383.986     2121.442     1897.864     81.50971      163.476     327.0822      1.565     3.80     966.2217     57.68223     250.7737        15     1.316     0.728  75.22   0
