#   1 NUMBER                 Running object number                                     
#   2 X_IMAGE                Object position along x                                    [pixel]
#   3 Y_IMAGE                Object position along y                                    [pixel]
#   4 ALPHA_J2000            Right ascension of barycenter (J2000)                      [deg]
#   5 DELTA_J2000            Declination of barycenter (J2000)                          [deg]
#   6 FLUX_APER              Flux vector within fixed circular aperture(s)              [count]
#   9 FLUXERR_APER           RMS error vector for aperture flux(es)                     [count]
#  12 FLUX_RADIUS            Fraction-of-light radii                                    [pixel]
#  13 FWHM_IMAGE             FWHM assuming a gaussian core                              [pixel]
#  14 BACKGROUND             Background at centroid position                            [count]
#  15 THRESHOLD              Detection threshold above background                       [count]
#  16 FLUX_MAX               Peak flux above background                                 [count]
#  17 ISOAREA_IMAGE          Isophotal area above Analysis threshold                    [pixel**2]
#  18 A_IMAGE                Profile RMS along major axis                               [pixel]
#  19 B_IMAGE                Profile RMS along minor axis                               [pixel]
#  20 THETA_IMAGE            Position angle (CCW/x)                                     [deg]
#  21 FLAGS                  Extraction flags                                          
         1    993.0069     17.8742 307.5284941  +6.6976544     2077.947     3359.662     3861.494     77.42989     154.7979     310.2448      1.832     3.68     811.3466     54.70745     326.2349        22     1.347     1.078  79.70   0
         2    712.5922     14.3261 307.6451315  +6.6897525     7939.283     11186.43     11202.44     77.42989     154.7979     310.2448      1.495     3.08     815.9013     54.70745     1389.037        31     1.375     0.966  52.20   0
         3    632.7377     13.4596 307.6783412  +6.6874378     4025.062     5805.944     5884.681     77.80007     155.1687     310.3991      1.539     3.38     816.4904     54.70745     661.4429        26     1.374     0.915  57.08   0
         4    334.9156     12.4944 307.8021198  +6.6778498     957.0463     1537.159     2156.655     77.67687     155.6001     310.4916      1.602     3.88     822.9474     54.70745     173.3601        11     1.117     0.809  38.50   2
         5    432.9332      9.7627 307.7614857  +6.6822676     6663.166     9748.951     9833.521     77.67687     155.1687     310.4608      1.533     3.17     818.6752     54.70745     1014.437        31     1.429     0.994  47.03   0
         6     33.9258      9.3257 307.9272831  +6.6690339     9017.351     13137.38     13927.25     78.04588      155.477     310.4608      1.532     3.20     824.1412     54.70745     1322.329        34     1.394     1.034  50.70  16
         7    679.6181      8.3752 307.6590325  +6.6911059     989.8488     1177.651     1040.481     77.55347     155.1069     310.0904      1.207     2.86     815.6934     54.70745      173.194         9     0.973     0.598 -89.57   0
         8    508.3827      6.7792 307.7302365  +6.6860295     1000.006     1456.262     1229.751     77.55347     155.0452     301.1594      1.404     4.14     817.7512     54.70745     183.2019         9     1.153     0.544  58.67  16
         9    329.5368      4.7083 307.8046170  +6.6808833     13721.57     20101.33     21797.59     77.80007     155.4154     280.8192      1.583     3.15     822.8937     54.70745     2249.047        41     1.455     1.089  57.06  24
        10    424.8905      5.4671 307.7649720  +6.6837710     955.2523     1643.313     2043.105     77.92307     155.3537      289.286      1.939     5.37     818.7926     54.70745     154.8962        15     1.428     0.852  23.01  16
        11    102.9555      4.8898 307.8987527  +6.6731896     2769.435     4084.823     4431.087     77.80007     155.1069     283.0274      1.517     3.61     823.7874     54.70745     465.9916        21     1.320     0.879  48.18  16
        12     94.3028      3.7570 307.9023860  +6.6733659     1547.316     2268.549     2577.504     77.80007     151.4201     269.2229      1.558     4.15     823.8497     54.70745     258.4213        17     1.450     0.741  57.40  24
        13    798.0275      3.2468 307.6100031  +6.6971829     895.4914      1125.85     963.4619     77.42989     147.3165     262.2308      1.396     3.97     815.6096     54.70745     138.1055         9     1.068     0.585  62.93  16
        14    395.6740      2.7155 307.7772041  +6.6839264     2254.242     3403.833     3330.653     77.92307     142.0204     254.8592      1.555     3.81      820.182     54.70745     379.7953        20     1.307     0.881  56.69  24
        15    464.0071      2.6114 307.7488150  +6.6862620     539.8049     809.9694     531.8405     77.42989     140.4608     253.2003      1.575     4.60     818.2029     54.70745     91.07526         5     1.049     0.573  74.58  24
        16    657.4550      1.1044 307.6684857  +6.6933656     741.4395      1041.31     1020.878     64.47128     119.7781     229.9275      1.077     2.62     815.8088     54.70745     221.4801         5     0.922     0.299   4.30  24
        17    815.0932   1004.3392 307.5693743  +6.2844764     1095.349     1627.903      2063.26     77.67687     155.2304     310.4299      1.702     5.22     845.9108     54.70745     161.2991        10     1.179     0.654  35.95   0
        18    960.8254   1020.1695 307.5083380  +6.2828043     5888.432     10346.73     10697.18      77.3061     155.0452     282.1462      1.853     4.29     845.0379     54.70745     649.4237        39     1.592     1.226  49.89  24
        19    270.8370   1002.0630 307.7954137  +6.2671924     1015.439     1703.581     2203.801     77.80007     155.2921     310.3682      1.665     4.25      849.334     54.70745     149.2001        10     1.145     0.719  66.83   0
        20    915.3244    998.7322 307.5279465  +6.2901366     8070.972     13601.71     14527.95     77.92307     155.3537     310.3682      1.813     3.93     845.2919     54.70745       951.98        42     1.560     1.248  48.24   0
        21    888.9158    994.9623 307.5390373  +6.2908118     11491.49     19816.88     21281.23     77.80007     155.1687     310.3065      1.852     4.01     845.3236     54.70745     1416.635        52     1.623     1.375  43.17   0
        22     45.3308    997.5342 307.8891862  +6.2614829     462.8567     501.2071     107.2991     77.80007     155.2921     310.3682      1.127     4.16     846.6833     54.70745      85.0802         5     0.985     0.502  42.30   0
        23   1010.6340    994.3558 307.4885202  +6.2951215     4343.883     7709.507     8215.256     77.42989     155.2304     310.2448      1.876     4.41     842.7238     54.70745     511.8959        37     1.550     1.277  50.26   0
        24    601.7316    995.3178 307.6582617  +6.2810681      1337.52     2098.024     1816.942     78.04588      155.477     310.3991      1.704     4.01     850.7999     54.70745     209.1434        19     1.376     0.970  49.28   0
        25    642.4902    993.2757 307.6414078  +6.2832748     1554.833      2228.89     1651.438     77.80007      155.477     310.3991      1.538     4.00     849.8051     54.70745     191.2764        17     1.260     0.878  51.99   0
        26    533.3926    993.8094 307.6866855  +6.2794031     4113.608     6593.274     7097.075      77.3061     155.0452     310.2448      1.763     3.76      850.676     54.70745     624.9504        33     1.671     1.113  23.45   0
        27     67.7034    992.5685 307.8800657  +6.2642854      874.184     1613.294     1332.678     77.92307     155.0452     310.4608      1.956     6.14     846.4581     54.70745     103.0076        11     1.151     1.004 -17.50   0
        28    486.0544    990.1404 307.7064625  +6.2793321     2374.849     3321.616     3307.995     77.92307     155.1687     310.3374      1.431     2.93     850.2536     54.70745     375.9713        19     1.177     0.854  52.51   0
        29    920.6825    982.4601 307.5262659  +6.2970330     41571.94     67663.75     72078.04     77.92307     155.2921     310.3991      1.789     3.84     844.8684     54.70745      5066.21        75     1.703     1.307  50.48   0
        30    325.0464    983.0324 307.7735480  +6.2768680      494.463     624.9117     317.6994     77.55347     155.2304     310.2756      0.950     2.22     849.7546     54.70745     112.8167         5     0.608     0.577  -2.30   0
        31    227.9560    980.7330 307.8139343  +6.2745578     1699.702     2814.018     2891.561     77.80007     155.1687     310.3991      1.740     4.08     847.8936     54.70745     241.9934        20     1.391     0.982  50.28   0
        32    626.7598    978.3823 307.6484384  +6.2888969     987.7444      1588.57     922.8752     77.42989     155.0452     310.1521      1.485     3.60     849.6844     54.70745     155.3477         8     0.937     0.579  85.95   0
        33    818.5046    976.1884 307.5689002  +6.2962118     2486.891     3837.737     4441.281     77.42989     154.9216     310.1213      1.663     3.53     845.4898     54.70745     363.9533        22     1.297     0.995  53.57   0
        34    766.8403    974.1694 307.5904188  +6.2953195     6616.118     10718.13      11928.7      77.3061     154.9834     310.2139      1.718     3.58     846.7654     54.70745     853.4312        40     1.517     1.245  67.33   0
        35    553.4674    973.2377 307.6790412  +6.2885677       914.49     1418.511     1366.051     77.67687     155.2304     310.4608      1.585     5.18     849.9663     54.70745     131.5204        12     1.138     0.853   9.59   0
        36    236.2723    973.0219 307.8107413  +6.2780204     1419.675     2089.846     2176.638     77.42989     155.0452     310.3374      1.553     3.47     847.8694     54.70745     226.9829        13     1.137     0.748  58.11   0
        37    200.3529    972.9855 307.8256551  +6.2768288     903.5265     1295.979     1285.356     77.18211     155.0452     310.1213      1.598     4.27     847.3589     54.70745     147.7771        11     0.972     0.878 -62.81   0
        38    954.9984    969.2336 307.5124600  +6.3036379     6078.006     10338.84     10379.73     77.05792     155.0452     310.1213      1.799     3.98     843.5701     54.70745     763.4235        40     1.589     1.224  53.09   0
        39     61.0810    971.1606 307.8835370  +6.2729000     2790.636     4309.047     4489.235     77.80007     155.2921     310.3065      1.635     3.48     845.5808     54.70745     415.1516        24     1.366     1.005  52.10   0
        40    637.3398    963.5251 307.6445438  +6.2953843     724.4641     963.7463      789.621     78.04588     155.2304     310.3374      1.465     5.86      848.962     54.70745     86.93439        10     1.151     0.839  66.90   0
        41    928.6302    960.7090 307.5236933  +6.3062777     2098.295     3244.689     3535.839     77.92307     154.9834     310.3374      1.691     4.02     844.3219     54.70745     269.5896        19     1.277     0.940  48.41   0
        42    788.2408    957.3086 307.5820979  +6.3029951     1404.714     1981.383     1700.655     77.80007     155.1687     310.4299      1.494     4.00      845.821     54.70745     176.4929        15     1.199     0.841  47.90   0
        43    649.5150    956.8265 307.6397134  +6.2985569      4842.52     7360.939     7262.096     77.92307     154.9834     310.2448      1.623     3.49     848.4554     54.70745      710.497        31     1.435     1.092  54.41   0
        44    261.6870    956.9761 307.8007300  +6.2854977     4440.685     6740.892     7005.501     77.80007     155.0452     310.2448      1.604     3.31     848.0906     54.70745     655.3945        27     1.341     1.012  50.13   0
        45    999.2980    956.2003 307.4945019  +6.3104955     688.7755     1217.897     1302.813      77.3061     154.8598     309.9977      1.942     4.85     841.4034     54.70745     144.5716         9     1.430     0.768  36.24   0
        46    471.4955    955.0574 307.7136855  +6.2933273     1061.792     1647.724     1627.409     77.67687     155.2304     310.5225      1.602     4.96     849.4462     54.70745     147.7471        12     1.348     0.735  57.28   0
        47     30.3208    954.3159 307.8968756  +6.2788186     2276.856     3633.143     3765.868     77.80007     155.5386     310.4608      1.721     3.78     844.5135     54.70745     325.9427        23     1.407     0.984  44.86   0
        48    881.0427    953.3392 307.5436986  +6.3077324     816.2297     1241.979     842.6202     77.80007     155.2304     310.4916      1.655     5.28     844.4969     54.70745     95.17596        11     1.078     0.729  74.82   0
        49    973.8282    952.2862 307.5052081  +6.3112622     471.4703     909.7124     305.5506     77.92307     154.9216     310.2139      1.749     3.61      842.256     54.70745      90.7832         5     1.006     0.373  86.76   0
        50   1005.1906    949.2301 307.4922881  +6.3135695     633.2834       1369.6     1237.785      77.3061     155.0452      310.183      2.244     5.75     840.8438     54.70745     116.1729         9     1.299     0.837  69.74   0
        51    297.5529    950.2880 307.7860643  +6.2894627     823.5038     863.3273     895.7419     77.80007     155.1069     310.4299      1.326     3.73     848.7194     54.70745     122.7032         9     0.986     0.663  59.71   0
        52    952.6287    949.9975 307.5140870  +6.3115001     752.8125     1169.736     1664.217      77.3061     154.9834      310.183      1.627     3.09     843.0583     54.70745     108.9165         7     0.724     0.674 -86.66   0
        53    574.1791    949.2104 307.6712482  +6.2991801     1714.309     2372.867     2043.472     77.42989     154.9216     310.2139      1.490     3.95     849.0339     54.70745     278.7188        15     1.250     0.785  49.45   0
        54    613.2214    945.6479 307.6551573  +6.3019575     1309.119     1959.093     1711.214     77.42989     155.2304     310.2448      1.509     3.92     848.7984     54.70745     196.5201        12     1.127     0.747  77.99   0
        55     62.7829    946.0005 307.8836790  +6.2833435     709.0425     1093.563     1518.541     77.42989     154.7979     310.0595      1.792     4.18     844.6141     54.70745     96.61084         8     0.828     0.767 -80.26   0
        56    293.3384    943.6002 307.7880391  +6.2920821     1764.199     2534.946     2145.302     77.05792     154.9834     310.0286      1.606     3.77     848.5209     54.70745     280.3447        19     1.216     1.038  61.48   0
        57    760.4882    939.5847 307.5942146  +6.3093848     933.6228     1493.508     1530.142     77.55347     154.9834     310.2756      1.677     3.50     846.3492     54.70745     161.4211         9     0.954     0.775  39.82   0
        58    897.7701    936.0845 307.5373304  +6.3154138     6907.227     10943.07     10703.71     77.80007     155.0452     310.2448      1.667     3.62     843.9975     54.70745     851.8423        38     1.514     1.159  52.05   0
        59    433.6364    933.1829 307.7301392  +6.3010887     2087.386     3097.499     3204.006      77.3061     155.0452     310.1521      1.631     3.11      849.112     54.70745     337.4341        19     1.283     0.881  58.69   0
        60    335.3216    931.5646 307.7710132  +6.2984595     10122.39     14814.97     15466.21     77.67687     155.2921     310.3682      1.603     3.20     848.8951     54.70745     1604.488        40     1.469     1.103  50.56   0
        61    106.6140    934.2052 307.8658794  +6.2896870     421.9912      621.515     500.1997     77.42989     154.9834     310.2448      1.690     3.10     845.0042     54.70745     88.88153         5     0.729     0.454 -72.10   0
        62    255.4447    930.5697 307.8042105  +6.2961890     7451.563     10970.21     11676.78     77.42989     155.2304     310.2139      1.630     3.23      847.298     54.70745      1236.14        34     1.431     1.083  45.21   0
        63    173.8468    928.7571 307.8381496  +6.2941962     538.4686     652.0727     317.3361     77.80007     155.2304     310.3065      1.374     5.32     846.1449     54.70745     81.36902         7     1.018     0.785 -68.99   0
        64    583.2164    924.9745 307.6683092  +6.3094878     1195.904     1609.411     1667.368     77.55347     155.1069     310.3065      1.413     3.71     848.1825     54.70745     177.8757        11     1.003     0.772  36.13   0
        65    767.3678    924.7856 307.5918538  +6.3157242     811.2296     1273.245     1969.385     77.42989     154.9834     310.2756      1.687     5.17     845.8701     54.70745     107.1272        10     1.022     0.739   9.39   0
        66    913.2941    921.2223 307.5313816  +6.3220674     1186.024     1800.698     1666.933     77.80007     155.0452     310.2139      1.530     5.69     843.5577     54.70745     173.4014        13     1.248     0.783  74.95   0
        67    869.3570    919.8909 307.5496698  +6.3211508     843.2081     1568.995     1644.722     77.80007     155.2304     310.4608      1.792     6.37      844.049     54.70745      109.364        13     1.340     1.040  67.84   0
        68    145.6252    920.6550 307.8501396  +6.2965922     609.0254     940.8319     1160.995     77.42989     155.2304      310.183      1.864     3.83     845.5545     54.70745      90.9389         5     0.966     0.436  75.94   0
        69    216.7969    920.4826 307.8205962  +6.2990551     550.9512     796.9654      1041.02     77.18211     154.8598     310.0595      1.310     2.29      846.389     54.70745     119.5896         5     0.710     0.462  20.55   0
        70    980.2789    916.5456 307.5037242  +6.3262322     812.4144      1129.75       1793.6     77.92307     155.2304     310.3991      1.897     3.90     840.9572     54.70745     107.5521         8     1.074     0.544 -71.58   0
        71    776.9555    916.8178 307.5881397  +6.3193338     446.2376     623.2607     741.7529     77.42989     155.1069     310.1213      1.410     4.29     845.4517     54.70745     115.4866         6     1.443     0.363  32.96   0
        72    749.5447    914.2601 307.5996068  +6.3194739     1812.564     2396.445     2488.557     77.92307     155.2304     310.3682      1.499     3.33     846.0256     54.70745     249.2577        16     1.070     0.966  25.27   0
        73    573.3337    914.7982 307.6727540  +6.3133580     749.9034     899.2379     1085.862     77.18211     154.8598     310.1521      1.191     2.65      848.026     54.70745     133.5581         5     0.840     0.468 -85.40   0
        74    842.3276    914.2358 307.5610823  +6.3225831     611.2086     851.7462     903.2964     77.67687     155.2304     310.3682      1.483     3.45     844.3331     54.70745     107.1603         5     0.779     0.441  75.46   0
        75    825.5537    911.9592 307.5681234  +6.3229628     501.2923     997.8402     1485.049     77.67687     155.2304     310.2139      2.115     4.16     844.4981     54.70745     81.89746         5     1.524     0.324  62.37   0
        76    613.7706    910.4423 307.6561103  +6.3165096     804.0435     1097.606     708.6818     77.42989     155.1687     310.2448      1.510     4.94     847.8299     54.70745     115.2104         9     1.174     0.588  83.93   0
        77      1.0000    911.0037 307.9105101  +6.2957112     419.5454      629.765      589.915     62.35689     117.6808     227.7933      1.243     3.58     842.4926     54.70745     116.9158         5     1.277     0.289  90.00  24
        78    534.8981    909.8404 307.6888792  +6.3141178     1209.585     1710.451     1388.923     77.80007     155.1069     310.5842      1.388     4.07     848.0582     54.70745     180.2443        14     1.363     0.699  64.73   0
        79    981.2019    909.5801 307.5035738  +6.3291386      1160.78     1792.331     2045.321     77.42989     154.8598     310.0904      1.762     4.23     840.8154     54.70745     160.2365        14     1.178     0.841  37.03   0
        80    624.8327    909.9767 307.6515328  +6.3170719     639.4556     892.1561     828.8514      77.3061     155.0452      310.183      1.590     3.79      847.689     54.70745     93.25909         5     0.812     0.509 -28.71   0
        81    668.4409    907.5817 307.6335064  +6.3195195     2626.135     3997.278     3954.676     77.42989     155.0452     310.1521      1.590     3.78     847.1212     54.70745      380.569        22     1.500     0.864  43.21   0
        82    958.5278    905.1282 307.5131375  +6.3302204     695.4262     899.6864     685.4666     78.04588     155.3537     310.3682      1.506     5.42     841.7059     54.70745     90.98328        10     1.160     0.714  72.09   0
        83     64.8650    903.7255 307.8842404  +6.3008650     2985.574     4600.844     4884.511     77.92307     155.2304     310.3682      1.674     3.24     843.5359     54.70745     418.8334        27     1.375     1.101  49.21   0
        84    829.0384    903.8807 307.5669469  +6.3264143     809.7731     1431.965     1364.319     77.80007     155.2921     310.3065      1.916     5.47     844.3628     54.70745      98.8786        10     0.979     0.863  42.55   0
        85    565.4489    904.1815 307.6763842  +6.3174769     468.6153     728.6062     331.6971      77.3061     155.2921     310.1521      1.548     3.00     847.8441     54.70745     90.54803         5     0.727     0.465  71.65   0
        86    208.4064    902.5479 307.8246838  +6.3061769     2381.473     3296.734     3354.782      77.3061     155.0452     310.0286      1.526     3.11     846.2048     54.70745     359.9251        18     1.127     0.953  72.18   0
        87     82.2326    903.0725 307.8770517  +6.3017188      2015.12     3099.858     3341.285     77.67687     155.2304     310.3991      1.625     3.29     843.8111     54.70745     350.4886        19     1.199     0.992  56.75   0
        88    946.0618    902.4334 307.5184039  +6.3309171     791.7312     1235.795     1764.517     77.55347     155.2921     310.3065      1.824     3.45     842.2134     54.70745     143.7403         7     0.906     0.621  59.39   0
        89    964.2272    899.6274 307.5109549  +6.3326813     559.9489     795.7938     1038.397      77.3061     155.0452     310.2139      1.700     5.11     841.4047     54.70745     98.42682         8     1.296     0.570  51.12   0
        90    347.1335    898.4351 307.7672233  +6.3125322     944.1277     1386.674     2077.749     77.67687     155.2921     310.4299      1.674     2.63     848.5236     54.70745      171.858         8     0.848     0.625  56.72   0
        91    242.5022    898.8947 307.8106505  +6.3088303     905.4371     1254.402     1304.892     77.80007     155.7847     310.2139      1.516     3.53     846.9166     54.70745     159.6867         8     0.992     0.589  69.78   0
        92    663.0014    896.6342 307.6361320  +6.3238569      7217.86     10440.86     11173.34     76.93353     155.0452     310.1521      1.526     3.13     847.0811     54.70745      1093.09        29     1.359     0.983  48.10   0
        93    800.5612    897.3168 307.5789911  +6.3281730     732.1655     906.0656     568.3616     77.80007     155.1687     310.3374      1.431     4.04     844.5253     54.70745     99.08893         7     0.862     0.658  16.28   0
        94    900.6520    893.0145 307.5375745  +6.3332906     2875.562     4724.411     5037.548     77.18211     155.2304     310.1213      1.751     3.79     843.2607     54.70745     382.7124        25     1.355     1.111  61.46   0
        95    452.3753    893.9328 307.7236777  +6.3179200     419.7022     457.4192     269.9549     77.42989     155.1069     310.2756      1.274     3.45     848.3046     54.70745     74.34747         5     1.441     0.238  72.74   0
        96     22.9081    894.6392 307.9019666  +6.3032040     1212.381     1753.405     1797.346     77.92307     155.1687     310.4299      1.521     3.00     842.6922     54.70745     190.4848        12     0.979     0.803  31.47   0
        97    775.4234    893.9650 307.5895412  +6.3287170     625.5773     1019.031       1196.4      77.3061     154.9834     310.1521      1.785     4.70     845.0126     54.70745     96.46002         5     1.009     0.620  26.26   0
        98     35.5975    892.9717 307.8967545  +6.3043194     1087.392     1715.076     1257.733      77.3061     154.9834      310.183      1.747     4.08     842.8743     54.70745     168.6212        13     1.065     0.914  40.65   0
        99    345.9707    889.8139 307.7679961  +6.3160522     17311.79     25534.67     26854.58     77.42989     155.0452     310.2756      1.527     3.09     848.3899     54.70745     2553.129        45     1.453     1.115  53.15   0
       100     80.7049    890.8500 307.8780982  +6.3067129     1233.917     1804.206     1904.581     77.67687     155.1069     310.5225      1.566     3.72     843.5519     54.70745     196.4861        15     1.237     0.805  54.64   0
       101    216.9087    889.1953 307.8216035  +6.3119746     1317.871     1787.263     1865.583     77.42989     154.9216     310.1213      1.386     3.73     846.3033     54.70745     211.6754        10     1.042     0.678  41.96   0
       102    396.6207    888.5588 307.7470081  +6.3182693     739.8378     961.4599     1124.213     77.42989     155.0452      310.183      1.364     3.23     848.3156     54.70745     126.1993         8     0.892     0.684 -44.24   0
       103    109.2836    880.5645 307.8665795  +6.3119201     1819.283     2664.186      2692.05     77.80007     155.2304     310.3374      1.595     3.84     843.8472     54.70745     289.0482        17     1.315     0.857  49.08   0
       104    675.5969    881.1840 307.6314201  +6.3306564     623.7749     1063.858      913.095     77.42989     154.8598     310.2139      1.736     4.21     846.7763     54.70745     110.9701         5     1.040     0.637  25.95   0
       105    423.5308    880.5422 307.7361043  +6.3224810     1099.233     1532.273     806.1423     77.92307     155.1687     310.3374      1.485     3.42     848.0954     54.70745     164.6429        13     1.014     0.897  49.06   0
       106    504.2849    877.4321 307.7026785  +6.3264712     858.7132     1206.311     1335.792     77.80007     155.0452     310.3065      1.648     5.71      847.754     54.70745     126.8973        10     1.273     0.722  43.64   0
       107    676.9783    876.4614 307.6310048  +6.3326523      898.484     1331.451     1463.134     77.42989     155.2304     310.2756      1.522     3.25     846.7086     54.70745      179.111         8     0.867     0.815  20.68   0
       108    890.9247    874.5498 307.5422313  +6.3405888     1974.656     2905.563     3185.833     77.80007     155.2921     310.3682      1.642     3.58     843.2142     54.70745     270.3235        16     1.138     0.934  36.68   0
       109    825.0145    873.5704 307.5696324  +6.3387929     3218.945     4659.344     5109.847     77.42989     154.9834     310.3065      1.559     3.41     844.0053     54.70745     495.6433        22     1.326     0.972  55.83   0
       110    861.7203    874.1941 307.5543700  +6.3397609     2054.422     2912.051      3128.06     77.42989     154.7979     310.1521      1.556     3.36     843.8251     54.70745      285.839        19     1.277     0.907  44.60   0
       111     92.7494    873.9393 307.8736677  +6.3140989      2665.77     3946.615     3984.404     77.80007     155.1687     310.3682      1.538     3.00     843.3712     54.70745     363.6661        21     1.204     0.980  52.89   0
       112    561.1089    865.0631 307.6794992  +6.3334805     355478.1     515692.8     542436.2     77.80007     155.3537     310.4608      1.534     3.35     847.1595     54.70745     55645.75       191     1.686     1.333  55.71   4
       113    341.1777    871.3700 307.7706066  +6.3235053     805.4808      1394.11      1418.76     77.18211     154.9834     310.2139      1.802     5.26     848.0837     54.70745     155.8455        11     1.209     1.080 -82.49   0
       114    455.7196    871.3325 307.7230485  +6.3273620     638.0051     973.9124     1774.727     77.92307      155.477     310.3682      1.653     4.51     847.8771     54.70745     88.76215         7     1.076     0.537  26.27   0
       115    405.3537    867.6321 307.7440856  +6.3272011     8331.104     12097.47     12170.81     77.55347     155.2304     310.2756      1.574     3.18     847.8715     54.70745     1363.892        33     1.376     1.042  47.57   0
       116    648.7302    867.8903 307.6430216  +6.3352458     1204.593     1295.421     1475.705     77.80007     155.4154     310.3682      1.162     2.24     846.9135     54.70745     208.7892        10     0.816     0.716   2.40   0
       117    348.5434    865.9872 307.7677293  +6.3259746     13335.53     19624.51     20620.65     77.18211     155.1687     310.0595      1.547     3.14     848.0128     54.70745     2170.103        42     1.425     1.110  46.69   0
       118    666.8451    862.3843 307.6356844  +6.3381247     3666.553     5309.913     5302.128      77.3061     155.0452     310.1213      1.486     3.36     846.6277     54.70745     535.4842        24     1.314     0.956  48.15   0
       119    899.4440    861.2908 307.5391373  +6.3463468      5330.01     8085.356     8881.877     77.80007     155.1687     310.4916      1.696     3.70     842.7767     54.70745     728.0784        29     1.403     1.028  47.77   0
       120    738.5269    858.8410 307.6060385  +6.3419842     722.5407     1016.421     1032.172     77.67687     155.2921     310.3991      1.360     4.84     844.9003     54.70745     111.3908         8     1.063     0.626  48.65   0
       121    641.7900    856.4333 307.6462877  +6.3397434     3620.023     5343.424     6115.345      77.3061     155.0452     310.2139      1.597     3.42     846.5248     54.70745     532.1072        25     1.416     0.906  60.21   0
       122    632.1419    855.4565 307.6503266  +6.3398238     1058.561     1712.295     2339.882     77.92307     155.2304     310.3991      1.666     4.32     846.5388     54.70745      162.279        12     1.166     0.848  60.52   0
       123    830.1962    855.2787 307.5680931  +6.3465173     1820.426     2658.844     3000.099     77.42989      154.736      310.183      1.544     3.86     843.6918     54.70745     226.3861        14     1.137     0.841  50.04   0
       124    957.1164    854.3537 307.5154212  +6.3511347     761.9853     1109.484     1080.134     77.80007     155.2304     310.3682      1.430     4.26     840.7787     54.70745     119.1416         7     1.039     0.505  44.89   0
       125    634.5020    850.7872 307.6495033  +6.3418304     2289.476     3406.322     3792.564     77.55347     154.9834     310.1521      1.560     2.86     846.3384     54.70745     391.7976        17     1.144     0.798  57.62   0
       126    917.6887    849.3917 307.5319594  +6.3518680     3215.414     6058.609     5988.146     77.42989     154.9216     310.1213      1.960     8.47     841.9802     54.70745     855.8956        24     1.609     1.246 -24.66   0
       127    328.2738    849.6926 307.7766937  +6.3320212     1105.272     1505.616     1350.258     77.80007     155.3537     310.3991      1.343     2.98      847.618     54.70745     184.8988        10     0.956     0.703  57.58   0
       128    376.2870    844.7547 307.7569238  +6.3356705     2856.656     4061.483      4053.31     77.80007     155.1069     310.3682      1.470     2.99     847.3164     54.70745     469.5713        20     1.438     0.807  62.91   0
       129    856.7525    839.7776 307.5575846  +6.3538032     434.4365     650.1699     525.6097     77.42989     155.2304     310.2448      1.202     3.89     843.1829     54.70745     73.27136         5     0.954     0.454  44.46   0
       130    797.6888    838.4164 307.5821562  +6.3523928     441.2592     845.4437     940.6853     77.55347     154.9834     310.2448      2.004     4.90     843.7064     54.70745     84.22687         6     1.508     0.451  85.77   0
       131    512.6005    834.5845 307.7006646  +6.3444382     3260.094     4706.539     4862.319     77.42989     154.9216     310.1213      1.513     2.92      845.939     54.70745     570.4473        24     1.232     1.017  54.52   0
       132    856.8918    833.6026 307.5577334  +6.3563571     1099.656     1338.156     1509.877      77.3061     154.9216     310.1213      1.273     2.90     843.0393     54.70745     166.1696         9     0.864     0.686 -71.12   0
       133    577.8788    832.3884 307.6736325  +6.3475308     757.6929     967.7382     1044.727     77.42989     154.9216     310.2139      1.427     4.61     845.5018     54.70745     123.9125         8     1.108     0.545  54.15   0
       134    559.4909    830.7975 307.6813212  +6.3475720     6362.565     9114.361     10037.97     77.18211     154.9216     310.1213      1.503     3.05     845.4156     54.70745     1078.556        29     1.364     0.961  44.54   0
       135    566.2693    830.1217 307.6785293  +6.3480779     1375.709     2055.615     2650.718     78.04588      155.477     310.3374      1.565     4.14      845.378     54.70745     224.6802        12     1.175     0.744  34.53   0
       136    477.2946    829.7125 307.7154884  +6.3452666     1745.862     2439.766     2438.688     77.80007     155.6001     310.4299      1.477     3.41     846.0607     54.70745     284.7437        13     1.121     0.721  64.84   0
       137    270.6758    831.0461 307.8012369  +6.3377852     722.6705     1145.329     1101.154     77.67687     155.2921     310.3991      1.694     3.35     846.4956     54.70745     118.1605         7     0.959     0.648  20.64   0
       138    894.9866    828.8781 307.5420726  +6.3595791     1440.196     2126.138     2301.056     77.42989     154.9834      310.183      1.532     3.23      842.058     54.70745     215.0931        15     1.125     0.826  62.08   0
       139    118.7145    828.5871 307.8644162  +6.3336940     1418.439     1704.046     1570.451     77.42989     155.1069     310.2139      1.300     2.93     843.0147     54.70745     199.7371        10     0.905     0.706 -83.84   0
       140    694.9952    827.5087 307.6251647  +6.3534637     851.2692     1025.465     1078.912     77.42989     154.9216     310.1213      1.288     3.64     844.9144     54.70745     115.0681         8     0.851     0.693 -45.38   0
       141    530.2164    824.7599 307.6936798  +6.3490841     20899.75     30343.45     31531.06     77.42989     155.1069      310.183      1.551     3.25     845.2427     54.70745     3465.312        50     1.464     1.128  46.43   0
       142    370.8885    825.9603 307.7597975  +6.3432480     709.0369      1042.07     1167.458     77.80007     155.1687     310.3991      1.537     4.81     846.7991     54.70745     103.1642         8     1.101     0.597  21.37   0
       143    943.6803    822.9681 307.5220500  +6.3636435     3961.947     5959.438     6396.917     77.67687     155.1687     310.3374      1.612     3.45      840.443     54.70745     531.5798        21     1.281     0.913  45.91   0
       144     64.1121    820.8340 307.8873490  +6.3350578     629.2732     1046.715     690.5869     77.80007     155.1687     310.3682      1.692     2.94     842.4283     54.70745     125.6633         6     0.894     0.452  55.58   0
       145    697.5736    816.7308 307.6244553  +6.3579993     575.5829     827.2076     571.9358     77.42989     155.1069     310.3065      1.464     3.45     844.5287     54.70745     79.32343         5     0.746     0.461  72.28   0
       146     40.4439    815.0417 307.8973716  +6.3366525     1672.967     2417.701     2303.232     77.55347     155.2304     310.2139      1.510     3.40     842.3104     54.70745      263.067        15     1.119     0.872  72.21   0
       147    322.7979    813.3918 307.7801888  +6.3468229     3469.358         4933     5005.164     77.18211     154.9216     310.1521      1.468     2.98     846.6931     54.70745     569.8518        23     1.297     0.892  53.02   0
       148    788.3849    809.3140 307.5869943  +6.3640963      58640.5     84246.96     88649.48     77.42989     154.9834     310.2756      1.569     3.17     843.4937     54.70745     9798.371        76     1.550     1.182  48.31   0
       149     22.5764    811.2784 307.9049173  +6.3376046      2285.03     3343.433     3033.779     77.42989     155.0452     310.3374      1.522     3.01     842.2607     54.70745     376.2162        19     1.190     0.898  63.90   0
       150    726.8212    810.9479 307.6125041  +6.3613645     709.1533     1101.485     1568.464      77.3061     155.2304      310.183      1.450     3.96     844.1843     54.70745     110.9452         6     0.934     0.480  56.53   0
       151    245.5629    806.9160 307.8124768  +6.3469031     5586.397     8687.336     11459.87     77.80007     155.1687     310.3065      1.925     3.05     844.5385     54.70745     900.1685        39     1.589     1.202  66.23   0
       152    913.6329    804.6095 307.5351415  +6.3702201     8816.362     13243.15     13760.09      77.3061     155.0452     310.2139      1.639     3.47     840.9553     54.70745     1309.635        35     1.432     1.089  53.07   0
       153    716.5360    803.8385 307.6170133  +6.3639556     23051.38     34768.97     38214.11     77.80007     155.1687     310.4299      1.601     3.07      844.066     54.70745     3585.076        50     1.601     1.091  52.76   3
       154    710.3007    800.4210 307.6197171  +6.3651580     94673.01     134438.9     141993.2     77.80007     155.0452     310.1521      1.551     3.12     843.9568     54.70745     16594.89        83     1.525     1.171  55.17   3
       155    431.2166    807.3996 307.7353714  +6.3529334     912.0848     1421.048      520.263     77.42989     154.7979     310.0595      1.501     3.16     845.4721     54.70745      148.678         8     0.891     0.627  20.68   0
       156    355.2067    801.2454 307.7671403  +6.3529247     21820.01     31550.21     33251.23      77.3061     155.0452     310.0286      1.542     3.16      846.302     54.70745     3715.262        51     1.463     1.133  51.87   0
       157    404.2565    801.3915 307.7467682  +6.3545097     1395.568     2056.718     2306.035     77.18211     155.1687     310.1213      1.618     3.31        845.6     54.70745     313.7046        14     1.208     0.789  62.36   0
       158    417.0455    799.1051 307.7415345  +6.3558824     23700.36     34076.72     35509.25     77.67687     155.1687     310.4916      1.503     3.10      845.308     54.70745     3772.271        44     1.422     1.062  49.71   0
       159    643.6326    800.5531 307.6473968  +6.3628738     872.3004      1130.33     1312.107     77.55347     155.2304     310.3065      1.633     3.85     844.0547     54.70745     137.1326         8     1.008     0.584  45.40   0
       160    954.1373    798.0361 307.5185413  +6.3742850      2211.38     3459.782      3843.44     77.80007     155.2304     310.3682      1.727     3.54     839.3747     54.70745     299.6982        20     1.283     0.955  63.76   0
       161    245.2966    785.7393 307.8133005  +6.3556362     770414.4      1741866      1929089     77.55347     155.2304     310.4608      2.255     4.88     843.8129     54.70745     63482.95       583     2.401     2.115  60.85   4
       162    910.5242    795.9937 307.5367207  +6.3736733     6861.874     10261.04     10402.58     77.42989      154.736     310.2139      1.593     3.30     840.7653     54.70745     1034.043        32     1.446     0.989  52.55   0
       163    883.1412    796.5356 307.5480737  +6.3725357     730.3806     1373.642     1312.854     77.92307     155.1687     310.3991      1.900     4.95     841.5339     54.70745     109.0753         7     1.148     0.604  36.54   0
       164    651.1256    795.0412 307.6444702  +6.3653999      6954.71     9802.692     9944.676     77.67687     155.2921     310.3991      1.475     3.17     843.8355     54.70745     1132.127        32     1.424     1.001  42.91   0
       165    985.4921    794.8050 307.5056288  +6.3766645     470.0884     704.6062     556.1224     77.42989     154.9216     310.1521      1.717     4.27     838.1078     54.70745      65.8053         6     1.365     0.381  75.72   0
       166    140.2499    794.7314 307.8566157  +6.3483941     599.1059     891.5255     1068.918     77.67687     155.1687     310.3682      1.560     4.34     842.5808     54.70745      100.316         5     0.739     0.725 -60.19   0
       167    439.8052    792.8712 307.7322933  +6.3592189     1804.085     2622.331     2144.201     77.42989     154.8598     310.2448      1.504     3.65     844.7601     54.70745     262.8959        18     1.250     0.977  54.58   0
       168    164.9557    792.1757 307.8464434  +6.3502797      854.751     1275.184     1061.927      77.3061     155.2304     310.2448      1.455     2.85     842.7363     54.70745     157.0856         7     0.731     0.645 -69.74   0
       169    879.3610    786.6418 307.5499746  +6.3764940     869.7467     1282.291      1504.39     77.55347     155.2304     310.2448      1.561     5.03      841.365     54.70745     128.6425         9     1.116     0.671  -4.80   0
       170    686.2699    785.1117 307.6302093  +6.3706746     2721.079     3943.251     3925.039     77.80007      155.477     310.3682      1.517     3.25     843.3229     54.70745     460.5536        20     1.231     0.977  55.81   0
       171    420.0188    781.7781 307.7408824  +6.3631350     56889.77     82650.73     87100.54     77.55347     155.1069     310.3065      1.535     3.10     844.3907     54.70745     9263.351        77     1.514     1.214  45.67   0
       172    603.9508    786.5748 307.6643437  +6.3673165     807.4579     1105.825     1187.237     77.42989     155.2921     310.2756      1.355     1.60      843.705     54.70745     190.9817         6     0.684     0.494   2.23   0
       173    155.0709    785.6431 307.8507680  +6.3526441     1144.456     1547.136     1626.617     77.67687     155.2304     310.3991      1.398     3.12     842.5463     54.70745     215.9059        11     1.090     0.647  54.35   0
       174    130.2961    785.4278 307.8610624  +6.3519000     1181.856     1751.023      1629.39     77.92307     154.9834     310.3065      1.622     3.60     842.3402     54.70745     194.7264        14     1.073     0.918  44.40   0
       175    962.4587    783.5563 307.5155699  +6.3805403      656.465     926.6359     1092.856     77.67687     155.1687     310.4299      1.624     3.33     838.7322     54.70745     111.2573         6     0.890     0.448 -16.14   0
       176    537.7041    780.7661 307.6920478  +6.3674965     7603.544     10930.42     11500.51     77.92307     155.1069     310.4916      1.512     3.21     843.1406     54.70745     1170.893        30     1.357     1.002  49.82   0
       177    454.5214    779.4097 307.7266350  +6.3652694     5059.781     7193.443     7890.075     77.42989     154.8598     310.2139      1.557     2.96     844.0527     54.70745     949.3353        28     1.426     0.948  48.90   0
       178    782.9720    777.4553 307.5903092  +6.3770677     12207.15     17912.71     18767.97     77.42989     155.2921     310.2139      1.551     3.21     842.5042     54.70745     1918.015        43     1.482     1.102  50.04   0
       179     12.2173    773.4876 307.9104940  +6.3528561     1183.824     1677.884     1348.167     77.55347     154.9834     310.2139      1.569     4.43     842.3419     54.70745     199.6088        12     1.210     0.717  65.08   0
       180    451.1118    772.8081 307.7282726  +6.3678804     2338.964     3274.617     3326.941     77.42989     154.9216     310.1213      1.456     3.32     843.8267     54.70745     407.7454        19     1.246     0.877  51.20   1
       181    804.4405    771.4739 307.5815944  +6.3802542     1295.847      1630.83     1546.445     77.67687     155.2921     310.3991      1.281     2.86     842.1194     54.70745     238.8942        11     0.999     0.725  44.56   0
       182    140.7227    769.3576 307.8572747  +6.3588845     12380.08     18063.96     19749.03     77.67687     155.2304     310.4299      1.585     3.08     842.1549     54.70745     2040.124        43     1.500     1.086  45.29   3
       183    132.9058    766.6965 307.8606102  +6.3597202     3186.163     4722.219     5888.043     77.80007     155.7847     310.2756      1.684     3.36      842.084     54.70745     471.4903        24     1.442     0.967  49.24   3
       184    971.8432    770.8389 307.5120980  +6.3861034     669.5249     1077.572     1449.458     77.55347     155.1687     310.2448      1.549     2.89     838.1372     54.70745     109.9718         6     0.751     0.551  53.06   0
       185    148.7273    769.6650 307.8539406  +6.3590267      3146.55     4644.678     4772.065     77.80007     155.2304     310.3682      1.566     3.30     842.2128     54.70745     479.2856        21     1.231     0.919  55.73   0
       186    928.4564    765.9929 307.5302775  +6.3866569     6570.627     9831.885     10332.76      77.3061     155.1069     310.1213      1.579     3.35     839.2429     54.70745     951.7308        34     1.469     1.041  51.53   0
       187    977.6860    765.9003 307.5098368  +6.3883371     1557.476      2311.57     3022.222     77.80007     155.7232     310.4299      1.548     3.68      837.876     54.70745     214.5223        16     1.220     0.833  51.66   0
       188    683.8421    763.5511 307.6319404  +6.3794941     1757.193     2600.481     2863.675     77.80007     155.1687     310.3065      1.602     3.19     842.3929     54.70745     263.3705        13     1.006     0.851  52.58   0
       189    570.9041    763.0202 307.6788571  +6.3759342     2469.295     3495.357     3534.822     77.67687     155.0452      310.183      1.484     3.52     842.6835     54.70745     364.0945        19     1.290     0.860  49.45   0
       190    418.7996    762.3089 307.7420432  +6.3711314     1230.361     1955.316     1939.288     77.05792      154.736     310.1213      1.694     3.74     843.3538     54.70745      221.775        16     1.323     0.794  52.38   0
       191    132.9659    760.2178 307.8608037  +6.3623967     2184.256     3169.925     3823.108      77.3061     155.0452      310.183      1.700     3.44     841.9756     54.70745     352.5861        18     1.267     0.869  45.89   0
       192    952.1074    757.5973 307.5207366  +6.3909118      3310.76     5070.412     5342.853      77.3061     154.9216     310.0904      1.636     3.79     838.3673     54.70745     471.0042        28     1.416     1.079  34.74   0
       193    922.6715    758.0519 307.5329455  +6.3897422      3063.63       4469.7     4517.309     77.67687     155.2304     310.3991      1.567     3.42     839.1215     54.70745     453.1148        22     1.415     0.878  42.23   0
       194    675.2652    757.4781 307.6357057  +6.3817144     1403.191     2037.654     2018.124     77.92307     155.2921     310.3374      1.609     6.11     842.1141     54.70745     187.9512        14     1.435     0.732  50.60   0
       195    983.0311    757.3464 307.5079030  +6.3920467     1964.332      2899.31     3087.812     77.67687     155.2921     310.2756      1.600     3.69     837.6018     54.70745     283.2701        17     1.289     0.827  28.58   0
       196    435.3428    757.4737 307.7353361  +6.3736821     486.0698     588.8957      579.595     77.80007     155.2304     310.3374      1.084     3.62     843.1306     54.70745     106.3064         5     0.972     0.432  76.93   0
       197    822.4016    755.1946 307.5746808  +6.3875747     1201.779     1982.796     1388.902     77.18211     154.9216     310.1521      1.672     4.12     841.3712     54.70745     173.8191        15     1.162     0.939  17.40   0
       198    413.7156    754.9453 307.7444019  +6.3740008     1260.064     1164.793     1856.438     77.80007     155.2304     310.5225      0.743     1.83      843.008     54.70745     512.8792         5     0.730     0.369  65.69   0
       199    247.3119    752.2846 307.8135902  +6.3695145     1966.117     3061.778     3936.798     77.55347     155.4154     310.4299      1.756     4.23      842.876     54.70745     348.0314        20     1.364     0.987  55.59   0
       200    897.0956    752.8926 307.5437392  +6.3910187     780.1422     1139.727     1490.156     77.80007     155.7847     310.3374      1.475     2.14     839.8254     54.70745     173.5787         8     0.786     0.621  52.11   0
       201    684.5878    749.6539 307.6320967  +6.3852562     698.3815     1165.443     1404.031     77.18211     155.1687     310.0904      1.699     4.29     841.7661     54.70745     106.6454         8     1.158     0.613  74.05   0
       202    966.9779    745.4341 307.5149679  +6.3964291     2738.087     4123.381     4660.364      77.3061     155.0452     310.1213      1.621     3.44     837.7256     54.70745     387.6321        24     1.459     0.938  50.38   0
       203    940.4435    747.5194 307.5259174  +6.3946832     1081.141     1543.362     1272.439     77.80007     155.2304     310.3374      1.486     3.81     838.3404     54.70745     177.7606        11     1.103     0.699  30.56   0
       204    163.0950    747.3828 307.8487257  +6.3687081     856.2635     1138.178     716.7158     77.67687     155.0452     310.2139      1.438     4.49     841.8409     54.70745     150.1474        10     1.031     0.733  41.40   0
       205    914.0599    746.2727 307.5369157  +6.3943177     1149.764     1552.718     1739.285     77.92307     155.2304     310.3991      1.524     4.19     839.0175     54.70745     191.2727        13     1.246     0.730  59.84   0
       206    267.8297    747.2856 307.8052387  +6.3722672     703.7703     969.9443     1095.606     77.92307     154.9834     310.2448      1.509     3.94     842.8928     54.70745      114.005         6     0.767     0.620  41.73   0
       207    686.5162    744.1949 307.6314789  +6.3875743      1022.82     1697.226     2250.984      77.3061     154.8598     310.0904      1.936     3.96     841.4902     54.70745      179.556        12     1.263     0.636  54.95   0
       208   1008.6381    738.4700 307.4978998  +6.4006932     1792.518     2717.251     2687.814     77.67687     155.2304     310.4299      1.588     3.34     836.8795     54.70745      268.834        16     1.158     0.835  33.52   0
       209    477.3207    739.1700 307.7185196  +6.3826453     628.6691     854.1101     941.0061     77.67687     155.2921     310.3374      1.384     4.34       842.65     54.70745     86.96423         7     0.864     0.621 -63.82   0
       210    407.5000    739.3196 307.7475083  +6.3802429     655.1833     953.8282     1310.364     77.80007     155.7232     310.3991      1.578     3.88     842.1951     54.70745     102.9977         6     0.929     0.465   2.02   0
       211    810.1479    737.0494 307.5803771  +6.3946563     1163.248     1744.273     1374.237     77.92307     155.1069     310.3374      1.452     3.74     840.8599     54.70745     183.9717        11     1.139     0.702  34.01   0
       212    634.8830    738.0709 307.6531261  +6.3883753     627.9005     1015.268     1191.153     78.04588      155.477     310.3991      1.503     2.44     842.0931     54.70745     151.2304         5     0.757     0.495  37.36   0
       213    896.5244    734.4252 307.5445943  +6.3986235      1606.96     2331.138     2504.979     77.42989     155.0452     310.3374      1.643     4.14     839.2648     54.70745     243.3124        19     1.474     0.807  50.83   0
       214    870.7217    729.5342 307.5554735  +6.3997815     952.0872     1324.175     1860.907     77.92307     155.3537     310.3374      1.464     3.20     840.0613     54.70745      153.159         9     0.856     0.760  62.24   0
       215    853.2925    725.9163 307.5628327  +6.4006931     1649.841     2327.751     2525.875     77.55347     155.6001     310.4916      1.392     3.77      840.255     54.70745     243.6529        14     1.192     0.729  54.03   0
       216    116.5991    723.5725 307.8688354  +6.3769738     1070.815     2206.706     2358.662      77.3061     154.9834      310.183      2.091     7.73     841.2575     54.70745     124.7683        19     1.945     0.860  67.03   0
       217     52.4361    724.7049 307.8954403  +6.3743477     2496.115     3565.125     3887.153     77.92307     155.1069     310.4916      1.546     3.38      841.681     54.70745     399.3234        21     1.361     0.977  56.92   0
       218    464.5801    723.0658 307.7243515  +6.3888665     618.4033     793.5334     443.5977     77.42989     155.2304     310.2448      1.329     3.87     842.0014     54.70745     116.7335         6     0.782     0.681  77.85   0
       219    569.6775    719.8931 307.6808142  +6.3936970     684.7642     848.5538     920.1249     77.55347     155.4154     310.3991      1.377     4.37     841.3857     54.70745     129.5305         8     1.161     0.467 -88.98   0
       220    707.6406    717.1182 307.6236143  +6.3994587     449.0247     547.7599     724.1191     77.80007     155.2304     310.3065      1.410     3.95     840.8553     54.70745     91.19684         6     1.027     0.436  77.52   0
       221    665.0837    713.3354 307.6414142  +6.3995971      6795.42     9737.133      10345.9     77.92307     155.3537     310.4299      1.524     3.30     840.9833     54.70745     1177.279        32     1.357     1.030  51.95   0
       222    611.9304    712.4942 307.6635159  +6.3981659     1458.885     2293.011     2605.655     77.67687     155.2921     310.3682      1.666     3.84     841.8691     54.70745     217.7349        15     1.248     0.853  39.62   0
       223    522.3916    712.5666 307.7006968  +6.3951379      680.205     1120.771     1313.319      77.3061     155.0452      310.183      1.681     4.10     841.1094     54.70745     138.0036         6     1.070     0.449  35.14   0
       224    127.9714    709.0523 307.8646027  +6.3833503     3949.284     5664.621      5791.12     77.55347     155.3537     310.2756      1.482     2.89     840.8398     54.70745      631.402        25     1.258     0.971  46.16   0
       225   1002.0604    708.4361 307.5016354  +6.4128729     2717.097     4127.494      4372.24     77.80007     155.2304     310.3374      1.652     3.46      836.817     54.70745     390.3715        22     1.265     0.994  48.18   0
       226    638.7077    708.9805 307.6525138  +6.4005125     2326.576     3387.277     3717.167     77.67687     154.9834     310.2448      1.497     3.17     841.3406     54.70745     338.8031        21     1.272     0.902  41.89   0
       227    314.7122    708.9506 307.7870610  +6.3896666     637.8757     1098.284     1377.185     77.80007     155.0452     310.4916      1.509     3.90     841.3757     54.70745     123.1877         6     1.367     0.319  31.66   0
       228    249.7913    708.5791 307.8140325  +6.3876400     665.4805     811.1411     827.6315     77.42989     154.9834     310.1521      1.379     4.76     841.3148     54.70745     97.51025         7     1.025     0.628  25.55   0
       229    781.9752    705.4484 307.5931353  +6.4067609     21592.41     30851.79     32123.94     77.42989     155.2304     310.2756      1.513     3.24     840.6027     54.70745     3556.322        50     1.462     1.081  48.59   0
       230    463.8811    707.3101 307.7251712  +6.3953473     487.7237     703.0588       1.4308     77.55347     155.4154     310.4299      1.317     4.36     841.4537     54.70745      106.527         5     1.084     0.499  62.25   0
       231    911.9662    705.1906 307.5391597  +6.4112078     3877.722     5570.833     5937.359      77.3061     155.0452     310.2139      1.481     3.35     838.1559     54.70745     590.6333        23     1.315     0.928  51.41   0
       232    481.0210    705.6469 307.7181094  +6.3966084     1455.475     2113.764     2057.671     77.42989     155.2304     310.2139      1.615     3.29     841.5334     54.70745     236.2587        12     1.098     0.695  55.12   0
       233    509.2812    705.0398 307.7063941  +6.3978059     876.6691      1196.37     1866.564     77.80007     155.2921     310.3065      1.371     2.52      841.081     54.70745      150.814         7     0.689     0.679  70.13   0
       234    326.7827    704.8564 307.7821864  +6.3917618     660.9114     975.5785     753.9613      77.3061     155.1687     310.1213      1.497     3.83      841.241     54.70745     118.2189         6     0.942     0.448  53.87   0
       235    283.0179    704.6407 307.8003675  +6.3903817      620.733     623.3564     328.6324      77.3061     155.0452     310.1521      1.175     3.77     841.1857     54.70745     120.5314         7     0.892     0.652  66.49   0
       236    662.4694    698.2642 307.6430054  +6.4057314     7615.955     10775.07     11199.99     77.80007     155.2921     310.3991      1.521     3.01      840.757     54.70745     1411.104        32     1.393     0.971  52.65   0
       237    255.4550    699.0464 307.8120017  +6.3917654      6509.66     9235.628     9842.619     77.80007     155.2304     310.3991      1.508     3.04     840.9224     54.70745     1139.251        29     1.329     1.018  44.17   0
       238     90.8086    701.0616 307.8803040  +6.3853990     630.0103     887.9385     643.1428     77.18211     155.1069     310.1521      1.450     3.33     840.6569     54.70745     104.9132         7     0.813     0.700  20.76   0
       239    644.6012    699.2977 307.6503911  +6.4047070     940.5604     1580.099     1867.372      77.3061     154.9216     310.0286      1.804     3.59     841.0256     54.70745     146.5156        11     1.009     0.861 -68.93   0
       240    357.4317    698.0059 307.7696893  +6.3956184     781.3798     1098.042     1156.277     77.18211     155.0452     310.1521      1.454     3.47     841.0132     54.70745     124.0412         8     0.814     0.695 -12.12   0
       241    922.4186    690.8414 307.5352989  +6.4174803     1253.427     1794.033     1951.027      77.3061     155.0452     310.1213      1.604     3.53     837.6531     54.70745     202.2909        13     1.201     0.675  50.26   0
       242    734.1384    686.5942 307.6136333  +6.4129458     3784.985     5537.152     6020.739     77.18211     155.0452     310.1521      1.507     3.09     840.5938     54.70745      642.184        25     1.339     0.930  53.78   0
       243    689.1080    686.8161 307.6323267  +6.4113485     1168.332     1642.046     1848.866     77.55347     155.0452     310.2139      1.582     2.95      840.462     54.70745     204.6905        11     0.943     0.777  34.77   0
       244      1.5067    686.4971 307.9178779  +6.3884056     364.6327     485.5524     326.5558     69.75146     126.3162     236.2551      1.158     4.13     840.7017     54.70745     89.01373         5     1.191     0.409  54.70  24
       245    938.9595    683.8626 307.5286629  +6.4209133     2618.299     3809.286      3938.42     77.80007     155.1687     310.3991      1.542     3.98     837.2946     54.70745     390.6894        23     1.322     1.021  56.57   0
       246   1000.5646    683.2859 307.5030973  +6.4232058     9215.402     13634.45     13993.37     77.80007     155.1069     310.3682      1.615     3.40     836.6797     54.70745     1430.629        35     1.447     1.046  45.00   0
       247     19.5876    683.0306 307.9104869  +6.3904454     1962.883     3184.935     3789.229      77.3061     154.9834     310.3065      1.800     3.75     840.5022     54.70745     297.8445        21     1.304     1.014  31.62   0
       248    988.7872    683.3154 307.5079875  +6.4228010     621.3892        879.5     448.5361     77.42989     155.1069     310.2139      1.492     4.11     836.7961     54.70745     110.8914         6     0.771     0.626  41.43   0
       249    553.2520    681.4117 307.6889274  +6.4090330     607.7943     1135.636     1489.376     77.18211     155.1687     310.0904      2.079     5.28     840.1113     54.70745     97.27698         8     1.291     0.609  32.45   0
       250    539.1365    679.0357 307.6948692  +6.4095411     2226.227     3241.192     3629.399     77.67687     155.2304     310.3991      1.549     3.14     839.9915     54.70745     361.5856        20     1.340     0.911  55.60   0
       251     77.8492    678.0450 307.8864618  +6.3944644     26536.54     39328.97     41526.91     77.80007     155.1069     310.3682      1.548     3.14     840.0634     54.70745     3804.529        54     1.513     1.143  50.45   0
       252    507.7526    676.2606 307.7079956  +6.4096354     1345.874     1994.138     2378.925     77.80007     155.1687     310.4299      1.594     4.31     840.2177     54.70745     219.4069        15     1.321     0.876  62.25   0
       253    928.8502    675.0291 307.5331568  +6.4242228       1027.2     1400.383     1176.391     77.42989     155.3537     310.2756      1.372     2.87     837.2609     54.70745     168.6031         7     0.862     0.513  49.39   0
       254    548.2267    672.5189 307.6913130  +6.4125358     987.0758     1299.523     1863.564     77.67687     155.0452     310.3991      1.261     3.48     839.8369     54.70745     191.0628         8     0.967     0.611  36.66   0
       255    723.7581    670.2759 307.6184912  +6.4193354     3716.193     5309.468     5710.624     77.67687     155.2304     310.3991      1.489     3.08     840.2964     54.70745     581.8875        23     1.305     0.906  50.30   0
       256    745.8146    668.5173 307.6093901  +6.4207987     4343.279      5872.04     5952.725     77.42989     154.9834      310.183      1.413     3.06     840.2672     54.70745     706.0322        25     1.277     0.905  48.37   0
       257    413.4299    667.0408 307.7474762  +6.4102798     1441.998     2101.636     1858.793      77.3061     155.0452     310.2448      1.397     3.81     839.9599     54.70745     272.4978        13     1.310     0.732  50.15   0
       258    577.2703    666.5029 307.6794535  +6.4159920     3575.373     4995.872     4904.135     77.67687     155.4154     310.3682      1.487     3.02     840.0797     54.70745     658.4142        23     1.305     0.896  43.15   0
       259   1018.7586    664.7835 307.4961597  +6.4314508     5225.035     7736.774     8118.832      77.3061     155.0452     296.5446      1.551     3.47     835.9607     54.70745     832.0303        31     1.434     0.994  42.37  16
       260    321.3524    665.5432 307.7857645  +6.4078087      1574.26     2244.856     1948.193     77.80007     155.2304     310.4608      1.495     4.27      839.858     54.70745     262.2828        15     1.333     0.832  53.32   0
       261    238.0067    665.9102 307.8203634  +6.4048584     1776.852     2563.958     1946.589      77.3061     154.9216     310.1521      1.513     3.26     839.6447     54.70745     280.6207        16     1.141     0.897  58.60   0
       262    984.1788    663.5924 307.5105609  +6.4307896     8331.946     12465.36     12781.06      77.3061     155.0452     310.1521      1.586     3.34     836.3301     54.70745     1328.785        35     1.439     1.047  50.04   0
       263    537.4385    663.8547 307.6960842  +6.4157513     539.0479     656.3968     898.1591     77.80007     155.2921     310.3682      1.007     3.39     839.6064     54.70745     95.98535         5     0.770     0.433 -67.63   0
       264    703.8414    662.3618 307.6270279  +6.4219366     1014.178     1456.228     1669.343     77.55347     155.2921     310.2448      1.599     3.01     839.8287     54.70745     189.2581         9     0.984     0.635  73.58   0
       265    142.6426    656.9524 307.8602670  +6.4053510     25173.72     36949.15     38514.85     77.80007     155.1687     310.3065      1.561     3.10     839.3329     54.70745      3947.77        53     1.499     1.137  48.44   0
       266     95.6657    659.9894 307.8796725  +6.4025173     762.5828     1049.013     1010.621      77.3061     155.0452      310.183      1.354     3.95     839.4371     54.70745     135.1138         7     0.763     0.668  45.82   0
       267    811.0826    657.9195 307.5826391  +6.4273546     1273.729     1860.402     2413.968     77.80007      155.477     310.4608      1.545     4.61     839.2946     54.70745     190.0614        14     1.306     0.849  43.59   0
       268    429.3256    657.7300 307.7411880  +6.4146565     3027.543     4514.626     4716.962     77.92307     155.3537     310.3374      1.571     3.12      839.743     54.70745     508.4901        23     1.334     0.965  56.81   0
       269    361.3381    651.5011 307.7696317  +6.4149475     783.7338     1203.372     1458.138     77.55347     155.3537     310.4608      1.903     3.22     839.5551     54.70745      122.523         7     0.832     0.639 -73.73   0
       270    979.1793    646.5807 307.5132061  +6.4376459     7268.584     11528.01     12404.49     77.55347     155.1687     310.3065      1.715     3.44     835.6085     54.70745     1118.641        40     1.740     1.014  42.54   0
       271    572.6201    641.8271 307.6822131  +6.4260230     50510.36     72871.73     76469.49      77.3061     155.0452     310.2756      1.523     3.11     839.1099     54.70745     8704.142        70     1.517     1.131  48.49   0
       272    936.7009    643.1447 307.5309630  +6.4376476     775.8399     1164.881     965.7282     77.55347     155.2304     310.6458      1.495     3.39     836.3222     54.70745     125.3079         7     0.851     0.586  66.62   0
       273    531.1556    641.6073 307.6994406  +6.4247251     936.6094     1210.912     1123.862      77.3061     155.0452     310.0595      1.317     2.42     839.0172     54.70745     159.6115         7     0.709     0.639 -10.81   0
       274    215.6874    642.4035 307.8304239  +6.4138124     696.3627     929.9653     1492.418      77.3061     154.9216     310.0904      1.496     2.86     838.8322     54.70745     148.5021         6     0.828     0.499  46.71   0
       275    797.3936    641.1829 307.5888850  +6.4338067      547.322     593.8396     730.7338     77.42989     154.9834     310.2139      1.164     2.41     838.7819     54.70745     119.2484         5     0.716     0.443  68.53   0
       276    180.0411    638.4568 307.8453600  +6.4142436     2896.363     4285.057     4898.485     77.80007     155.2304     310.3991      1.552     3.27      838.723     54.70745     500.3943        21     1.287     0.903  56.34   0
       277     23.9594    645.9171 307.9099242  +6.4059132     1343.537     2007.472     1769.749     77.80007     155.2921     310.3065      1.529     3.44     840.1063     54.70745     196.5597        16     1.184     0.860  49.61   0
       278     72.6999    632.5800 307.8901341  +6.4130594     1466.354     1980.734     1788.683     77.80007     155.1069     310.1521      1.384     2.86     839.0743     54.70745     234.8386        12     0.933     0.825  68.85   0
       279    469.8810    625.6125 307.7254253  +6.4292749      65258.4     94953.76     99863.17     77.42989     154.9216     310.2139      1.545     3.08     838.7684     54.70745     10192.75        84     1.554     1.206  47.71   0
       280     13.3162    627.1141 307.9149787  +6.4133169     1877.416     2858.959     3444.331     77.55347     155.4154     310.4299      1.681     3.09     840.3395     54.70745     341.9204        16     1.108     0.871  66.12   0
       281    102.6726    624.9933 307.8779432  +6.4171997     447.7494     416.1576     462.6422     77.42989     154.7979     310.3065      1.239     4.57     838.3241     54.70745     69.58862         6     0.896     0.661 -52.72   0
       282    655.3756    622.2432 307.6485015  +6.4368775     781.2764     1022.403     974.3938     77.42989     155.1069     310.2139      1.246     2.18     838.0624     54.70745     154.7074         5     0.684     0.462  73.20   0
       283    144.3661    620.6016 307.8607769  +6.4204150     1696.938     2519.002     1630.492     76.93353     155.0452     310.1521      1.598     3.96      838.198     54.70745     304.8028        17     1.240     0.909  59.98   0
       284    939.2620    618.1078 307.5307369  +6.4480690     655.3583     814.3867     338.3287     77.80007     155.2921     310.4299      1.508     5.42     835.5569     54.70745     110.7012         9     1.007     0.824  47.38   0
       285    423.2875    618.2839 307.7450219  +6.4307381     1018.678     1186.655      1255.63     77.55347     155.4154     310.3991      1.464     3.74     838.6222     54.70745     204.2979        10     1.144     0.736  61.46   0
       286    615.8395    617.1022 307.6650938  +6.4376769     946.1594     1479.922     1577.709     77.80007     155.1069     310.5842      1.638     3.01     838.0839     54.70745     165.5335         8     0.882     0.700  17.59   0
       287    497.4406    616.1542 307.7142976  +6.4341031     574.2499     1035.829     1607.653     77.67687     155.2304     310.2139      1.832     4.35     838.3599     54.70745     82.58569         7     0.898     0.600   6.94   0
       288    315.1118    614.7656 307.7900652  +6.4285610     2239.513     3299.827     2938.961     77.80007     155.1687     310.3682      1.539     3.22     838.5472     54.70745     402.4932        20     1.187     1.041  52.54   0
       289     15.8603    615.5191 307.9143137  +6.4181890     742.4694     883.2282     1047.906     77.92307     155.2304     310.3374      1.403     4.00     840.2934     54.70745     114.9045         7     0.878     0.608 -78.07   0
       290    962.1760    614.7309 307.5213331  +6.4502275     450.0801     702.3299     401.1199     77.42989     155.1069     310.3065      1.692     4.48     834.7018     54.70745     80.52991         5     0.827     0.690  31.42   0
       291    467.6405    613.5573 307.7267609  +6.4341764     908.7112     1560.359      1828.49     77.55347     155.2304     310.2448      1.884     5.20     838.3756     54.70745     172.8943         8     1.384     0.657  58.91   0
       292    741.9082    609.1012 307.6130039  +6.4451967     5643.281     8013.345     8301.188     77.80007     155.7232     310.3374      1.455     3.28     837.3601     54.70745     843.1617        26     1.392     0.904  45.13   0
       293    795.4957    604.4105 307.5909051  +6.4489240     15032.26     20884.63      21570.9     77.55347     154.8598     310.1521      1.503     2.97     837.2474     54.70745     2835.332        38     1.425     0.998  45.90   0
       294   1012.4103    604.9585 307.5007960  +6.4559369     976.8532     1298.668     1077.915     77.18211     155.0452     310.1213      1.390     4.08     832.7011     54.70745     153.0975        11     1.158     0.699  23.01   0
       295    537.7747    604.3133 307.6979443  +6.4403426     1402.799     1826.116     2382.664     77.92307     155.0452     310.2139      1.399     3.54     837.9607     54.70745     201.8263        11     1.153     0.667  49.56   0
       296    619.3864    602.3841 307.6641147  +6.4438716     3102.411     4422.595     4480.826     77.55347     154.9216     310.3065      1.473     2.89     837.4995     54.70745     629.1617        21     1.283     0.847  50.88   0
       297    936.4749    598.3826 307.5325543  +6.4561193     1112.374     1798.047     2356.946      77.3061     154.9834     310.2756      1.924     2.84     835.0494     54.70745     192.8365        12     0.929     0.832  35.93   0
       298    377.7108    596.2158 307.7646921  +6.4383195     946.5145     1401.764     1098.665     77.55347     154.9834     310.2139      1.522     4.52     837.7573     54.70745     147.1725         8     1.011     0.575  71.46   0
       299    231.5411    595.8894 307.8254072  +6.4335467     1263.283     1987.927     2220.929     77.67687     155.2304     310.4916      1.587     2.97     837.5021     54.70745     249.3329        11     1.080     0.628  53.21   0
       300    362.0275    595.7386 307.7712215  +6.4379903     566.7535     654.1115     664.6346     77.42989     155.2921     310.3374      1.302     2.77     837.7573     54.70745     101.3715         5     0.786     0.477 -57.77   0
       301    195.0282    596.2932 307.8405572  +6.4321529     615.4977     950.3802     1421.469     77.92307     154.9834     310.2756      1.482     2.38     837.5725     54.70745     113.8206         5     0.757     0.475 -58.51   0
       302    871.6078    587.5668 307.5598577  +6.4584195         2925     4110.853     4201.331      77.3061     155.0452      310.183      1.423     2.81     836.4456     54.70745     550.3804        21     1.290     0.893  33.78   0
       303    830.2822    585.2027 307.5771007  +6.4580155      2740.18      3923.89     3790.816     77.18211     154.8598     310.0595      1.471     3.53     836.6958     54.70745     475.3619        19     1.266     0.876  37.78   0
       304    166.3096    587.1851 307.8527908  +6.4349474     810.7609     1205.762     1214.066     77.55347     155.0452     310.2139      1.640     2.58     837.6118     54.70745     155.4559         5     0.736     0.434  74.32   0
       305    801.2117    581.0595 307.5893134  +6.4587549     2586.336      4136.45     5052.876     77.18211     155.1069     310.0904      1.829     3.49      836.726     54.70745     410.4123        22     1.432     0.891  49.10   0
       306    743.8700    581.2695 307.6131221  +6.4567520     696.3651     1202.097     2079.945     77.80007     155.3537     310.3374      2.295     5.11     836.7545     54.70745     121.1265         8     1.072     0.688  67.00   0
       307    258.2156    580.0769 307.8148620  +6.4409704     8094.099     11976.64     12570.66      77.3061     154.9834     310.2448      1.564     3.22     837.2501     54.70745     1382.016        33     1.408     1.027  53.25   0
       308    810.8837    576.2835 307.5854563  +6.4610497     167528.3     239045.9     250871.4     77.55347      155.477     310.4608      1.508     3.10      836.563     54.70745     26808.03       127     1.590     1.247  50.36   0
       309    192.4663    574.5607 307.8423535  +6.4410383     62111.58     90513.31     96496.42     77.67687     155.1687     310.4608      1.614     3.05     837.2588     54.70745     10688.31        88     1.578     1.277  46.84   0
       310    618.0266    578.2901 307.6654881  +6.4537726     516.5186      653.035     399.6397     77.92307     154.9834     310.2448      1.288     3.79     836.8665     54.70745     87.20844         5     0.823     0.500  55.10   0
       311    116.4542    570.7482 307.8740496  +6.4400561     6477.303     9522.976     10252.84     77.92307     155.1687     310.3991      1.613     3.14     837.5397     54.70745     1053.641        34     1.449     1.062  41.28   0
       312    981.8572    568.3430 307.5147101  +6.4700342     1409.898     2228.663     2083.096     77.80007     155.2921     310.3991      1.642     5.35     833.4202     54.70745     203.0849        16     1.429     0.790  42.08   0
       313   1002.8745    566.9832 307.5060263  +6.4712964     793.7876     1134.134     1196.794      77.3061     154.9834     310.2448      1.448     4.85     833.1216     54.70745      112.305         8     1.008     0.661  31.17   0
       314    230.8165    565.8671 307.8267196  +6.4459159      797.223     1233.473     1356.241      77.3061     155.1687     310.2756      1.536     4.03     836.7588     54.70745     143.0427         7     0.921     0.505  45.42   0
       315    847.3852    563.5096 307.5707237  +6.4675422     4688.877     6653.081     6602.964     77.55347     155.0452     310.2139      1.494     2.82     836.0627     54.70745     901.4185        27     1.376     0.938  44.43   0
       316    365.8638    561.7157 307.7707731  +6.4521642     17795.19     25955.19     27130.97     77.92307     155.3537     310.3374      1.534     3.11     836.0905     54.70745     2685.865        48     1.508     1.084  49.25   0
       317    456.3023    562.0508 307.7332011  +6.4550592      849.678     1156.387      1374.87     77.67687     155.2304     310.5533      1.431     4.85     836.8149     54.70745     148.4517        10     1.147     0.636  49.51   0
       318    167.5888    560.6024 307.8531557  +6.4459641      1874.82     2726.511     3807.972     77.42989     154.9216      310.183      1.542     3.04     837.3467     54.70745     362.0537        18     1.197     0.875  38.20   0
       319    801.4132    556.8916 307.5900393  +6.4687388     6173.925     8739.212     9298.622     77.55347     154.9834     310.1521      1.485     3.11     836.1824     54.70745     1095.378        26     1.316     0.907  54.44   0
       320    532.1641    556.5934 307.7018774  +6.4598544     6756.037     9619.987     9723.219     76.93353     154.9834     310.1521      1.477     2.97     837.1654     54.70745     1262.196        33     1.405     1.014  52.90   0
       321    105.2127    557.9004 307.8791515  +6.4449816      1028.62     1766.955     1143.875     77.55347     154.9834     310.1521      1.775     5.99     837.4518     54.70745      163.772        12     1.283     0.882  45.33   0
       322    242.9021    558.4597 307.8219499  +6.4493798     987.8485     1376.726     1486.013     77.55347     155.2304     310.4916      1.637     4.89     836.5872     54.70745     134.4418        13     1.189     0.811  71.17   0
       323    390.3570    553.0900 307.7608908  +6.4565468       1580.6     2196.899     2465.984     77.80007     155.1687     310.3991      1.560     2.75     835.6493     54.70745     319.3141        13     1.062     0.760  62.16   0
       324    179.1785    549.7665 307.8487077  +6.4508269     7024.502     10318.78      10897.7      77.3061     155.0452      310.183      1.547     3.20     837.0706     54.70745     1196.769        33     1.456     1.000  56.07   0
       325    817.9527    549.2625 307.5834254  +6.4724409     1483.154     2164.324     1587.479     77.67687     155.1069     310.3991      1.381     5.10     835.8755     54.70745       243.89        10     1.253     0.588  53.40   0
       326    576.8363    549.6697 307.6835563  +6.4642088     2436.955     4124.266     3546.376     77.67687     155.2921     310.4299      1.776     3.95      836.585     54.70745     415.9417        26     1.375     1.206 -31.89   0
       327     50.8364    548.4731 307.9020519  +6.4470434      5269.69     8011.528     8202.461     77.67687     155.2304     310.3682      1.640     3.48     837.6044     54.70745     792.2805        31     1.452     1.030  62.49   0
       328    274.5025    546.2247 307.8092381  +6.4554921     91292.23     133096.6     140003.4     77.92307     154.9834     310.2756      1.596     3.14     836.2755     54.70745     15408.66        87     1.561     1.238  47.92   0
       329    859.8323    549.2707 307.5660307  +6.4738361     604.5759     723.1714     612.8651     77.67687     155.2304     310.3991      1.009     2.26     835.5649     54.70745     124.2131         6     0.723     0.537 -52.99   0
       330    563.7026    543.5597 307.6892163  +6.4662914     954.7682     1413.036     1678.015     77.80007     155.1069     310.5842      1.511     3.45     836.6187     54.70745     157.7781         5     0.732     0.469  16.87   0
       331    258.1101    541.2268 307.8162144  +6.4570046     1562.179     1001.547     1407.541     77.92307     154.9834     310.2448      0.788     3.27      836.061     54.70745     251.2959        13     1.020     0.861  69.52   0
       332    974.0629    540.0435 307.5188939  +6.4814573      1818.74     2654.892     2484.408     77.80007     155.1687     310.4299      1.495     3.34     833.1382     54.70745     319.6986        14     1.210     0.684  54.09   0
       333    797.6017    538.5809 307.5922359  +6.4761707     17177.98     24253.92     25655.09     77.42989     154.7979     310.0904      1.469     2.87     835.7267     54.70745     3011.033        43     1.427     1.056  48.25   0
       334    501.2413    537.0698 307.7153765  +6.4668781     42505.43     66671.77     71650.04     77.67687     155.2304     310.4299      1.660     3.25     836.5095     54.70745     6767.476        78     1.670     1.315  34.84   0
       335    651.8093    535.1443 307.6529049  +6.4727148     929.4107     1518.935     2037.146     77.18211     155.1687     310.0904      1.687     4.59     835.5195     54.70745     170.1951        12     1.351     0.815  72.03   0
       336     49.1077    533.4500 307.9032769  +6.4531868     1179.067      1967.35     1760.701     77.67687     155.1069     310.5533      1.699     3.86     837.3547     54.70745     229.9301        16     1.364     0.815  55.83   0
       337    723.5941    531.4233 307.6232145  +6.4766520     1299.862     2276.082     2422.472      77.3061     154.9834     310.2448      1.884     5.65     835.3185     54.70745     228.3321        16     1.658     0.709  59.11   0
       338    671.3761    532.1057 307.6448800  +6.4746238     1657.725     2160.043     2232.436     77.92307     154.9834     310.2448      1.438     3.31     835.3674     54.70745     247.6016        16     1.137     0.878  73.13   0
       339    661.2198    531.9964 307.6491020  +6.4743292     3192.558     4603.591     5145.977     77.42989     154.8598      310.183      1.553     3.18     835.3738     54.70745     487.2852        24     1.369     0.994  40.14   0
       340    213.6212    533.1138 307.8349646  +6.4588590     1898.793     2878.679       2695.6     77.80007     154.9834     310.2448      1.570     3.86     836.0042     54.70745     330.2347        17     1.180     1.024  65.11   0
       341     99.8680    533.5807 307.8821916  +6.4548411     627.9462     991.1462       1035.5     77.42989     155.1069     310.3065      1.692     4.42     837.0572     54.70745     96.55804         6     0.868     0.641  30.48   0
       342    261.6080    533.2970 307.8150288  +6.4603957     609.3509     843.1697     1202.188     77.55347     154.8598     310.1521      1.506     3.43     835.6788     54.70745     89.74432         5     0.751     0.454 -72.54   0
       343     79.0155    528.7523 307.8910146  +6.4561327     739.8364     1525.422     1904.913      77.3061     155.1687     310.1213      2.208     6.90     837.0663     54.70745     124.2395        13     1.844     0.723  33.79   0
       344    399.0303    527.8293 307.7581383  +6.4672658     1856.432      2602.93     3060.559      77.3061     154.9834     310.1213      1.544     3.74     834.7005     54.70745     292.0443        16     1.290     0.761  47.63   0
       345    510.2509    525.3934 307.7120269  +6.4720002     2260.094     2933.312      3026.22      77.3061     155.0452     309.9977      1.390     3.05     835.8347     54.70745     433.0754        16     1.130     0.840  54.05   0
       346    330.4570    525.8916 307.7866838  +6.4657647     4098.339     5792.719     5958.413     77.67687     155.1687     310.4608      1.482     3.21     834.7338     54.70745      627.035        25     1.302     0.961  39.11   0
       347    145.5888    524.5550 307.8635078  +6.4601050     27049.36     39626.76     41668.14      77.3061     155.1069     310.0904      1.585     3.04     836.6218     54.70745     4558.264        55     1.493     1.155  48.86   0
       348    873.3484    524.4023 307.5612495  +6.4845538     1587.613     2194.608     2243.109     77.18211     154.8598     309.9668      1.411     2.73     834.2366     54.70745     337.6036        13     1.065     0.712  53.20   0
       349    110.7308    522.8494 307.8780422  +6.4596366     2942.591     4153.477     4177.757     77.80007     155.1687     310.3991      1.480     3.11      836.704     54.70745      437.897        20     1.144     0.959  55.33   0
       350    347.3688    521.0620 307.7798224  +6.4683261     1044.558     1417.716     1737.183     77.55347     155.2921     310.3065      1.352     4.22     834.3389     54.70745     165.5748        12     1.146     0.761  51.53   0
       351    971.1265    519.1181 307.5208135  +6.4899980     5422.438     7644.085     7795.431     78.04588     155.5386     310.4299      1.472     2.92     832.6655     54.70745     946.7382        28     1.394     0.918  45.37   0
       352    134.9431    514.5779 307.8682656  +6.4638656     397.8287     509.3566     508.5179     77.42989     155.1687      310.183      1.377     4.67     836.3336     54.70745     74.80493         5     1.019     0.608  76.49   0
       353    544.1984    511.2862 307.6984011  +6.4789613      1463.71     1992.435     2123.691     77.05792     154.8598     310.0904      1.381     2.77     835.0474     54.70745     279.0467        14     1.017     0.842  65.65   0
       354      9.8524    508.8878 307.9204090  +6.4620045     26000.15     38676.62     41205.05     77.80007     155.1069     310.4916      1.562     3.17     837.5042     54.70745     3624.281        55     1.487     1.191  51.80  16
       355    442.5880    505.7260 307.7407908  +6.4778513     43984.81     64430.09     67974.75      77.3061     154.9216      310.183      1.569     3.10     834.3713     54.70745      7510.96        67     1.518     1.166  49.15   0
       356    419.3678    509.1118 307.7503211  +6.4756749     469.6674     703.3378     877.3348     77.92307     155.0452     310.3682      1.397     3.45     834.2134     54.70745      77.0896         5     0.792     0.434  71.59   0
       357    650.6099    505.4109 307.6544008  +6.4849493     12789.63     18058.48     18664.83     77.42989     155.0452     310.3374      1.511     2.98     834.1224     54.70745     2340.248        36     1.396     1.010  46.21   0
       358    290.2199    505.7614 307.8040730  +6.4727237     975.2195     1599.311     1386.777     77.42989     155.0452     310.1213      1.657     3.48     834.0506     54.70745     167.8978        10     1.047     0.791  57.76   0
       359    207.7599    503.3323 307.8384026  +6.4709561     19562.48     30055.75     31477.73     77.67687     155.1687     310.4299      1.644     3.30     835.0369     54.70745     2941.903        49     1.612     1.099  46.39   0
       360    824.4847    503.3743 307.5822495  +6.4916030     1117.393     1520.134     1935.632     77.92307     154.9834     310.2448      1.659     3.50     834.2026     54.70745     164.1495        13     1.043     0.862  66.79   0
       361    173.2785    504.2188 307.8526936  +6.4694311     1587.448     2314.675     2039.289      77.3061     154.9216     310.3374      1.540     3.15     835.5973     54.70745     308.5212        13     1.148     0.715  51.60   0
       362    984.3697    503.7512 307.5158268  +6.4967836     1200.318     1704.998     1401.786     77.42989     155.2921     310.2756      1.392     3.59     832.2658     54.70745     244.3982        12     1.179     0.756  30.04   0
       363    912.8376    502.9777 307.5455645  +6.4947166     704.9761     972.2274     1161.589     77.42989     154.9834     310.1521      1.469     3.38     832.7229     54.70745     117.9422         6     0.885     0.477  58.62   0
       364    572.2229    502.1244 307.6870690  +6.4836821     2963.098     4045.251      4073.44     77.42989     155.1069     310.2756      1.452     2.92     834.3395     54.70745     536.5585        19     1.150     0.877  56.24   0
       365    946.3171    499.3759 307.5317788  +6.4973206     5096.241     7188.052     7457.667     77.67687     154.9834     310.3065      1.540     3.03     832.3241     54.70745      926.282        29     1.357     0.997  46.61   0
       366    619.4339    497.7628 307.6676064  +6.4870633     6858.276      9967.65     10355.49     77.55347     154.9834     310.1521      1.527     3.05      833.863     54.70745     1198.509        32     1.408     0.991  47.71   0
       367    106.9430    498.2508 307.8804452  +6.4696636       1130.1     1569.302     1152.048     77.80007     155.2304     310.3682      1.449     4.00     835.9998     54.70745     174.6597        10     1.159     0.618  56.32   0
       368    871.9210    493.4247 307.5628795  +6.4972945     546.7218     714.8807     1611.961     77.55347     155.1069     310.3682      1.456     4.76     832.8889     54.70745     90.34302         7     0.968     0.663 -55.55   0
       369    968.9294    491.6627 307.5226444  +6.5012591     3634.064     5225.632      5309.88     77.80007     155.2304     310.4299      1.498     3.06     832.0583     54.70745     578.9746        25     1.319     0.958  43.09   0
       370    531.6173    489.0001 307.7043753  +6.4877400     7664.458     11122.41     12155.67     77.42989     154.7979     310.0595      1.529     3.09     833.8101     54.70745     1246.185        32     1.390     1.008  46.45   0
       371    377.3994    489.1316 307.7684243  +6.4825152     2820.753     3992.846     4050.383      77.3061     154.7979      310.183      1.508     3.59     833.2114     54.70745     417.6614        21     1.437     0.838  54.38   0
       372    407.4088    490.4994 307.7559141  +6.4829573     773.3198      1012.03      1125.58     77.55347     154.8598     310.2139      2.049     4.45     833.5322     54.70745     114.0224         8     1.211     0.465  34.43   0
       373    657.3244    489.4055 307.6521490  +6.4917814      461.052     509.7731     609.2716     77.42989      154.736     310.2448      1.428     4.89     833.3623     54.70745     81.21704         6     1.452     0.466  88.34   0
       374    887.9033    484.7299 307.5565321  +6.5014176      3495.24     5041.253     5582.655     77.67687     155.4154     310.3682      1.513     3.29     832.4166     54.70745     564.7745        25     1.480     0.871  40.82   0
       375    540.6693    485.5587 307.7007311  +6.4894640     745.6093     1060.973      1382.71     77.67687     155.2304     310.4299      1.625     3.16     833.6414     54.70745     114.4313         7     0.820     0.651 -69.59   0
       376    934.6978    478.5403 307.5373023  +6.5055345     1319.629     1857.508     1195.172     77.55347     155.2304     310.4916      1.474     3.39     831.9422     54.70745     210.5568        13     1.064     0.814  79.85   0
       377    895.4147    479.2227 307.5535965  +6.5039418     2244.889     3188.667     3646.355     77.55347     155.0452     310.2756      1.422     3.35     832.1855     54.70745     390.6013        15     1.195     0.747  49.76   0
       378    114.2414    477.9546 307.8780987  +6.4782876      818.098     1348.368      1416.13     77.67687     155.2304     310.2139      1.871     4.14     835.3636     54.70745     134.7795        12     1.177     0.795  65.30   0
       379    272.8353    476.6405 307.8122742  +6.4841613      614.896     790.4374     658.8251     77.55347     155.2304      310.183      1.232     3.02     832.8547     54.70745     143.6867         5     0.835     0.449  50.39   0
       380    719.3714    475.1643 307.6268549  +6.4997359     3089.259      4436.65     4906.289     77.42989     154.9834      310.183      1.472     3.03     832.8289     54.70745     542.9995        17     1.215     0.763  51.73   0
       381    390.2658    473.3835 307.7636101  +6.4894479     3847.756     5519.254     6011.372      77.3061     155.1069     310.2448      1.533     3.12       832.71     54.70745     684.7628        24     1.273     0.998  48.39   0
       382     81.1120    474.1277 307.8919873  +6.4787526     1973.162     2534.068     2667.307     77.92307      155.477     310.3682      1.422     3.24      835.787     54.70745     328.0424        16     1.150     0.858  44.82   0
       383    430.5454    473.5461 307.7468747  +6.4907319      1128.03     1540.822     1671.014     78.04588     155.1687     310.3682      1.481     3.36     833.0172     54.70745     188.9055         9     1.060     0.565  47.06   0
       384    618.1056    469.9734 307.6690910  +6.4984909     10511.18      14846.3     15369.82     77.92307     154.9834     310.2139      1.463     3.15     832.6475     54.70745     1694.206        34     1.371     0.997  49.35   0
       385    780.7878    466.5811 307.6016324  +6.5053323     17701.59     24963.21     26321.31     77.55347     154.9834     310.2756      1.438     2.98     833.2513     54.70745     3080.246        43     1.401     1.047  53.03   2
       386    784.8178    461.7289 307.6001211  +6.5074701     1526.756     2342.877     2479.895      77.3061     155.1069     310.3065      1.631     4.34     833.1555     54.70745     223.3182        18     1.439     0.828  49.83   2
       387    300.3731    466.8095 307.8011677  +6.4891445     2853.159     3964.005     3959.816     77.42989     155.0452     310.2448      1.474     3.25     832.1412     54.70745     430.3682        20     1.249     0.912  51.91   0
       388    423.6898    466.2173 307.7499687  +6.4935274     671.8419     946.8411     808.7794     77.55347     154.9834     310.2756      1.353     4.12     832.6216     54.70745     114.1824         6     1.075     0.451  83.97   0
       389    809.5714    463.7615 307.5897710  +6.5074581     1322.635     1661.608     1714.479      77.3061     154.9216     310.2448      1.316     3.05     833.2247     54.70745     218.1306        12     1.013     0.766  66.18   0
       390    731.8525    465.1924 307.6220051  +6.5042699     450.0142     570.3123      352.228      77.3061     155.0452     310.0904      1.258     3.46     832.6602     54.70745     83.21259         5     1.032     0.335  44.12   0
       391    383.5616    463.3354 307.7667328  +6.4933710     1677.175     2361.202     2616.125     77.80007     155.1687     310.4299      1.491     3.15     832.2248     54.70745     277.5842        14     1.133     0.739  41.41   0
       392    965.8811    461.5303 307.5249186  +6.5135970     1914.444     2620.876     2808.889     78.04588      155.477     310.3991      1.372     2.81      831.181     54.70745     361.6337        16     1.143     0.829  48.09   0
       393    398.2494    463.0530 307.7606418  +6.4939804      653.012     1035.121     1390.483     77.92307     155.1069     310.3682      1.694     2.41     832.3287     54.70745     126.0565         7     0.701     0.660 -74.87   0
       394    371.9429    459.6121 307.7716839  +6.4945182     663.6637     974.9895     1119.774     77.18211     155.1687     310.0595      1.731     4.90     832.0143     54.70745     115.9667         8     1.222     0.558  47.05   0
       395    118.2365    458.3767 307.8770999  +6.4865038     4702.527     6669.049     6431.577     77.42989     154.9834     310.1521      1.551     3.15     834.8483     54.70745     778.6036        26     1.375     0.941  46.31   0
       396    756.1474    457.4259 307.6121741  +6.5082883     2343.367      3294.15      3596.17     77.42989     155.3537     310.2756      1.449     3.23     832.7206     54.70745     422.7493        18     1.233     0.825  60.41   0
       397   1019.9752    456.2418 307.5026259  +6.5175841     4148.211     6527.531     6379.165     77.42989     155.1687      284.243      1.685     4.40     830.4026     54.70745     526.7429        29     1.602     0.956  34.15  16
       398    276.1275    455.6071 307.8116153  +6.4929547     1524.771     2433.356     3182.314     77.42989     154.7979     310.2756      1.691     4.31     832.0464     54.70745     246.8433        14     1.293     0.768  61.45   0
       399    354.1927    453.1045 307.7792754  +6.4966090     3330.243     4763.187     4940.024     77.55347     154.8598      310.183      1.527     3.00     831.6335     54.70745     553.4831        25     1.302     0.972  47.18   0
       400    710.0566    451.1889 307.6315280  +6.5093221     1742.989     2220.821     2319.061     77.18211     155.1687     310.0595      1.435     3.51     832.3461     54.70745     290.5681        14     1.179     0.769  46.04   0
       401    413.7160    449.2800 307.7546810  +6.5001849     790.9959      933.816     392.3831     77.67687     155.5386     310.4608      1.368     4.21     831.7634     54.70745      108.135        10     0.975     0.740  44.52   0
       402    984.0029    449.4197 307.5177963  +6.5192010     718.4766     872.2203     1026.181     77.42989     154.7979     310.1213      1.247     3.13     830.5233     54.70745     123.8085         6     0.798     0.629 -33.42   0
       403    241.5469    448.6288 307.8262132  +6.4946737       998.19     1367.253     1586.047     77.55347     155.3537     310.2756      1.464     3.87     832.6281     54.70745     193.2426        11     1.063     0.808  54.82   0
       404    664.0707    447.0401 307.6507684  +6.5094966     535.3135     657.5639     777.8314     77.67687     155.2304     310.4299      1.433     3.68     832.0684     54.70745     72.69403         5     0.999     0.390  30.78   0
       405    551.3432    443.6437 307.6977057  +6.5071249      1028.49     1466.495     1794.886     77.67687     155.2304     310.3682      1.607     3.03     831.5973     54.70745     167.9274        12     1.105     0.689  44.75   0
       406    473.6342    441.8763 307.7300425  +6.5052505     1333.267     1807.656     1468.401     77.67687     155.2304     310.3374      1.325     3.91     831.5031     54.70745     193.4146        13     1.199     0.710  53.33   0
       407    836.2044    441.1384 307.5794662  +6.5176871     1416.623     1942.846     1438.778     77.18211     154.9834     310.1213      1.352     3.23     832.1823     54.70745     273.5643        13     1.195     0.670  52.22   0
       408    821.9572    440.0379 307.5854211  +6.5176655     2149.826     3005.738     3136.574     77.55347     155.2304     310.2448      1.420     3.16     832.3381     54.70745     339.2985        18     1.298     0.799  48.76   0
       409    719.2602    438.3095 307.6281371  +6.5149468     15661.23     22042.15     22944.52     77.67687     155.2921     310.4299      1.505     3.14     832.1267     54.70745     2962.515        42     1.422     1.039  49.06   0
       410    621.1016    440.3036 307.6688425  +6.5108396     834.6528     1123.334     1000.443     77.80007     155.7232     310.2139      1.295     3.73      831.452     54.70745     159.2272         8     0.908     0.627  66.57   0
       411    640.4691    434.1941 307.6610029  +6.5140099     2583.704     3883.178     5105.308      77.3061     154.8598     310.2139      1.651     3.17     831.4387     54.70745     485.2714        22     1.310     0.936  54.13   0
       412    712.9518    432.8644 307.6309400  +6.5169837     594.8917     838.4886     1424.949     77.67687     155.1069     310.3682      1.334     2.55     832.0026     54.70745     135.5393         5     0.915     0.365  60.03   0
       413    612.7543    429.4214 307.6726750  +6.5150525     12633.46     26978.34     30712.42     77.42989     155.2304     310.2139      2.252     7.71     830.9051     54.70745      2462.11        63     2.442     1.083  36.53   0
       414    944.6380    428.1891 307.5348582  +6.5266526     3839.767     5431.503     5573.245     77.18211     155.0452     310.0595      1.471     3.05     830.3721     54.70745     703.0444        23     1.363     0.862  46.14   0
       415    383.6678    424.0455 307.7680107  +6.5095941      29705.3        43737     45912.47     77.80007     155.1687     310.3991      1.547     3.13     830.5532     54.70745     4536.184        56     1.544     1.124  56.19   0
       416    899.8484    423.3392 307.5536256  +6.5271601      1515.26      2503.99     3168.218     77.80007     155.1687     310.4299      2.072     4.82     830.9702     54.70745     255.6398        18     1.661     0.732  50.33   0
       417    129.7372    423.4032 307.8735030  +6.5013280     2343.924     3577.442     3652.543     77.18211     154.9834     310.1213      1.663     3.34     833.8027     54.70745     364.1616        19     1.309     0.868  46.48   0
       418    913.3073    418.6172 307.5481930  +6.5295587     5296.399     7280.308     7223.266     77.55347     155.0452     310.2139      1.447     3.05     830.6661     54.70745      1060.93        25     1.324     0.904  48.25   0
       419    594.5402    419.6892 307.6805675  +6.5184604     651.2766     909.1489     1134.768     77.67687     155.2921     310.4608      1.644     5.10     830.4606     54.70745     107.4919         8     1.234     0.596  60.23   0
       420     62.9482    418.8921 307.9013955  +6.5009427     1578.098     2488.029     2357.315     77.67687     155.1069     310.5842      1.589     3.84     834.8324     54.70745     219.0005        15     1.267     0.815  39.64   0
       421    969.3713    416.4014 307.5249786  +6.5323440      676.507     1055.757     1068.029      77.3061     155.0452      310.183      1.586     5.10     829.5679     54.70745     129.1352         7     1.128     0.652  50.96   0
       422    241.2236    414.5964 307.8274942  +6.5087118     14365.13     21119.45     21823.36     77.42989     154.9216     310.2139      1.583     3.27     831.5658     54.70745     2383.341        42     1.481     1.085  49.03   0
       423    735.9581    408.4209 307.6222034  +6.5278438     813.1166     1104.129     789.8942     77.42989     155.0452     310.2139      1.639     4.76     831.4044     54.70745     156.6021         7     0.967     0.664  65.08   0
       424     76.5107    408.3272 307.8961190  +6.5057605     739.0881     1107.417     1093.075     77.80007      155.477     310.3682      1.528     3.93     834.2099     54.70745     123.4058         9     0.911     0.768  88.45   0
       425    704.0045    407.5013 307.6355072  +6.5271549     904.6902     1083.616     902.2171     77.55347     154.9216     310.0286      1.258     3.61     831.1498     54.70745     123.2679         8     0.783     0.727  86.09   0
       426    964.1465    406.6160 307.5274763  +6.5362094     991.4396     1453.418     1766.331     77.18211     155.2304     310.0904      1.401     3.47     829.3591     54.70745     176.4771         7     0.991     0.583  36.90   0
       427    354.0904    404.3434 307.7809591  +6.5167348     1329.756     1880.815     2280.392     77.67687     155.1069     310.4608      1.539     4.27     829.5346     54.70745     222.9811        12     1.183     0.666  49.06   0
       428    186.8655    403.9266 307.8504317  +6.5112894     898.4565     1337.947         1179     77.92307     155.2304     310.3682      1.583     4.60     832.2978     54.70745     162.9324        10     1.299     0.624 -84.58   0
       429    141.5910    403.2285 307.8692601  +6.5100550     5373.165     8055.783     8347.265     77.42989     155.0452     310.2448      1.589     3.36     833.0217     54.70745     864.7352        27     1.374     0.978  49.53   0
       430    381.3920    403.8187 307.7696366  +6.5178676      570.215     734.2513     879.4041     77.42989     154.9216     310.2139      1.533     4.53      829.491     54.70745      75.4126         5     0.846     0.690  39.32   0
       431    246.2348    401.9350 307.8258394  +6.5141069     1315.432     2012.541     1896.004     77.67687     155.2304     310.3991      1.636     3.99     831.0121     54.70745     201.7859        14     1.286     0.751  52.73   0
       432    438.4880    401.9098 307.7459849  +6.5205710     724.1401     1117.839     1813.844     77.55347     155.7232     310.4608      1.554     2.43     829.4222     54.70745     112.2548         6     0.748     0.499  87.32   0
       433    163.4602    398.6785 307.8603301  +6.5126688     2677.312     4265.083     4264.459     77.92307     155.2304     310.3374      1.707     3.25      832.555     54.70745     408.5514        26     1.643     0.946  82.24   0
       434    827.2617    399.4928 307.5845761  +6.5345808      801.302      1200.66     1412.601     77.67687     155.2304     310.4299      1.694     3.70     830.8246     54.70745     164.5148         7     1.175     0.510  45.75   0
       435    558.9788    398.2029 307.6960605  +6.5261395     1044.712     1422.463     1434.584     77.42989     154.9216     310.1213      1.470     4.67     829.2523     54.70745     152.8121        11     1.088     0.761  59.28   0
       436    386.7901    393.8278 307.7677306  +6.5221732     2136.248      3344.71     3191.619     77.42989     155.0452     310.2448      1.600     3.47     828.8916     54.70745     323.7338        22     1.367     0.940  55.60   0
       437    274.7356    393.9906 307.8142689  +6.5183440     792.8335      1137.25     935.8932      77.3061     155.0452     310.2448      1.418     2.23     829.8801     54.70745     155.6384         7     0.718     0.622  76.87   0
       438      5.4325    393.9346 307.9261269  +6.5093086     673.4265       1131.2     1027.799     77.67687     155.2921     288.8553      1.575     4.72     834.1298     54.70745     93.96698         7     0.925     0.683  26.39  16
       439    975.2980    393.1075 307.5232959  +6.5421581     923.2576     1139.693     1497.374     77.80007     155.7232     310.3065      1.423     3.46     828.7206     54.70745     141.9022         9     0.869     0.758  16.44   0
       440    320.8255    391.6450 307.7952037  +6.5208601     613.9247     1107.788     1517.598      77.3061     155.2921     310.2448      1.949     3.31     829.1031     54.70745      128.498         5     0.853     0.460  49.74   0
       441    440.7306    387.3988 307.7455414  +6.5266365     7455.697     10808.87     11352.78      77.3061     154.7979     310.2139      1.539     3.20     828.6307     54.70745     1151.932        33     1.424     1.050  45.46   0
       442     37.2662    388.0441 307.9131038  +6.5128123     3119.966     5284.582     5667.491     77.80007     155.1687     310.3991      1.803     3.53     833.5812     54.70745     519.2101        32     1.511     1.269 -66.44   0
       443    773.4278    386.4371 307.6073758  +6.5381718     2084.994     3043.621     3451.517      77.3061     154.9216     310.1521      1.623     3.18      830.355     54.70745     377.1586        15     1.163     0.830  48.87   0
       444    611.1932    388.2537 307.6747056  +6.5319952     377.4724     554.9363     636.0333      77.3061     154.9834     310.0904      1.248     3.46     829.0223     54.70745     73.73279         5     0.981     0.352 -44.95   0
       445    781.4290    384.8312 307.6041060  +6.5391022     13616.58     19206.69     19907.03      77.3061     154.9834     310.1213      1.462     2.93     830.3069     54.70745     2461.242        39     1.408     1.010  47.84   0
       446    344.5668    382.9785 307.7856341  +6.5252349     1140.208     1715.091     1845.165      77.3061     155.0452      310.183      1.518     4.05     828.3837     54.70745     157.6841        14     1.218     0.808  24.52   0
       447   1023.9421    379.7702 307.5035350  +6.5492861     1109.402     1338.899     1389.737     64.02408     119.2171     228.9675      0.918     2.90     827.6287     54.70745     336.8271         6     1.058     0.233 -89.29  24
       448    955.7664    376.2762 307.5319725  +6.5484550     513.9752     369.3745     177.9957     77.67687     155.2304     310.3374      0.993     4.47     828.4282     54.70745      90.9024         7     0.989     0.663  81.97   0
       449    189.4998    375.0741 307.8503103  +6.5232885     804.6938     1168.898     941.3974      77.3061     155.3537     310.2756      1.463     2.14      831.472     54.70745     157.3834         6     0.728     0.493  80.87   0
       450    488.9791    371.2341 307.7260434  +6.5349273     3130.638     4467.896     4542.893      77.3061     155.0452      310.183      1.499     3.28     828.1417     54.70745     490.5468        24     1.410     0.969  54.09   0
       451    461.2703    371.7252 307.7375367  +6.5337956      2209.32     3173.331     3162.927     78.04588     155.3537     310.3682      1.489     3.42     828.0454     54.70745      376.894        17     1.281     0.804  51.11   0
       452    917.5550    370.7189 307.5480318  +6.5494742     836.2565     853.4507       469.57     77.80007     155.2304     310.3374      1.072     2.70     828.7137     54.70745     152.6286         7     0.858     0.538  35.04   0
       453    846.7833    367.7739 307.5775293  +6.5483273     33985.57     51176.02     53897.99     77.42989     155.0452     310.3065      1.577     3.20     829.2358     54.70745     4942.901        61     1.545     1.173  63.48   0
       454    338.9485    363.4876 307.7886240  +6.5330923     1030.052     1565.075     1858.389     77.80007     155.1069     310.4608      1.723     4.68     827.3648     54.70745     145.8582        13     1.235     0.811  49.47   0
       455     64.7396    364.1628 307.9024989  +6.5235955     659.3615     1050.925     1088.332     77.80007     155.2921     310.3374      1.735     5.37      832.356     54.70745      102.294         7     1.227     0.822  17.35   0
       456    618.4677    360.0239 307.6726317  +6.5438926     2698.711     4099.977     4424.727     77.42989     155.1687     310.3065      1.660     3.53     827.7704     54.70745     460.6082        25     1.559     0.947  48.03   0
       457     26.6546    360.4798 307.9184421  +6.5238335     1107.444     1674.092     1744.461     77.92307     155.2304     310.3991      1.569     4.27     832.0125     54.70745     166.1718        11     1.191     0.646  57.13   0
       458    703.2518    353.7328 307.6376236  +6.5493266     83958.95     119783.5     125511.6     77.67687     155.1687     310.3682      1.528     3.10     828.2466     54.70745     14950.95        89     1.544     1.182  49.95   0
       459    861.2053    355.0740 307.5719638  +6.5540518     1253.698     1792.027     2004.057     77.42989     154.7979     310.2756      1.472     3.12     828.5448     54.70745     218.1909        13     1.083     0.768  31.74   0
       460     82.3171    353.2544 307.8955661  +6.5286902     1315.876     1744.687     1707.707     77.80007     155.2304     310.4608      1.434     3.69     831.9698     54.70745     216.6987        14     1.245     0.742  56.04   0
       461    565.7351    350.4935 307.6948567  +6.5460612     2706.826     3880.069     4295.582     77.67687     155.4154     310.3991      1.496     3.82     826.6343     54.70745     465.6108        17     1.313     0.775  47.68   0
       462    944.8665    350.4917 307.5373633  +6.5587359     938.4933     1321.715      1132.47     77.80007     155.4154     310.3991      1.426     3.82     827.6312     54.70745     141.6069        10     1.150     0.611  25.83   0
       463    102.9206    349.1801 307.8871456  +6.5310655     6375.019     9639.562     10189.97     77.42989     154.9216     310.3682      1.589     3.25     831.9444     54.70745     918.1034        32     1.385     1.061  48.70   0
       464    548.8990    346.6261 307.7019803  +6.5470937     7667.299     11078.97     11637.21     77.92307     154.9834     310.2756      1.515     3.19      826.217     54.70745     1261.451        32     1.363     1.047  56.31   0
       465    411.9036    341.7793 307.7590502  +6.5445021     26848.43     39839.35     42241.44     77.67687     155.0452      310.183      1.561     3.20     826.0632     54.70745      3949.47        56     1.516     1.148  48.47   0
       466    277.9139    344.2086 307.8146257  +6.5390013     2609.761     3743.128     2997.918     77.42989     154.9216     310.2139      1.504     3.25     828.0936     54.70745       448.72        22     1.263     0.962  43.66   0
       467    519.4741    340.3904 307.7144128  +6.5486821     1303.827     1979.131     1614.037     77.42989     154.8598     310.2448      1.496     3.33     826.0308     54.70745     243.2034        11     1.156     0.654  68.34   0
       468    391.6880    339.9110 307.7675104  +6.5445951     1265.335     2016.799     2800.087     77.55347     155.7232     310.4608      2.077     3.77     826.1066     54.70745     182.4567        14     1.183     0.793  52.65   0
       469    678.5881    338.8015 307.6483699  +6.5546656     449.4521     688.5338     1392.049     77.42989     154.9216     310.1521      1.741     4.46     827.1287     54.70745     76.83862         5     1.034     0.648 -26.24   0
       470    490.8962    336.6252 307.7264105  +6.5492786     1116.604     1665.313     1419.967     77.92307     154.9834     310.2448      1.458     3.22     826.1264     54.70745     165.8546        11     0.982     0.729  74.36   0
       471    806.5670    334.3932 307.5953540  +6.5607643     1010.172     1226.978      992.998     77.18211     155.1069      310.183      1.354     3.17     828.1138     54.70745     189.2932        11     1.048     0.724  46.73   0
       472    642.7773    333.9439 307.6634090  +6.5554726     583.3477     776.8176     798.0153     77.42989     155.1687      310.183      1.383     4.07     826.6119     54.70745     105.1871         6     1.102     0.429  62.47   0
       473    770.1384    331.1051 307.6105972  +6.5609043     3287.601     4943.866     5482.179     77.67687     155.2921     310.3991      1.598     3.41     828.0213     54.70745     538.2239        24     1.525     0.863  53.49   0
       474    500.9638    332.1661 307.7223784  +6.5514569     8811.287     13003.96     13073.65     77.55347     154.9834     310.1213      1.527     3.29     825.6798     54.70745     1412.527        37     1.454     1.034  49.42   0
       475    388.3230    333.7498 307.7691155  +6.5470256     809.4401     1372.996     2012.121     77.67687     155.2921     310.3374      1.909     3.58     825.9708     54.70745     130.1338         8     0.976     0.573  69.94   0
       476    925.5414    330.8275 307.5460494  +6.5662090       962.58     1325.885      1236.52     77.42989     155.2921     310.2448      1.415     4.07     827.1844     54.70745     176.3066        10     1.213     0.570  58.26   0
       477    717.6588    330.1183 307.6324310  +6.5595571     752.1786     1107.206     1240.599     77.80007     155.2921     310.3682      1.501     4.12     827.5536     54.70745     117.8398         7     0.843     0.631  61.92   0
       478    327.2738    329.1930 307.7946282  +6.5468576     1293.497     1937.322     2217.685     77.42989     154.7979     310.2448      1.641     4.02     826.6655     54.70745     209.7059        15     1.147     0.971  52.36   0
       479     86.2937    326.0054 307.8948341  +6.5400725     563.8005     849.3848     935.0488     77.42989     154.9216     310.1521      1.549     4.90     831.6201     54.70745     87.09509         6     1.098     0.620  37.13   0
       480    162.9999    322.5855 307.8630876  +6.5440650      1224.51     1746.519     1895.791     77.42989     154.9216     310.1213      1.561     3.93      830.777     54.70745     212.8656        13     1.260     0.716  50.10   0
       481    609.5165    321.0720 307.6776579  +6.5596731     568.5063     717.9838      518.479     78.04588     155.5386     310.3991      1.449     5.21      825.782     54.70745     74.29529         7     1.151     0.667  48.46   0
       482    744.5944    316.4194 307.6217010  +6.5661130     1162.216     1299.421      1023.61     77.42989     154.8598      310.183      1.410     4.71     827.4863     54.70745     211.9658        11     1.280     0.632  54.17   0
       483    390.8312    316.3272 307.7686599  +6.5543021     7702.178     11483.73      12356.5     77.67687     155.2304     310.3682      1.594     3.31     825.4518     54.70745     1193.613        33     1.410     1.028  50.68   0
       484    246.5600    316.8072 307.8285729  +6.5492594     2098.719     2871.591     3292.529     77.18211     154.9834     310.0595      1.460     2.99      828.248     54.70745     335.9078        18     1.220     0.846  50.18   0
       485    758.7664    312.3042 307.6159517  +6.5682856     57494.92     81312.11     84825.08     77.92307     155.1069     310.4916      1.520     3.19     827.3634     54.70745     9732.672        71     1.540     1.104  47.29   0
       486    430.3132    311.6609 307.7524162  +6.5575529     2525.416      3704.59     3683.326     77.92307     155.4154     310.4608      1.566     3.57     824.8231     54.70745     401.1711        19     1.255     0.888  35.40   0
       487    993.5549    309.3350 307.5185141  +6.5773506     1707.013     2347.464     2169.928     77.80007     155.1687     310.3682      1.529     3.63      824.912     54.70745     265.4192        17     1.169     0.939  28.27   0
       488    934.5607    308.4394 307.5430520  +6.5757524     2402.897     3494.208      3574.49     77.55347     155.2304     310.2448      1.594     3.91     826.2241     54.70745     405.8496        19     1.350     0.880  41.77   0
       489    576.2733    308.8811 307.6918769  +6.5635925     1235.656     1770.331     1562.452     78.04588      155.477     310.3991      1.466     2.93     824.5205     54.70745     242.9546        11     1.055     0.670 -86.66   0
       490    467.3961    307.7921 307.7371419  +6.5603936     1104.363      1803.69     2823.386     77.18211     154.9216     310.2448      2.877     4.29     824.2607     54.70745     178.6476        16     1.346     0.833  68.00   0
       491    296.8388    306.6759 307.8080289  +6.5551309     780.9793     1109.277      623.544     77.67687     155.2304     310.3991      1.423     4.47     826.7416     54.70745     101.0428         8     1.094     0.519  54.93   0
       492    838.3099    301.7146 307.5832624  +6.5753152     1158.642     1938.667     1971.627     77.55347     155.5386     310.4916      1.881     4.58     826.9877     54.70745     186.7568        13     1.283     0.749  37.57   0
       493    416.7288    307.3851 307.7582030  +6.5588624     2037.657     3035.587     3066.407      77.3061     155.1069     310.2756      1.605     3.91     824.7444     54.70745      303.235        18     1.287     0.877  43.83   0
       494    970.0563    299.8643 307.5285930  +6.5804766     586.2689     740.6608     1011.387     77.92307     155.1687     310.3682      1.519     3.90     825.0451     54.70745     94.79358         5     0.826     0.529  53.30   0
       495    447.5042    298.7459 307.7457094  +6.5634610     1186.551      1877.79     2075.034     77.67687     155.2304      310.615      1.630     3.95     823.9691     54.70745     203.8055        13     1.137     0.908  49.61   0
       496    193.3689    298.5984 307.8512817  +6.5549882     2412.705     3537.084     3327.162     77.18211     155.0452     310.1521      1.569     3.40     829.2789     54.70745     356.2477        20     1.279     0.942  55.31   0
       497    757.1616    296.8247 307.6171373  +6.5746223     6277.454     8789.328     9522.986     77.42989     155.0452      310.183      1.461     3.06     826.8461     54.70745     1058.468        24     1.306     0.890  49.00   0
       498     89.6834    295.7913 307.8944459  +6.5526590      1179.32     2000.162     2397.842     77.42989     154.9216     310.2139      1.841     3.76     831.2051     54.70745     212.4131        11     1.100     0.828  77.93   0
       499    773.5367    294.7832 307.6104032  +6.5760124     2670.621     3880.542     4088.156      77.3061     155.1687     310.2139      1.474     3.22     826.8044     54.70745     453.5349        20     1.302     0.828  47.08   0
       500    348.0110    296.0717 307.7871292  +6.5612267     638.2086     877.9743     553.8974      77.3061     154.8598     310.2139      1.451     5.10     825.7944     54.70745      103.361         7     1.055     0.698 -78.87   0
       501    228.8073    296.3744 307.8366359  +6.5570976     750.1671     1001.857     781.8136      77.3061     155.1069     310.2139      1.421     4.21     827.9803     54.70745     112.5333         6     0.755     0.671  80.34   0
       502    362.9422    289.4278 307.7811504  +6.5644705     1687.066     3341.936     3338.254     77.42989     155.2921     310.2756      2.013     5.67     825.3872     54.70745     273.2139        26     1.700     1.068   6.40   0
       503     76.7917    289.6698 307.9000075  +6.5547521     1357.757     1955.191     2064.901      77.3061     154.8598     310.2756      1.441     3.29     831.1178     54.70745      221.579        14     1.153     0.775  43.84   0
       504   1011.8457    285.7327 307.5117050  +6.5877042     5930.659     8691.499     8963.153     77.80007     155.1687     310.3991      1.507     3.24     823.2874     54.70745     933.5657        30     1.419     0.969  54.75   0
       505    489.7737    285.6358 307.7285911  +6.5702903     2317.938     3541.536     3486.582      77.3061     155.0452     310.1521      1.617     3.66     822.6821     54.70745     347.0613        21     1.225     1.031  38.23   0
       506    252.4264    281.0934 307.8273396  +6.5641995     6088.327     8934.448      9442.97     77.92307     154.9834     310.2139      1.577     3.18     827.2224     54.70745     986.5457        30     1.405     1.017  43.66   0
       507    919.7751    279.6539 307.5501580  +6.5871424      553.027     764.9286     636.6132     77.42989     155.2921     310.2139      1.380     3.45     825.5527     54.70745     97.55103         6     0.715     0.652 -81.97   0
       508    585.5679    275.9500 307.6891219  +6.5774983     544.8914     972.7485     1241.743     77.67687     155.2304     310.3065      1.805     5.61     823.2412     54.70745     75.27625         7     1.262     0.704  85.63   0
       509    771.9049    274.4593 307.6117625  +6.5843481     1137.369     1445.029     1140.849     77.67687     155.2304     310.4608      1.327     3.07     826.0231     54.70745     203.4059        10     0.989     0.641  61.53   0
       510    386.8089    271.8893 307.7718263  +6.5725116     1714.827     2838.641     2965.103     77.42989     154.9216     310.1213      1.749     4.46     824.3994     54.70745      300.531        23     1.619     0.955  58.77   0
       511    229.0390    273.7770 307.8373013  +6.5664338     706.5745     777.0623     842.0815     77.42989     154.9834      310.183      1.424     4.54      827.689     54.70745     109.4325         7     0.872     0.671  55.21   0
       512    973.4093    270.6069 307.5281790  +6.5926667     1158.246     1317.879     1503.803     77.18211     155.0452     310.2139      1.363     2.95     824.0405     54.70745     212.5062        10     1.001     0.688  41.63   0
       513    156.0723    267.7339 307.8678153  +6.5664750     1894.498     2801.488     2940.793     77.80007     155.2921     310.3991      1.549     3.53     829.5532     54.70745     322.8943        18     1.290     0.859  53.84   0
       514    308.8605    267.6513 307.8043495  +6.5716443     1258.595      1927.77     1976.301     77.80007     155.1687     310.3682      1.609     3.47     826.0281     54.70745       192.66        13     1.135     0.795  54.50   0
       515    909.4002    262.5028 307.5550424  +6.5938765     1835.845     2950.216     3119.777      77.3061     154.8598     309.9668      1.800     4.99     825.1603     54.70745     286.6063        21     1.734     0.833  36.74   0
       516    565.9915    263.4133 307.6976756  +6.5820180     2307.088     3414.971     3740.401     77.42989     154.9834     310.2756      1.594     3.55     822.5953     54.70745      390.837        18     1.319     0.848  46.67   0
       517    729.6406    261.0406 307.6297705  +6.5884746     5476.581     7800.217      7298.29     77.55347     155.2304     310.2448      1.488     3.15     825.2864     54.70745     876.5928        29     1.388     0.960  44.47   0
       518    670.2927    260.8521 307.6544319  +6.5865672     2212.222     3047.493     3271.298     77.67687     155.1069     310.5842      1.415     3.50     823.5963     54.70745     400.2234        15     1.239     0.714  46.58   0
       519    967.4200    260.0157 307.5310216  +6.5968393     835.4397     1097.157     908.7781     77.55347     155.0452     310.2756      1.361     3.71     823.9339     54.70745     143.4807         9     1.136     0.606  63.67   0
       520    384.6680    254.9153 307.7732870  +6.5794469     783.0436     1090.337     1261.494     78.04588      155.477     310.3991      1.544     3.45     824.0407     54.70745      115.865         8     0.946     0.629  14.90   0
       521    925.6091    253.1802 307.5486206  +6.5982661     1189.767     1689.543     1903.937     77.42989     154.9834     310.2139      1.445     3.79     824.6743     54.70745     184.9813        12     1.118     0.748  58.81   0
       522    228.9598    246.2313 307.8382627  +6.5778022     2415.636     3577.518     3669.348     77.42989     155.0452     310.2448      1.532     3.29     827.6186     54.70745     368.2498        20     1.263     0.951  64.97   0
       523    871.7371    245.3369 307.5712642  +6.5997057     1951.331     2458.652     2308.171     77.80007     155.2304     310.3991      1.355     3.59     824.9626     54.70745     326.7597        17     1.141     0.926  57.53   0
       524    762.1458    244.5151 307.6168208  +6.5963834     1835.024      2510.04      2187.21     77.80007     155.2304     310.5225      1.444     3.13     824.9067     54.70745     312.1375        14     1.085     0.796  49.70   0
       525    463.0530    236.1210 307.7413564  +6.5898348     23962.04     35457.45     37378.04     77.80007     155.2304     310.3682      1.545     3.29     822.1548     54.70745     3695.419        54     1.496     1.165  52.00   2
       526    468.7746    230.5785 307.7391659  +6.5923147     1446.512     2340.405     2885.355     77.42989     155.0452     310.3065      1.743     4.02     821.9808     54.70745      198.439        14     1.196     0.843  55.34   2
       527    250.2601    239.5988 307.8296379  +6.5812560     421.7036     497.5147     850.5924     77.18211     154.9834     310.0904      0.973     2.84     827.1942     54.70745     97.55066         5     0.715     0.458 -18.49   0
       528    789.0948    235.3262 307.6059331  +6.6010776     13983.95     20374.12     22410.96     77.55347     155.4154     310.3682      1.561     3.34     824.5337     54.70745     2369.855        51     1.540     1.224  24.02   0
       529    727.1035    230.7774 307.6318396  +6.6008830     732.3477     915.2883     708.5915     77.80007     154.9834      310.183      1.385     4.67     824.0904     54.70745     101.1201         8     1.032     0.600  68.17   0
       530    151.2878    229.3406 307.8710980  +6.5821630     2606.178     3974.716     4667.317     77.80007     155.2304     310.4608      1.680     3.73     828.4271     54.70745     392.6366        23     1.311     0.969  48.16   0
       531    125.7616    228.1204 307.8817430  +6.5818079     1190.435      1682.25     1879.424     77.67687     155.2921     310.3374      1.506     4.52     829.3032     54.70745      195.553        13     1.168     0.872  58.77   0
       532    324.2377    237.5014 307.7989771  +6.5846069     654.8532     719.0645    -257.8604     77.80007     155.1069     310.5842      1.538     5.26     825.3182     54.70745     118.7503         7     0.995     0.785  70.32   0
       533    177.8744    226.9420 307.8601346  +6.5840474     751.6454     1111.023     835.9973     77.80007     155.2304     310.3682      1.509     5.02      827.904     54.70745     101.0497         9     0.975     0.733  86.67   0
       534    925.2969    225.5885 307.5496740  +6.6096462     1330.594     1783.287     1381.682     77.55347     154.9216      310.183      1.406     3.80      823.878     54.70745     259.7512        11     1.081     0.707  57.83   0
       535    307.4550    222.7060 307.8064473  +6.5901510     1067.706     1495.896      1456.35     77.67687     155.2304     310.5842      1.440     3.83     825.7463     54.70745     190.3695        12     1.195     0.799  51.30   0
       536    587.0565    221.7837 307.6903230  +6.5999090     4939.744     7236.418     7704.231     77.18211     155.1687     310.1213      1.513     3.01     821.5849     54.70745     792.5458        28     1.310     1.007  51.53   0
       537    549.6490    221.8412 307.7058616  +6.5986322      2196.43     3303.057      2990.99     77.80007     155.2304     310.3065      1.486     3.28     821.6459     54.70745     337.1699        18     1.255     0.818  57.91   0
       538    391.4387    221.1603 307.7716104  +6.5936085     1633.812     2401.667     1603.084     77.55347     155.2921     310.2448      1.623     4.02     823.1351     54.70745     227.6526        18     1.262     0.992  30.37   0
       539    948.0790    218.9217 307.5404322  +6.6131587     2697.044     3729.917     3622.478     78.04588      155.477     310.4916      1.442     3.20     823.1522     54.70745     407.7556        20     1.285     0.882  48.33   0
       540    894.1638    218.4899 307.5628462  +6.6115375     11900.56     16861.06     17512.91     77.92307     155.1687     310.3991      1.522     3.26     823.6813     54.70745     2096.155        37     1.457     0.993  47.08   0
       541    692.1719    216.4785 307.6468316  +6.6056175     2890.156      4261.31     4669.462     77.67687     155.1687     310.3682      1.668     3.60     822.7149     54.70745     539.4625        23     1.726     0.851  68.50   0
       542    980.7569    216.3658 307.5269414  +6.6153040     10402.76     14965.82     15632.56     77.55347     155.2304      310.183      1.498     3.15      822.467     54.70745     1713.597        37     1.473     1.019  51.26   0
       543    213.4622    218.9186 307.8456215  +6.5885561     744.5101      1149.03     932.8001     77.92307     155.2304     310.3682      1.683     4.29     827.6653     54.70745     130.0169         8     1.196     0.439  77.70   0
       544    321.5272    218.3584 307.8007478  +6.5924183      881.624     1248.175      1275.95     77.67687     155.2921     310.3991      1.403     3.45     825.1432     54.70745     167.5748         8     0.888     0.756  65.27   0
       545    568.8424    218.1322 307.6980126  +6.6008063     799.1594     1024.896     632.2031     77.80007     155.1687     310.4299      1.255     2.29     821.4901     54.70745     162.8766         6     0.717     0.540 -26.34   0
       546     20.2638    214.9908 307.9260107  +6.5836761     26522.74     39547.83     42226.82      77.3061     155.0452      310.183      1.558     3.19     830.7014     54.70745     4095.495        53     1.484     1.161  48.83   0
       547    266.2444    215.7559 307.8238013  +6.5916356     1218.761     1735.512     1694.407     77.80007     155.2304     310.3065      1.499     3.06     826.7805     54.70745     182.7736        11     0.873     0.834  71.03   0
       548    500.6982    211.1407 307.7265573  +6.6014092     2015.229     2825.302     3038.619     77.55347     155.1687     310.4916      1.471     3.17      821.178     54.70745     340.5456        16     1.172     0.806  52.01   0
       549    885.0765    207.0824 307.5670036  +6.6159434     2080.321     3112.942     3104.894     77.92307      155.477     310.4916      1.556     3.39     823.0706     54.70745     350.1788        20     1.357     0.875  48.93   0
       550    832.6630    207.9509 307.5887502  +6.6138345     2115.751     3053.497     2872.071     77.67687     155.1687     310.4299      1.501     3.87     823.2499     54.70745     342.6937        18     1.361     0.819  51.09   0
       551    512.7581    207.0587 307.7216844  +6.6034985     2790.556     4001.143     4368.581     77.80007     155.2304     310.4299      1.490     3.24     821.0356     54.70745     431.8057        21     1.316     0.853  49.91   0
       552    744.3307    204.4264 307.6255665  +6.6123373     42935.02     60434.38     63232.81     77.42989     155.1069     310.3065      1.523     3.03     823.2781     54.70745     8091.088        59     1.504     1.092  49.34   0
       553    347.3236    203.7754 307.7905224  +6.5993045     6028.177     12340.77     13616.32     77.42989     155.1687     310.3374      2.147     5.83     824.1036     54.70745     793.7117        48     1.984     1.233 -88.89   0
       554    978.0143    203.1152 307.5285242  +6.6206827     3001.162     4181.738     4457.606     77.42989     154.9834     310.2448      1.466     3.14     821.9659     54.70745     524.6087        20     1.311     0.798  52.67   0
       555    912.1979    201.4926 307.5559229  +6.6191564     8117.229     11476.07     11633.74     77.18211     154.9216     310.0904      1.492     2.94     822.5505     54.70745     1528.531        32     1.390     0.977  52.73   0
       556    455.7483    200.6300 307.7455848  +6.6042410     5140.934      7632.33     7748.887     77.55347     155.3537     310.3065      1.582     3.33     821.3351     54.70745     833.8557        30     1.484     0.970  48.28   0
       557   1016.2373    201.6096 307.5126943  +6.6225789     1795.385      2482.83     2277.582     77.18211     155.0452     310.0595      1.471     3.03      821.467     54.70745     323.5765        17     1.247     0.842  47.17  16
       558    229.7698    197.2983 307.8395758  +6.5980292     775.5594     1131.178     608.8243     77.80007     154.9834     310.3991      1.513     3.08     827.4141     54.70745     137.4838         6     0.714     0.657  44.50   0
       559    113.0546    191.8374 307.8882461  +6.5963580     5120.226     7555.493     7403.237     77.67687     155.2921     310.3991      1.510     3.20     828.7253     54.70745     762.1357        27     1.344     0.970  49.62   0
       560    932.7200    191.1222 307.5477439  +6.6241225     975.6946     1416.457     2245.295     78.04588      155.477     310.5225      1.888     4.17     821.8545     54.70745     142.7473        12     1.290     0.640  51.97   0
       561    283.4182    188.5665 307.8175830  +6.6034366     35670.04     52184.75     54992.04      77.3061     155.0452      310.183      1.602     3.24     826.1221     54.70745     5835.646        57     1.502     1.148  50.08   0
       562    258.6801    189.5812 307.8278258  +6.6021865     7010.082     10438.08     11326.15     77.42989     154.9216     310.2756      1.600     3.37     826.6985     54.70745     1045.981        32     1.360     1.064  47.28   0
       563    609.9213    189.6328 307.6819039  +6.6139471     615.9081     1173.284      1667.78     77.67687     155.2304     310.3682      1.648     4.26     820.9504     54.70745      127.327         5     1.164     0.444   9.99   0
       564    712.3532    187.7168 307.6394123  +6.6181660     972.8832     1329.395      1412.44     77.80007     155.2304     310.3682      1.483     3.82     822.3786     54.70745     156.6367        10     1.111     0.743  26.79   0
       565    407.4984    184.0614 307.7661872  +6.6094622     52170.64     77187.03     80752.02     77.55347     155.2304     310.4916      1.573     3.18     822.2867     54.70745     8136.615        69     1.556     1.163  50.39   0
       566    163.3898    185.3171 307.8675558  +6.6007431     4442.696     6510.177     6621.724     77.42989     154.9216     310.2139      1.564     3.17     827.5817     54.70745     714.2798        26     1.343     0.985  52.46   0
       567    424.6990    184.5522 307.7590248  +6.6098367     1503.372     2053.066     1968.303     77.80007     155.1069     310.5533      1.487     3.52     821.7948     54.70745     210.8199        17     1.223     0.880  49.91   0
       568    311.4588    181.7603 307.8061633  +6.6071881     19226.06     28395.82     30228.43     77.80007     155.2921     310.4608      1.587     3.16     825.1361     54.70745     3071.423        47     1.480     1.113  47.72   2
       569    318.8685    181.7581 307.8030851  +6.6074379     2172.606     3468.726      4294.38     77.67687     155.1687     310.4608      1.673     3.35     824.8611     54.70745     355.1849        22     1.329     0.997  39.98   3
       570    746.7753    180.3380 307.6253588  +6.6223632     34958.03     49931.38     52343.01     77.42989     155.1687     310.2756      1.520     3.20     822.2578     54.70745     5775.644        58     1.497     1.090  50.90   0
       571    694.8746    182.1879 307.6468594  +6.6198637     1117.328     1572.085     1508.378      77.3061     154.9216     310.1521      1.460     3.69     822.0497     54.70745     189.4516        12     1.193     0.668  55.56   0
       572    577.5810    182.9255 307.6955650  +6.6156329     598.4636     883.0568     1313.722     77.42989     155.1069     310.3065      1.316     2.19     820.4904     54.70745     132.6435         6     0.752     0.490 -83.99   0
       573    795.1288    180.7508 307.6052558  +6.6238091     1141.553     1747.511      2161.77     77.80007     155.2304     310.3991      1.579     4.01      821.857     54.70745     187.3352        12     1.260     0.613  54.73   0
       574     34.6242    180.5534 307.9212085  +6.5983755     682.5203     1252.051     1520.855     77.42989     155.2304     310.2448      1.869     5.64     830.6879     54.70745     116.4581         8     1.441     0.621  44.90   0
       575     63.5753    177.4629 307.9092861  +6.6006262      9824.61     14651.64     15212.47     77.42989     155.2304     310.3374      1.604     3.07     829.6844     54.70745     1591.285        38     1.422     1.100  49.83   0
       576    319.8878    176.9547 307.8028235  +6.6094550     633.4308     1138.675     1752.358     77.80007     155.1069     310.3682      2.182     3.67     824.7726     54.70745     102.2515         5     0.635     0.609 -81.04   0
       577   1004.8782    174.5648 307.5183184  +6.6333649     1155.232     1674.845     1645.936     77.67687     155.2921     310.3991      1.477     3.02     820.6718     54.70745     218.8784        12     1.061     0.744  67.26   0
       578     97.2941    175.5291 307.8953438  +6.6025596     1550.463     2302.755     2303.136     77.80007     155.2921     310.3682      1.555     2.77     828.4873     54.70745      289.731        15     1.144     0.895  43.41   0
       579    730.7073    168.1635 307.6324429  +6.6268518     543.4576     726.3136      308.751     77.92307     155.1069     310.4299      1.328     3.48     821.8557     54.70745     97.53101         5     0.991     0.352  45.27   0
       580   1006.0035    160.8333 307.5183103  +6.6390712     2376.726     3450.534     3955.497     77.05792     155.1069     310.1521      1.551     3.32      820.191     54.70745     377.1534        21     1.320     0.886  55.47   2
       581    580.4193    164.6601 307.6949995  +6.6232682     864.9622     1171.062     701.8693     77.42989     155.1069     310.2448      1.192     2.60     820.0091     54.70745       136.05         7     0.881     0.479  80.83   0
       582    588.9983    158.4609 307.6916435  +6.6261147     979.3239     1525.007     1846.852     77.18211     155.0452     310.0904      1.486     3.62     819.9506     54.70745     206.2891        10     1.204     0.649  61.50   0
       583    597.5234    156.6107 307.6881638  +6.6271639     2002.311     2975.436     3230.755     77.42989     154.8598     310.2139      1.601     3.29      820.058     54.70745     361.5263        16     1.235     0.804  46.94   0
       584    282.3048    154.7945 307.8191835  +6.6173405     31850.43     47231.34     50041.36     77.55347     154.9216     310.1521      1.589     3.11     825.7388     54.70745      5201.55        56     1.508     1.147  51.02   0
       585    341.5011    156.3860 307.7945371  +6.6186717     1112.444     1770.929     2378.468     77.67687     154.9834     310.1213      1.772     3.38     823.8572     54.70745     186.8596        10     1.012     0.789  17.09   0
       586     27.6112    153.3065 307.9250422  +6.6093867     4788.729     7074.925      7442.52     77.55347     154.9216     310.1521      1.589     3.21     831.0512     54.70745     764.3386        32     1.437     1.112  50.24   0
       587    714.0000    151.5262 307.6399424  +6.6331612     8509.029     12094.94     12748.62     77.05792     154.6122     310.1521      1.515     3.45     821.0536     54.70745     1409.092        35     1.464     0.966  53.28   0
       588    191.2842    152.5992 307.8570712  +6.6151873     968.8071     1431.596     1104.109     77.05792      154.736     310.0595      1.463     3.92      827.187     54.70745     195.5405         9     1.197     0.578  57.50   0
       589    267.8415    149.6014 307.8253672  +6.6189983     846.9561     1182.808     966.6409     77.18211     154.9216     310.0595      1.444     5.16     826.0502     54.70745     149.7459         8     1.008     0.746  44.78   0
       590    124.7830    148.4646 307.8848377  +6.6146570     5145.001     7559.675     7758.181      77.3061     155.1687     310.2448      1.566     3.35     827.3939     54.70745     770.6854        29     1.379     1.043  52.82   0
       591    586.5977    146.5976 307.6930394  +6.6309316     852.7397     1224.938     1335.965     77.18211     154.7979     310.0595      1.586     3.42     819.5718     54.70745      156.136        10     1.030     0.724  57.26   0
       592    652.2579    145.3820 307.6658006  +6.6336318     828.0506     989.3545     786.3909     77.42989     155.1687     310.1213      1.343     3.21     820.3923     54.70745     160.8881         7     0.938     0.520  57.72   0
       593    463.5553    145.5727 307.7441933  +6.6272311     1440.074      2025.84     2154.904     77.42989     155.2921     310.2756      1.361     2.46     819.4796     54.70745     265.2308        13     0.949     0.772  48.01   0
       594    395.3757    144.6271 307.7725508  +6.6253343     4047.986     6442.326     6866.662      77.3061     155.0452     310.2139      1.725     3.54     821.8715     54.70745     558.6041        27     1.393     1.045  55.57   0
       595    359.7473    143.4005 307.7873940  +6.6246448     3355.679     4964.274     5039.866     77.05792     154.7979     309.9359      1.536     2.99     823.2219     54.70745      530.405        24     1.370     0.900  59.04   0
       596    572.5099    143.2549 307.6990048  +6.6318397     726.0508     1190.254     1197.555     77.67687     155.0452     310.4916      1.702     6.44     819.2809     54.70745     114.2193         9     1.259     0.925 -27.32   0
       597    114.1388    143.2549 307.8894355  +6.6164493     1825.452     2747.209     2764.037     77.92307     155.1687     310.3374      1.583     3.40     827.4288     54.70745     293.2407        14     1.164     0.779  55.25   0
       598    942.0171    142.2607 307.5455170  +6.6446039     478.8319     647.5458     256.2933     77.42989     155.1687      310.183      1.388     3.63     819.1609     54.70745     84.34259         5     0.806     0.493  57.07   0
       599    750.0831    141.1649 307.6252984  +6.6386452     651.4787     666.1474     619.9888     77.80007     155.2304     310.3065      1.189     4.01     820.2311     54.70745     120.9726         6     0.804     0.573  37.27   0
       600    675.6141    140.9218 307.6562465  +6.6362547      808.101     1236.937     1222.022     77.42989     154.9834      310.183      1.908     4.52     820.4605     54.70745     123.9546         7     0.933     0.624  39.18   0
       601   1006.5699    137.4520 307.5188571  +6.6487424     1549.014     2180.973     1902.488     77.55347     155.3537     310.3065      1.529     3.19     818.3891     54.70745     218.6111        15     1.054     0.886  44.39   0
       602    732.3643    137.2673 307.6327909  +6.6396617     563.3962     695.1648     589.4767     77.67687     155.3537     310.4299      1.342     4.67      820.113     54.70745     97.27991         6     1.250     0.496  42.76   0
       603    673.5226    131.2513 307.6574401  +6.6401769     6636.473     9501.501     9906.909     77.80007     155.2921     310.3682      1.515     3.13     819.8987     54.70745     1187.174        29     1.374     0.947  51.94   0
       604    211.6828    132.3786 307.8492787  +6.6242203     5867.438     8530.008     8293.575     77.55347     154.9216     310.2756      1.544     3.03     826.8466     54.70745     869.3135        28     1.375     0.969  52.19   0
       605     94.3708    132.0509 307.8980260  +6.6204090     2232.485     3344.186     3422.262     77.42989     155.3537     310.2756      1.596     3.43     827.6433     54.70745      382.486        17     1.260     0.807  39.80   0
       606    821.3892    130.8525 307.5960181  +6.6452857     1194.026     1710.853     1460.579     77.18211     155.1687     310.1213      1.525     4.20      819.193     54.70745     204.9369        11     1.202     0.678  57.58   0
       607    625.7239    128.5090 307.6773913  +6.6397090     10010.65     14576.48     15820.83     77.80007      155.477     310.3991      1.607     3.07     819.3418     54.70745     1748.937        36     1.478     1.031  47.42   0
       608    563.1883    127.7701 307.7033979  +6.6379197     806.9394     1178.731     1675.453      77.3061     154.9834     310.2448      1.497     3.31      818.786     54.70745     139.8333         8     0.818     0.688  52.93   0
       609    352.7957    124.1333 307.7909309  +6.6323651      3702.68     6090.115     6422.003     77.18211     154.9216     310.1521      1.718     3.34     823.5034     54.70745     552.3506        30     1.441     1.203  86.99   0
       610     24.2646    127.1466 307.9273163  +6.6200727     1014.285     1457.602     1214.569     77.80007     155.1687     310.3374      1.514     3.30     831.1378     54.70745     158.6307        10     0.895     0.822 -89.13   0
       611    534.2890    123.5449 307.7155467  +6.6386957     1894.508     2641.708     2430.872     77.80007     155.1069     310.4916      1.461     3.23     818.5666     54.70745     342.7307        15     1.078     0.949  68.18   0
       612    629.2537    120.0163 307.6762100  +6.6433331     56465.69     82149.74      86272.3      77.3061     155.2304     310.0904      1.528     3.18     818.9799     54.70745     9418.062        68     1.524     1.136  53.64   0
       613    999.2282    122.9803 307.5223918  +6.6544718     682.3632     1098.907     667.4819     77.42989     155.0452     310.3065      1.775     5.73     817.4355     54.70745     87.74414         9     1.161     0.795  11.17   0
       614    308.1830    113.6640 307.8098182  +6.6351887     3846.398     5920.926     6881.876      77.3061     155.1687     310.2139      1.635     2.94       824.55     54.70745     681.5714        33     1.597     1.116  33.84   0
       615    503.3911    111.1208 307.7288016  +6.6427889     689.7332     925.8093      864.282     77.42989     154.8598     310.2139      1.484     5.01     818.3505     54.70745     87.72864         6     1.129     0.630  71.81   0
       616      6.0298     96.9019 307.9359136  +6.6319432     732466.4      1569826      1709042     77.92307     154.9834     294.9579      2.181     5.20     832.0195     54.70745     61651.88       368     2.140     1.827  62.30  28
       617    708.1922    108.2010 307.6438092  +6.6508523     997.0571     1503.712     1620.519     77.18211     154.9216      310.183      1.541     4.69     818.4368     54.70745     169.7081        11     1.238     0.701  47.01   0
       618    679.4976    107.0784 307.6557691  +6.6503557     1491.567     2067.626     2447.558     77.55347     155.4154     310.3991      1.523     3.38     818.5176     54.70745     264.8387        13     1.175     0.670  50.93   0
       619    693.6994    103.9761 307.6499726  +6.6521116     3085.739     4356.039     4348.413     77.92307     154.9834      310.183      1.475     3.38       818.27     54.70745     536.5806        22     1.365     0.888  48.26   0
       620    435.4117     94.9692 307.7575885  +6.6471768     4318.089     6249.525     6432.321      77.3061     154.9834     310.2756      1.556     3.26      818.701     54.70745     648.2783        25     1.273     0.989  51.06   0
       621    907.8007     90.3834 307.5614708  +6.6648780     4068.054      5831.25     5911.781     77.42989     154.7979     310.0595      1.475     3.15     816.9785     54.70745     650.3932        23     1.374     0.841  52.13   0
       622    889.7046     91.1080 307.5689654  +6.6639747      2324.79     3101.122     3196.334     77.80007     155.7847     310.3374      1.350     3.05     817.1832     54.70745     365.9525        16     1.163     0.767  54.38   0
       623    587.8230     90.4851 307.6944156  +6.6541367     833.7023     1055.669     1149.079     77.80007     154.9834     310.2448      1.288     3.70     817.9188     54.70745     140.0011         7     0.889     0.634 -59.34   0
       624    600.0555     88.8687 307.6893875  +6.6552136      1777.59     2712.628     2736.227     77.80007     155.1069     310.3374      1.582     3.59     817.8916     54.70745     272.5704        16     1.263     0.786  57.57   0
       625    398.6485     86.7455 307.7731394  +6.6493381     2037.849     2800.814     2673.853     77.80007     155.2304     310.4299      1.420     3.13     820.1823     54.70745     309.0471        16     1.113     0.860  52.59   0
       626    245.9343     87.7722 307.8365527  +6.6437854     922.1381      1122.07     1715.819     77.42989     155.2304     310.3065      1.311     3.86     825.5596     54.70745     125.4429         9     0.935     0.703 -29.76   0
       627    146.6502     83.6228 307.8779413  +6.6421594      3282.62     4826.703       4677.6     77.42989     155.2921     310.2756      1.566     3.25     825.3021     54.70745     483.8694        23     1.279     0.957  48.18   0
       628     28.5389     81.4758 307.9270835  +6.6390693     13468.37     19690.79     21137.55     78.04588     155.2304     310.3682      1.620     3.19     829.5444     54.70745     2113.116        41     1.508     1.060  52.16   0
       629    295.0512     82.1310 307.8163365  +6.6477646     1422.731     2387.451     3029.518     77.67687     155.1069     310.3065      1.774     3.88     824.3823     54.70745     206.0053        14     1.315     0.684  44.18   0
       630    555.2639     80.8970 307.7082656  +6.6570041     861.6427     1133.011     871.6097     77.67687     155.3537     310.3991      1.163     3.57     817.8967     54.70745     142.5828         9     1.035     0.595  86.05   0
       631    763.9189     80.8272 307.6215737  +6.6640163     754.6503     1383.671     1892.878     77.67687     155.0452     310.3991      2.118     4.98      817.284     54.70745     147.2777         8     1.057     0.663  16.09   0
       632    568.3691     80.9708 307.7028181  +6.6574127     827.7385     989.8533     616.7153      77.3061     154.9834     310.1213      1.371     3.42     817.8676     54.70745     149.4844         8     0.869     0.652   1.30   0
       633    949.1353     79.8503 307.5446488  +6.6706058     612.8881     758.0136     734.2959     77.67687     155.1687     310.3991      1.271     2.16     815.9321     54.70745     130.7784         6     0.726     0.533 -35.35   0
       634    986.4320     79.5834 307.5291608  +6.6719603     507.5195     950.4346     891.2399     77.42989     154.9834     310.2448      1.764     4.25     814.9317     54.70745     85.50128         5     1.045     0.493   0.72   0
       635    775.4529     76.5933 307.6169234  +6.6661497     3456.061     5137.566     5198.087      77.3061     155.0452     310.0904      1.583     3.01     817.1971     54.70745     666.7045        24     1.365     0.959  56.65   0
       636    830.2761     76.1247 307.5941600  +6.6681753     6668.958     9438.721     9707.971     78.04588      155.477     310.4608      1.501     3.20     817.0678     54.70745     1204.816        28     1.371     0.913  52.18   0
       637    896.9510     77.0157 307.5664266  +6.6700342     631.8984     809.2126     802.9409      77.3061     155.2304     310.0904      1.258     2.99     816.6817     54.70745      109.942         5     0.645     0.572  89.50   0
       638    420.2784     76.5710 307.7644952  +6.6542641     1084.262     1647.227     1724.036     77.67687     155.2304     310.3991      1.566     3.26     818.8755     54.70745     178.3864        12     1.081     0.736  60.71   0
       639     99.7981     76.7669 307.8976377  +6.6434128     547.7716     772.6174      621.094     77.05792     155.0452     310.1521      1.332     3.97     826.2274     54.70745     100.9863         6     0.770     0.586  52.68   0
       640    537.4727     74.2604 307.7158807  +6.6591476      1279.75     1554.748     1979.612     77.92307     155.2304     310.3991      1.316     3.74     817.9059     54.70745     186.3167        11     1.132     0.649  51.50   0
       641     68.6853     73.3541 307.9106789  +6.6437741     3458.399     4933.025     4579.019     77.80007     155.1687     310.3682      1.498     2.99     827.3098     54.70745     525.5214        22     1.211     0.922  65.65   0
       642     53.6398     74.5003 307.9168909  +6.6427942     944.8414     1256.621     766.9747     77.80007     155.1069     310.5842      1.528     4.78     828.0425     54.70745     169.9098        12     1.329     0.695  51.93   0
       643    430.0936     72.8164 307.7605435  +6.6561433     1038.843     1651.688     2141.609     77.55347     155.0452     310.2139      1.637     3.18     818.7495     54.70745     163.7427        11     0.973     0.766  51.15   0
       644    592.5255     70.1782 307.6931441  +6.6626771     1420.759     1960.853     1668.632     77.42989     155.1069     310.3065      1.508     3.30      817.689     54.70745     227.0245        16     1.250     0.779  69.85   0
       645    263.3648     70.3405 307.8298986  +6.6515670     479.5144     874.3875     1394.089     77.80007     155.2304     310.3374      2.368     3.85     824.6563     54.70745     75.40436         5     1.016     0.418  75.04   0
       646     11.2736     68.9013 307.9346812  +6.6436783     2592.221     4014.958     4402.545     77.42989     155.2921     310.3374      1.553     3.53     829.3376     54.70745     469.5084        23     1.540     0.807  54.91   0
       647    770.0842     63.9620 307.6195777  +6.6711846      2071.73     2995.523      2977.05     77.80007     155.1687     310.3065      1.526     3.63     816.9287     54.70745     302.2947        17     1.275     0.823  48.85   0
       648    410.3098     63.6750 307.7690710  +6.6592532     1087.343     1445.503     1541.125     77.80007      155.477     310.4299      1.325     3.30     819.3872     54.70745     201.1447         9     1.076     0.549  72.25   0
       649     83.4871     64.5224 307.9048277  +6.6479181     831.2388     1175.919     1125.713     77.80007     155.5386     310.4608      1.471     4.58     826.4012     54.70745     153.4119         8     1.140     0.523  50.19   0
       650    107.7946     62.8661 307.8947848  +6.6494201     930.6954     1301.621     1239.475      77.3061     154.9216      310.183      1.467     5.46     825.5828     54.70745     143.2841        11     1.266     0.664  67.29   0
       651     96.6002     57.6540 307.8996116  +6.6511949     9760.861     14437.66     14930.52     77.05792     154.8598      309.905      1.563     3.13     825.6625     54.70745     1546.633        38     1.445     1.066  47.79   0
       652    425.7019     57.4390 307.7628857  +6.6623439      2749.24     3990.903     4066.826     77.80007     155.1069     310.5842      1.484     3.17     818.7945     54.70745     425.5702        19     1.339     0.790  48.25   0
       653    246.0007     56.3157 307.8375857  +6.6567729     537.0884     702.5589     1325.614     77.05792      154.736     310.0595      1.679     4.68     824.4096     54.70745     82.67822         5     1.037     0.599  71.66   0
       654    263.1663     51.7113 307.8306090  +6.6592505     1723.906     2557.192     3676.551     77.92307     155.1687     310.3682      1.527     2.91     824.1342     54.70745      267.124        17     1.065     0.941  51.46   0
       655    639.3627     49.7247 307.6743705  +6.6726889     19974.99     28498.69     30022.27     77.67687     155.2921     310.3991      1.528     2.99     817.0901     54.70745     3691.627        42     1.466     1.014  52.50   0
       656    668.8810     50.4387 307.6620816  +6.6733822     558.5095     897.6202     1015.263     77.80007     155.2921     310.3065      1.580     3.71     816.8035     54.70745     111.1537         5     0.910     0.592 -80.56   0
       657    948.1993     49.3440 307.5460591  +6.6831682      429.865      532.546     446.0902     77.05792     154.9216     310.0595      0.986     3.58     814.7944     54.70745     92.74072         5     0.945     0.391 -84.66   0
       658    539.2375     45.8287 307.7161032  +6.6709436     5461.156     8097.736     8035.378      77.3061     154.9834     310.2448      1.561     3.48      817.739     54.70745     890.3277        29     1.351     1.043  45.34   0
       659    257.3368     46.1381 307.8332189  +6.6613553     2125.356     3403.754     5012.852     77.80007     155.2304     310.3991      2.025     3.92     823.9919     54.70745     317.6099        18     1.421     0.776  60.86   1
       660      6.4339     43.8856 307.9375372  +6.6538416     1251.223     1802.086     1918.513     77.80007     155.1069     298.4761      1.568     3.53     827.3069     54.70745      209.978        12     1.139     0.698  53.64  16
       661    625.7789     40.1431 307.6803364  +6.6761895     3327.974     5714.861     6716.315     77.42989     155.1687      310.183      1.947     5.07      817.051     54.70745     619.1976        33     2.265     0.863  65.78   0
       662    444.7110     41.3678 307.7555285  +6.6696159     23875.34      34752.7     36521.24     77.92307     155.0452     310.3682      1.571     3.17     818.5285     54.70745     3726.921        52     1.514     1.113  47.66   0
       663    265.3326     41.7371 307.8300452  +6.6634407     9691.341     14687.98     16175.23     77.80007     155.2304     310.3991      1.645     3.30     823.8368     54.70745     1592.457        40     1.486     1.109  50.70   0
       664    324.9182     41.9968 307.8052797  +6.6653354     1063.571     1663.358     2395.633     77.18211     154.8598     310.0904      1.781     4.61     823.3729     54.70745     159.6735        11     1.349     0.543  33.45   0
       665     30.5092     41.2822 307.9276229  +6.6557274     2444.627     3486.722     3133.938     77.55347      155.477     310.4299      1.474     3.40     826.5052     54.70745     416.6801        19     1.291     0.844  49.44   0
       666    922.4373     41.2814 307.5570336  +6.6856368      1989.73     2775.642     2861.428     77.80007     155.2921     310.3374      1.460     2.74      815.351     54.70745     440.5828        17     1.152     0.843  42.22   0
       667    529.6608     41.6733 307.7202220  +6.6723381     752.2255     954.1354     727.8165     77.92307     155.2304     310.3991      1.312     4.16     817.7659     54.70745     140.9923         7     1.101     0.449  57.59   0
       668    557.3984     40.8411 307.7087251  +6.6736111     750.7314     937.6483      800.499     77.18211     154.9834     310.0904      1.321     4.81      817.599     54.70745     124.5724        10     1.126     0.714  43.68   0
       669    253.1541     38.3182 307.8352204  +6.6644427     3234.035     4967.803     5725.844     77.80007     155.2304     310.3682      1.679     3.56     823.7485     54.70745     526.6232        21     1.278     0.905  62.05   0
       670    306.4586     36.1894 307.8131450  +6.6671126     1030.849     1674.499     1918.944     77.18211     155.1069     310.0904      1.680     5.51     823.4779     54.70745     135.0278        12     1.281     0.669  57.24   0
       671    943.0895     31.4843 307.5487803  +6.6903705     952.1927     1390.161     1202.715     77.55347      155.477     310.4608      1.380     3.86     814.3469     54.70745     187.0686        10     1.174     0.563  46.83   0
       672    694.4676     30.9081 307.6521059  +6.6823009     1752.285      2411.49     2407.487     77.67687     155.3537     310.3991      1.463     3.35      816.277     54.70745     308.8766        15     1.242     0.792  69.16   0
       673     99.4146     30.9061 307.8993455  +6.6623310     701.2796     1027.452     380.9779     77.55347     154.9834     310.2139      1.332     5.10     824.7194     54.70745      111.066         9     1.293     0.568  60.28   0
       674    647.8210     27.9294 307.6715880  +6.6819695      1333.64     1122.881     862.9666     77.42989     155.1069     310.3374      0.487     0.00     816.5463     54.70745     904.9773         5     0.537     0.333  31.83   0
       675    205.7728     26.3565 307.8553097  +6.6677876     873.5889     1210.019     730.0389     77.42989     155.2921     310.2756      1.560     4.66      823.308     54.70745     145.3549         8     1.057     0.584  58.21   0
       676    260.2502     25.7913 307.8326944  +6.6698524     837.2067     1541.236     2468.969      77.3061     155.1069     310.0595      2.248     3.07     823.3715     54.70745     137.9041         9     0.942     0.779  56.46   0
       677    182.8263     23.7853 307.8649303  +6.6680773     11284.29     16875.74     17606.89     77.55347     155.0452     310.3065      1.567     3.23     823.2863     54.70745     1617.986        42     1.466     1.095  53.83   0
       678    928.4806     21.5671 307.5551827  +6.6939770     4436.127     6405.833     6694.303     77.67687     155.1687     310.3682      1.549     3.15      814.723     54.70745     806.1477        26     1.429     0.909  48.40   0
       679    526.9490     21.9260 307.7220127  +6.6803991     3044.676     4278.316     4324.042     77.80007     155.2921     310.3991      1.445     3.16     817.6825     54.70745     477.5167        20     1.340     0.815  47.40   0
       680    729.2920     20.0504 307.6380003  +6.6879480      2210.34     3025.798     2498.117     77.67687     155.1069     310.5533      1.431     3.28     816.0538     54.70745     369.6122        17     1.245     0.771  50.09   0
       681    465.2095     20.2624 307.7477215  +6.6790159     1803.796     2662.423     2140.878     77.18211     155.0452      310.183      1.539     3.20     818.2174     54.70745     317.1252        16     1.244     0.809  39.88   0
       682    720.4672   1018.3250 307.6081934  +6.2755412     2688.544     4231.773     4579.375     77.92307     155.3537     300.4271      1.739     4.17     849.0016     54.70745     371.3212        23     1.417     0.992  74.01  16
       683    237.2719     18.3355 307.8424929  +6.6721577     426.3478     607.6655     1018.114     77.80007     155.2304     310.3991      1.157     3.80      822.989     54.70745     93.16119         5     0.962     0.432 -82.85   0
       684    715.0025   1020.4799 307.6103900  +6.2744689     954.5197     1624.155      2229.91     77.18211      154.736     278.3873      2.352     4.01     849.1155     54.70745     127.1708        11     1.082     0.877  29.54  17
       685    245.2304   1019.8884 307.8054445  +6.2589741      1373.96     1969.697     1878.314     77.92307     155.0452     285.3191      1.532     3.68     849.2381     54.70745     216.4318        14     1.183     0.794  50.08  16
       686    443.6170   1019.2160 307.7231047  +6.2659071     955.3723     1414.381     1036.526     77.55347     154.9216      292.316      1.592     5.03     850.8221     54.70745     147.0285        11     1.079     0.850  69.33  16
       687    736.0201   1017.2861 307.6017708  +6.2764899     1113.639     1721.566     1944.079     77.55347     154.9834     307.4539      1.733     4.05     848.7698     54.70745     160.8065        12     1.074     0.842  66.79  16
       688    388.1183     11.4766 307.7800486  +6.6800562       634.15     950.1444     918.8746     78.04588      155.477     310.4916      1.379     3.35     820.6934     54.70745     129.8232         5     0.761     0.427  24.23   0
       689    367.0215   1015.8464 307.7550178  +6.2647300     1796.233     2805.042     3425.284     77.42989     155.2304     310.2139      1.698     4.06     850.7175     54.70745     267.5107        18     1.384     0.836  48.09  16
       690    215.6814   1014.4255 307.8178958  +6.2602368     529.9783     831.1245     505.7323     77.55347     154.9834     310.3682      1.247     3.40     848.5643     54.70745     96.38403         5     1.127     0.297  21.32   0
       691    617.7714   1010.4405 307.6510950  +6.2753618     579.6594     786.9887      250.059     77.42989     154.9834     310.2139      1.458     4.41     851.1105     54.70745     87.67169         6     0.942     0.586  65.45   0
       692    753.9763   1005.2490 307.5947189  +6.2820592     7866.258     12202.89     13031.49     77.42989     155.2921     310.2756      1.658     3.55     847.8232     54.70745     1060.779        36     1.484     1.132  63.10   0
       693    549.4207   1005.7827 307.6796291  +6.2749969     4318.886     6789.552     7129.126     77.55347     155.0452     310.2756      1.715     3.55     851.2111     54.70745     607.0209        32     1.486     1.095  48.54   3
       694    546.7182    998.0739 307.6810098  +6.2780888     8352.652     12780.39     13795.57     78.04588     155.5386     310.4299      1.625     3.30     850.9096     54.70745     1151.712        39     1.548     1.098  50.84   3
       695    299.7474   1004.4638 307.7833304  +6.2671718     15172.41     23392.22     25757.65     77.80007     155.1687     310.3374      1.727     3.52     849.8795     54.70745     2268.242        59     1.606     1.492 -39.29   0
       696    519.7678   1006.8606 307.6919040  +6.2735590     1107.848     1639.123     1653.624     77.55347     155.2921     310.3065      1.396     3.33     850.9999     54.70745     169.6853         9     0.969     0.607  54.17   0
       697    423.9987   1005.2108 307.7317202  +6.2710311     980.8241     1571.232     1924.991     77.42989     154.9216      310.183      1.906     4.53     850.5201     54.70745     178.4303         9     1.249     0.519  59.56   0
       698    125.3588   1005.6022 307.8556907  +6.2608439     498.6139     862.8152     549.1279     77.18211     154.9834     310.0904      1.369     3.74     847.1761     54.70745     101.7352         5     1.321     0.303  45.16   0
