#   1 NUMBER                 Running object number                                     
#   2 X_IMAGE                Object position along x                                    [pixel]
#   3 Y_IMAGE                Object position along y                                    [pixel]
#   4 ALPHA_J2000            Right ascension of barycenter (J2000)                      [deg]
#   5 DELTA_J2000            Declination of barycenter (J2000)                          [deg]
#   6 FLUX_APER              Flux vector within fixed circular aperture(s)              [count]
#   9 FLUXERR_APER           RMS error vector for aperture flux(es)                     [count]
#  12 FLUX_RADIUS            Fraction-of-light radii                                    [pixel]
#  13 FWHM_IMAGE             FWHM assuming a gaussian core                              [pixel]
#  14 BACKGROUND             Background at centroid position                            [count]
#  15 THRESHOLD              Detection threshold above background                       [count]
#  16 FLUX_MAX               Peak flux above background                                 [count]
#  17 ISOAREA_IMAGE          Isophotal area above Analysis threshold                    [pixel**2]
#  18 A_IMAGE                Profile RMS along major axis                               [pixel]
#  19 B_IMAGE                Profile RMS along minor axis                               [pixel]
#  20 THETA_IMAGE            Position angle (CCW/x)                                     [deg]
#  21 FLAGS                  Extraction flags                                          
         1    191.8138     13.9115 307.8655398  +6.6681231     5837.651      14777.2     16799.43     90.41693     180.7619     361.7397      2.447     5.69     1168.695     63.78153     674.8113        62     1.918     1.765 -83.57   0
         2    536.0826     11.7275 307.7223539  +6.6805319     1549.493     3902.522     4145.652     90.99102     181.3371     361.8836      2.402     7.29     1143.301     63.78153     188.2052        33     1.732     1.471   6.85   0
         3    937.0391     11.2272 307.5555125  +6.6940877     3000.199     5772.421     6069.869     90.27284     180.7619     361.6677      1.985     5.09      1130.84     63.78153     367.2206        31     1.560     1.279  70.18   0
         4    738.1541      9.9651 307.6383223  +6.6879946     1222.013     2701.427     3298.492     90.27284     180.9058     361.7037      2.340     7.78     1135.453     63.78153      121.719        20     1.380     1.228  69.37   0
         5    475.8514     10.9930 307.7474432  +6.6788251     744.1884     1518.035     2257.578     90.12852     180.7619     361.4157      2.634     4.31     1145.483     63.78153     132.3312         7     1.012     0.601  89.26   0
         6   1001.8583      7.7283 307.5286552  +6.6976858     1581.935     2894.564     3063.196     90.84784     180.9778     358.5589      1.872     4.57     1120.808     63.78153     198.1953        20     1.376     1.048 -76.55  16
         7    721.4113      4.2139 307.6454843  +6.6898127     4683.772     10726.31     11589.81     90.41694     179.8232     320.4449      2.276     5.46     1136.027     63.78153     467.2365        46     1.802     1.504 -89.65  24
         8    641.5049      3.5702 307.6787591  +6.6874167     2290.842     5194.212     5712.217     90.84784     174.6822     310.7097      2.246     5.88     1139.624     63.78153     240.6012        34     1.622     1.430 -81.26  24
         9    441.8643      1.8169 307.7618975  +6.6814805     2350.335     3900.399     3923.758     85.07606     152.2229     281.2874      1.785     6.66     1148.761     63.78153     318.4196        20     1.574     0.905   1.74  24
        10     42.8392      1.6848 307.9279457  +6.6681812     3070.003     4237.369     3920.511       83.843     149.8961     278.9172      1.514     4.66     1172.966     63.78153     485.3234        18     1.459     0.787  -4.49  24
        11    376.4028   1005.3116 307.7551296  +6.2647850     1500.147      2639.26     2703.243     89.98397     180.6178     361.5237      1.986     6.16      1206.84     63.78153     166.4106        15     1.261     0.913  52.15   0
        12    904.1985   1023.4810 307.5350527  +6.2748559     1022.666     973.3688     720.1432     80.51646     146.2921     275.5362      0.989     2.50     1199.582     63.78153     242.1711         6     0.703     0.617 -46.09  24
        13    730.1376   1020.1435 307.6075428  +6.2704482     6933.795     10692.15     10871.95     90.84784     180.9058     329.5771      1.631     3.56     1203.485     63.78153     864.9077        32     1.414     1.122 -75.36  24
        14    597.2858   1022.8649 307.6626920  +6.2649010     60170.32     78440.09     80791.88     88.67239     157.1875     286.9687      1.437     3.59     1204.807     63.78153     7653.104        49     1.336     1.073  -6.10  24
        15    226.9695   1022.8186 307.8166695  +6.2525607     1821.313     2409.784     2209.041     88.52546     157.4358     287.7841      1.440     3.90     1207.613     63.78153     219.4452        13     1.042     0.863 -33.14  24
        16    627.6020    998.8931 307.6508960  +6.2758130      556.494     1161.627     1165.334     90.12852     180.6178     361.5237      1.737     4.10     1203.017     63.78153     122.6118         5     1.486     0.323 -50.65   0
        17    558.4467    995.4853 307.6797670  +6.2749166     3908.542     6436.924     7098.898     90.70443     180.9058     361.8477      1.849     4.10     1204.931     63.78153     426.2845        28     1.396     1.207 -75.91   1
        18    529.1059    996.8747 307.6919203  +6.2733647     967.0308     1434.962      990.189     90.41694     181.1935     361.8477      1.606     5.51     1205.626     63.78153     125.3722         9     1.102     0.777  87.17   0
        19    762.9062    994.8577 307.5947700  +6.2819833     7515.307     11885.09      12206.2      90.5608     180.9778     362.0275      1.661     3.67     1201.338     63.78153     920.9554        34     1.453     1.138 -75.92   0
        20    308.8431    994.2487 307.7835956  +6.2670983     12587.07     22567.08     25255.76     90.70443     180.9058     361.7757      1.970     4.15     1206.891     63.78153     1324.891        60     1.792     1.448 -50.29   0
        21    433.3669    994.4237 307.7318124  +6.2711839      760.265     1129.466     1229.666     90.12852     180.8339     361.6317      1.952     5.56     1206.194     63.78153     92.36853         8     1.300     0.670  78.27   0
        22    823.8510    993.3882 307.5694772  +6.2846168     979.9753     1478.023     1832.433     89.98397     180.8339     361.5237      1.668     4.82     1200.232     63.78153     145.4758        10     1.085     0.691  38.30   0
        23    279.8520    991.9249 307.7957288  +6.2670895     993.4557     1852.688     1634.136     90.70443     181.0497     361.8477      1.676     6.74     1206.877     63.78153     126.8248        14     1.298     0.982 -39.42   0
        24    924.2554    988.1451 307.5279027  +6.2901186      9511.75     14298.73     15206.74     90.99102     180.9778     361.8477      1.621     3.40     1196.292     63.78153     1322.775        34     1.473     1.069 -75.17   0
        25    555.6422    987.7220 307.6811956  +6.2780300     7237.905     12606.25     13056.55      90.5608     180.9778     361.9196      1.859     4.04     1204.667     63.78153     790.0424        38     1.482     1.311 -81.04   0
        26    897.8446    984.3685 307.5390124  +6.2908014     12686.86      19564.5     20442.11     90.27284     181.0497     361.7037      1.634     3.39     1196.832     63.78153     1644.373        43     1.483     1.172 -68.45   0
        27   1019.5423    983.8652 307.4884231  +6.2950494     5270.761     7108.005     6993.728     90.84784     180.9058     337.1914      1.454     3.33     1194.579     63.78153     716.2809        22     1.315     0.869 -75.87  16
        28    610.7194    984.6428 307.6583975  +6.2811371     1187.819     1912.887     1425.141     90.70443     180.9778     361.8117      1.588     4.40     1202.897     63.78153     209.0597        12     1.350     0.789  76.28   0
        29    542.2166    983.5566 307.6869190  +6.2793031      3571.69     6512.092     7150.799     90.12852     180.8339     361.5957      1.949     4.16     1204.836     63.78153     385.1528        30     1.451     1.228 -78.39   0
        30    651.7886    982.8014 307.6413823  +6.2832656     1245.377     1893.859     1680.503     90.27284     180.6178     361.6317      1.622     5.43     1201.558     63.78153     162.0345        14     1.159     0.931  55.74   0
        31     77.0542    982.0587 307.8803854  +6.2643806     814.3799      1502.16     1738.688     90.84784     180.9058     361.8477      2.140     5.01     1206.693     63.78153     105.2471         8     1.135     0.625  60.69   0
        32    807.5452    981.2448 307.5766671  +6.2890910     574.9996     897.5261     1112.907     90.70443     180.9778     361.8836      1.631     3.45     1199.774     63.78153     92.82446         5     0.745     0.463 -71.66   0
        33    495.3098    979.8755 307.7065481  +6.2792597     2101.969     3442.341     2735.732     90.70443     181.2653     361.8836      1.710     4.19     1205.139     63.78153     256.6488        22     1.244     1.179 -55.54   0
        34    929.6398    971.9396 307.5262095  +6.2969916     45437.27     67991.29     70795.52     90.70443     180.9778     361.9196      1.605     3.38      1195.04     63.78153     5585.823        59     1.478     1.191 -79.62   0
        35      2.9861    972.1622 307.9115180  +6.2659873       2807.2     4687.011     4808.506     90.27284     168.3833     301.3082      1.768     4.04     1206.481     63.78153     326.8591        25     1.417     1.052  80.88  24
        36    237.2182    970.5848 307.8141795  +6.2744792     1543.361     2477.608     2670.639     90.41694     180.6178     361.7397      1.848     4.94     1206.414     63.78153     161.7045        16     1.118     1.025 -76.01   0
        37    827.4493    965.7823 307.5689117  +6.2961399     2155.788      3762.26     3826.035     90.12852     181.0497     361.6317      1.847     4.50     1197.714     63.78153     272.9829        22     1.432     1.063 -70.54   0
        38    635.5521    968.2724 307.6486245  +6.2887264     800.3084     994.0696     698.7588     90.70443     181.0497     361.8836      1.439     3.62     1201.327     63.78153     124.0139         7     0.951     0.702 -40.55   0
        39    775.8408    963.6407 307.5904446  +6.2953086     6123.781     10390.03     11850.63     90.41694     180.9778     361.7037      1.858     3.64     1198.594     63.78153     767.0431        38     1.531     1.271 -78.51   0
        40     70.5093    961.0886 307.8838189  +6.2728233     2316.082     4002.606     3932.887     90.70443     181.5523     361.9556      1.882     4.75     1206.161     63.78153      270.428        23     1.495     1.027 -76.49   0
        41    563.2991    962.0773 307.6788786  +6.2888783     711.1592     1421.949     1331.443     90.27284     181.1935     361.8836      2.221     6.15     1203.271     63.78153     100.2949         9     1.739     0.612 -36.70   0
        42    245.7617    962.5914 307.8108981  +6.2780666     1245.822     1928.309     2185.921     89.83919     180.6898     361.5237      1.873     5.50     1206.317     63.78153     146.1309        12     1.096     0.780  61.74   0
        43    209.6160    962.1450 307.8259428  +6.2770424     789.7394     1616.848     2098.774     89.98397     180.9058     361.5237      2.016     6.72     1206.119     63.78153     85.76685        10     1.200     1.056  54.42   0
        44    963.9436    958.7083 307.5123902  +6.3035962     7210.894     10683.71     11852.03      90.5608     180.9058     361.9915      1.588     3.49     1193.571     63.78153     946.8816        30     1.360     1.044 -78.23   0
        45    220.6331    955.1236 307.8216000  +6.2803111      648.288     1047.452     1384.866      90.5608     180.9778     361.8117      1.573     4.24     1205.946     63.78153     103.8721         6     1.350     0.379 -76.71   0
        46    937.6691    950.1693 307.5236038  +6.3062511     2278.353     3001.505     3277.213      90.5608     180.9778     361.8117      1.447     3.34     1193.413     63.78153     324.2515        15     1.100     0.859 -80.16   0
        47    270.9164    946.8210 307.8009733  +6.2854216     3591.187     6573.102     6706.856     90.41693     180.6178     361.7037      1.885     4.51     1206.329     63.78153     400.5626        34     1.642     1.218  89.83   0
        48    658.4029    946.4468 307.6398597  +6.2985030     4073.529     6872.297     7090.902     89.98397     180.6178     361.4157      1.824     4.20     1199.253     63.78153     414.4602        28     1.433     1.119 -68.43   0
        49    797.3301    946.5368 307.5820853  +6.3030885     1255.229     2142.537     2412.477     90.70443     180.9778     361.9196      1.791     5.01     1197.016     63.78153     172.2574        12     1.036     0.928 -83.00   0
        50   1007.9388    945.8174 307.4945288  +6.3103813      795.498     1241.799     1605.945     90.27284     180.9058     361.6317      1.602     4.00     1191.786     63.78153     134.2069         7     0.980     0.616   3.33   0
        51    481.3327    944.9817 307.7135404  +6.2932071     829.1868     1356.708     768.4102     90.27284     180.9058     361.7397      1.917     5.71     1203.426     63.78153     115.8218         8     1.258     0.731 -84.53   0
        52     39.6044    944.2922 307.8972396  +6.2787261     1854.262     3211.122     3484.438     90.27284     180.6178     361.5957      1.803     4.54     1205.773     63.78153     262.9637        18     1.197     1.031 -61.59   0
        53    889.8171    943.1447 307.5437395  +6.3075636     896.8367     1398.832     768.9604     90.12852     180.9058     361.5597      1.561     3.59     1193.801     63.78153     168.6716         7     1.040     0.648 -57.77   0
        54    583.2604    939.0862 307.6713552  +6.2990405     1402.142     2663.788     2603.012     90.84784     181.1216     361.9556      1.952     7.21     1201.799     63.78153       157.36        20     1.526     1.116 -52.86   0
        55    307.9973    939.9131 307.7857886  +6.2895142     677.5149     1251.517     1699.348     89.98397     180.5457     361.5237      1.687     4.66     1206.455     63.78153     105.4667         6     1.265     0.487  76.05   0
        56   1014.8123    938.4806 307.4919174  +6.3136401     892.2815     1537.424     1608.498     90.27284     180.6178     361.6677      1.901     4.77     1191.019     63.78153     143.0323         9     1.176     0.604 -71.84   0
        57    622.2352    934.5560 307.6553012  +6.3022103     908.6646     1432.252     1138.329     90.41694     180.9058     361.7037      1.644     5.32     1200.442     63.78153     131.4565         9     1.068     0.747  51.20   0
        58    302.7023    932.9660 307.7882258  +6.2922069     1138.242     2069.863      2256.36     90.70443     180.8339     361.9915      2.030     7.00     1206.413     63.78153     138.2367        15     1.406     0.989  73.23   0
        59    769.3083    929.1119 307.5943258  +6.3093544     808.8275     1422.816     1112.582     90.70443     181.4806     361.9915      1.727     4.27      1195.55     63.78153     133.1355         7     0.973     0.665  61.66   0
        60    906.6478    925.5569 307.5373331  +6.3153879     7244.659     10704.44     11197.26     90.70443     180.9058     361.7757      1.623     3.34     1192.376     63.78153     910.1235        31     1.404     1.071 -76.33   0
        61    344.3497    921.4352 307.7712986  +6.2983612     7427.671     14047.58     14981.37      90.5608     180.9778     361.7757      1.989     4.48     1206.006     63.78153     777.4983        43     1.613     1.416 -84.49   0
        62    442.7102    922.7529 307.7303529  +6.3011007     1688.697     3133.537     3305.989     90.70443     180.8339     361.9915      1.974     5.71     1203.513     63.78153     201.5394        19     1.278     1.100 -48.13   0
        63    264.4544    920.2811 307.8045600  +6.2961684     5723.572     10817.25     11160.57     90.70443     180.9778     361.9196      1.987     4.58     1205.898     63.78153     580.4758        41     1.659     1.350 -75.29   0
        64    592.5772    914.6652 307.6683062  +6.3094387     936.3997     1569.512     974.2903     90.27284     180.9778     361.7397      1.711     6.49     1200.467     63.78153     145.4796        12     1.483     0.968  47.21   0
        65    776.6295    914.2652 307.5917822  +6.3157308     630.2222     948.0633     753.4923     90.41694     181.0497     361.7757      1.594     5.56     1195.012     63.78153      91.2229         8     1.368     0.638  -8.30   0
        66    922.2162    910.7355 307.5313582  +6.3220274     1181.894     1654.666     2018.031     90.12852     180.8339     361.7037      1.678     5.35     1191.748     63.78153     158.7856        10     0.957     0.845 -32.20   0
        67    878.8731    910.0640 307.5494054  +6.3208650     775.4456     1126.529     1136.218     90.70443     180.9778     361.8477      1.540     4.66     1192.317     63.78153     111.5981         9     0.958     0.702 -81.26   0
        68    989.3448    906.4216 307.5035873  +6.3260380     827.4436     1181.648     1231.501     90.12852     180.9778     361.6317      1.629     4.67     1189.194     63.78153     132.2725         8     1.123     0.550 -69.72   0
        69    758.5622    903.7509 307.5996502  +6.3194731     1539.084     2764.195     3032.369     90.41694     180.9778     361.7037      1.911     7.03     1194.957     63.78153     178.4509        17     1.359     1.020 -65.03   0
        70    623.5731    901.1943 307.6558720  +6.3160358     708.5114     1221.866      729.689     90.12852     180.7619     361.6317      1.913     4.45      1198.72     63.78153     91.06531         5     1.157     0.487  85.13   0
        71    990.0499    899.4779 307.5035278  +6.3289298     1293.192     1954.102     2371.861     90.70443     181.0497     361.8117      1.812     4.60      1188.64     63.78153     190.2675        15     1.252     0.944  84.51   0
        72    543.5109    900.0357 307.6892047  +6.3138465     865.9267     1560.642     1715.255     90.84784     180.9058     361.8477      1.958     7.21     1200.804     63.78153     111.4161        11     1.393     1.046 -41.51   0
        73    677.3762    897.1351 307.6336350  +6.3195042     2081.658     3780.323     4053.012     90.27284     180.9778     361.7397      1.906     4.30      1196.33     63.78153     265.3665        23     1.354     1.148  89.80   0
        74    967.5267    894.7846 307.5130525  +6.3301209      766.153     1193.657     1264.445     90.12852     180.6898     361.7397      1.686     5.14     1189.369     63.78153     120.0852         8     1.113     0.672 -87.32   0
        75    837.7206    894.7336 307.5670358  +6.3258301     675.6285     1044.703     1261.033     90.84784     181.1216     361.8117      1.698     5.93      1192.88     63.78153     119.1084         7     1.188     0.834 -53.90   0
        76    582.5689    904.2280 307.6728209  +6.3134165     551.1467     687.9648     569.3303     90.12852     180.6898     361.5957      1.515     5.19     1200.123     63.78153     86.23608         5     1.057     0.720 -14.40   0
        77    217.7720    892.5392 307.8249125  +6.3060667         1789     3579.704     3800.463     90.27284     181.0497     361.7757      2.113     6.31     1205.068     63.78153     189.0298        23     1.473     1.193 -78.75   0
        78     74.1169    893.5640 307.8846125  +6.3008357     2441.369     4420.545     4801.916     90.70443     180.9058     361.7757      1.979     4.58     1204.581     63.78153     307.5354        25     1.408     1.161  81.83   0
        79    955.7207    892.4200 307.5180418  +6.3307057     806.0867     1153.825     981.6151     90.27284     180.6178     361.8477      1.544     6.54     1189.781     63.78153     120.1855         8     1.312     0.914 -73.56   0
        80     91.6217    892.5774 307.8773673  +6.3018294     1648.181      3157.23     3681.708     90.41694     180.7619     361.8117      2.171     5.43      1204.47     63.78153     184.2913        22     1.387     1.160  70.89   0
        81    671.9733    886.3458 307.6362462  +6.3237812     5587.491     10319.74     11467.29     90.27284     181.1216     361.6677      1.965     4.37     1196.075     63.78153      596.496        37     1.538     1.304 -71.94   0
        82    808.0000    887.0544 307.5796544  +6.3280143     593.1078     1256.253     1364.765     89.83919     180.5457     361.3797      1.983     3.40     1193.393     63.78153     95.74829         4     0.884     0.379  69.48   2
        83     32.6320    884.6973 307.9021639  +6.3031085     959.2004     1778.249     2089.527     90.84784     180.8339     361.9556      1.897     4.91     1204.617     63.78153     176.7899         8     1.152     0.591 -77.84   0
        84    460.9954    882.0645 307.7241263  +6.3185180     779.1058     1149.672      1000.15     89.98397     180.6178     361.6317      1.469     0.00      1202.23     63.78153     439.3044         6     1.389     0.407  87.31   0
        85    909.6430    882.2455 307.5375467  +6.3333785     2744.583     3845.322     3504.022     90.70443     180.9778     361.7757      1.575     3.41     1191.096     63.78153     337.0542        19     1.179     0.946 -66.83   0
        86    355.1146    879.6553 307.7682376  +6.3159787     12086.43     23829.74     26403.87     90.70443     180.9778     361.9915      2.081     4.71     1204.547     63.78153     1292.814        54     1.704     1.462 -84.95   0
        87     45.3398    882.4839 307.8969550  +6.3044485     1003.818     1803.554     1728.252     90.84784     181.0497     361.9196      1.885     5.41     1204.492     63.78153     127.9598        10     1.071     0.877  56.31   0
        88     89.8739    880.6216 307.8785001  +6.3067093     1166.869     1778.137     2323.474     90.27284     180.8339     361.7757      1.965     5.54     1204.202     63.78153     144.1219        13     1.229     0.893  57.35   0
        89    226.1416    879.2939 307.8218814  +6.3118177     1024.674     2181.689       2323.4      90.5608     180.9778     362.0275      2.133     7.83     1205.093     63.78153     117.7345        18     1.582     1.085  81.66   0
        90    118.8242    870.3842 307.8668096  +6.3119073     1306.708     2750.067     2791.496     90.41694     180.7619     361.7757      2.165     5.19     1203.898     63.78153     191.6537        17     1.415     1.007  81.35   0
        91    433.4296    869.9104 307.7360008  +6.3226187     770.2462      1531.76     1225.055     90.84784     180.6898     361.7757      2.005     7.09     1202.342     63.78153     91.64038        12     1.384     1.017  36.06   0
        92    686.0147    867.7077 307.6310363  +6.3319476     678.6802     1424.899      1735.22     90.41693     180.7619     361.6317      2.366     5.44     1195.281     63.78153     81.16235         7     1.199     0.697 -32.74   0
        93    834.1865    863.0826 307.5695726  +6.3387871      2625.96     4648.127     5145.144     90.27284     180.6898     361.6677      1.871     4.73     1191.833     63.78153       296.79        28     1.602     1.099 -81.46   0
        94    488.8934    866.2496 307.7130600  +6.3259813     11668.48     13176.89     12506.55      90.5608     180.8339     361.9915      1.001     3.34     1201.385     63.78153     4406.995        10     1.059     0.519 -15.11   0
        95    101.9113    863.8467 307.8740644  +6.3140414     1941.516     3746.649     3723.395     90.70443     180.8339     362.0275      1.984     4.96     1203.767     63.78153     264.5269        25     1.442     1.213  87.52   0
        96    900.1072    864.0828 307.5421243  +6.3405644     1790.376     2762.771     2783.876     90.41694     181.3371     361.9915      1.633     3.82     1190.689     63.78153     236.4603        19     1.226     0.996 -80.72   0
        97    870.9264    863.6941 307.5542729  +6.3397555     1914.036     3066.807     2448.978      90.5608     181.1216     361.8477      1.697     3.98     1191.159     63.78153     247.3422        17     1.172     0.993 -56.09   0
        98    570.0858    854.7691 307.6796839  +6.3334307     252988.6     490527.3     525583.8     90.70443     180.7619     361.7037      2.048     4.54     1197.847     63.78153     25031.25       158     1.825     1.610 -80.97   0
        99    414.3964    857.3845 307.7443398  +6.3271575     5752.875     11184.37     12043.41     90.27284     180.5457     361.6677      2.045     4.59     1202.146     63.78153     579.5424        41     1.597     1.402 -79.02   0
       100    357.6009    855.8038 307.7680117  +6.3259140      9004.83     17943.48      19157.2     89.98397     180.4736     361.5597      2.056     4.55     1203.713     63.78153     920.2222        46     1.647     1.455 -83.70   0
       101    658.1974    857.0543 307.6429644  +6.3354221      844.501      1387.44     1272.883     89.98397     180.6898     361.4157      1.830     5.10      1195.36     63.78153      118.317         8     1.202     0.612  45.78   0
       102    675.9481    851.9553 307.6357546  +6.3381194     2611.827     4876.672     5460.846     90.84784     180.9058     361.8477      2.056     4.79     1194.631     63.78153     320.5696        29     1.564     1.191 -68.44   0
       103    908.3804    850.7737 307.5391322  +6.3463370     4827.829     7751.024     8158.173     90.12852     180.6898     361.7397      1.727     3.64     1189.391     63.78153     691.2347        28     1.404     1.101 -75.68   0
       104    650.7811    845.9579 307.6464234  +6.3397588     2713.213     4736.833     5994.428     90.12852     180.7619     361.6317      2.034     4.65     1194.881     63.78153     284.4304        26     1.449     1.174 -64.52   0
       105    838.9708    844.6167 307.5682056  +6.3465740     1323.224     1954.924     1920.341     90.27284     180.6898     361.7757      1.621     4.42       1190.5     63.78153     197.8009        15     1.166     0.968  85.73   0
       106    643.0255    841.4542 307.6498008  +6.3413609     1575.536     3939.991     5238.955     90.27284     181.0497     361.6677      2.496     8.65     1194.741     63.78153      200.115        31     2.215     1.133 -61.95   0
       107    965.9404    843.8708 307.5154266  +6.3510999     682.9825     741.6616     250.8374     90.84784     180.9778     361.9196      1.351     5.51     1186.415     63.78153     105.0842         8     1.110     0.815  50.83   0
       108    927.1172    838.5980 307.5317501  +6.3519889     3002.094     4701.371     4425.635     89.98397     180.5457     361.5237      1.658     3.78     1187.957     63.78153     376.1843        25     1.395     1.057 -63.54   0
       109    385.4371    834.8519 307.7571457  +6.3354982     1879.846     3864.878     3818.402      90.5608     180.9778     361.8477      2.124     5.29     1202.226     63.78153     251.7894        27     1.571     1.254 -65.73   0
       110    521.5856    824.4315 307.7008793  +6.3443455     2303.134     4577.601     4760.749     90.27285     180.6898     361.7757      2.027     5.30     1197.279     63.78153     246.9574        31     1.465     1.384  81.46   0
       111    866.3516    823.1862 307.5575410  +6.3563366     906.8411     1206.777     649.0523     89.98397     180.9058     361.4877      1.520     5.06     1187.732     63.78153      117.652         8     1.252     0.578 -43.37   0
       112    587.0372    822.7617 307.6737164  +6.3472171     637.5873     1042.214     1176.469     90.41693     180.8339     361.7037      1.643     3.77     1194.963     63.78153     89.30347         5     0.824     0.496 -56.35   0
       113    568.4835    820.6526 307.6815037  +6.3474699     4414.144     8739.411      10390.6     90.70443     180.9778     361.9556      2.118     5.05     1195.692     63.78153     403.4395        36     1.566     1.407 -66.64   0
       114    575.7065    819.9878 307.6785223  +6.3479853     1074.984     2090.937     2554.338     90.41693     180.6898     361.6317      2.111     5.31     1195.254     63.78153     169.3964        14     1.224     1.162 -88.91   1
       115    486.2895    818.9708 307.7157426  +6.3454240     1278.135     2295.178     2643.917     90.84784     180.6898     361.7397      2.004     7.06     1197.403     63.78153     152.4908        17     1.415     0.988  22.20   0
       116    904.1918    818.1666 307.5419729  +6.3596673     1215.877     2183.993     1911.092     90.12852     180.7619     361.6317      1.772     6.05      1186.51     63.78153     134.4644        14     1.294     0.954  46.81   0
       117    128.8139    818.8635 307.8644049  +6.3335229     987.8171     1734.807     1464.896     90.12852     180.7619     361.6677      1.814     5.12     1203.298     63.78153     136.3608         9     1.040     0.712 -27.24   0
       118    539.2261    814.5078 307.6938788  +6.3490329     14268.04     28586.53     30201.21     90.84784     180.6898     361.6677      2.088     4.74     1196.486     63.78153     1354.122        57     1.716     1.518 -80.56   0
       119    952.7228    812.3886 307.5219839  +6.3636658     3677.219     5869.332     5866.256     90.27284     180.5457     361.6677      1.663     3.53     1184.725     63.78153     481.9391        24     1.331     1.010 -73.70   0
       120     49.7757    805.0462 307.8977418  +6.3365833     1229.018     2321.178     2822.277     90.27284     180.9778     361.7037      2.246     7.70     1202.904     63.78153     142.3773        19     1.395     1.190 -20.12   0
       121    332.2619    803.2502 307.7803298  +6.3467758     2203.853     4662.107     4798.925     90.70443     180.9058     361.9196      2.113     5.79     1202.677     63.78153      215.373        28     1.403     1.393 -69.87   0
       122    797.2958    798.9067 307.5870792  +6.3640704     45423.33     81128.03     85268.73     90.70443      181.624     361.7757      1.904     4.25     1189.819     63.78153     5074.092        72     1.658     1.418 -76.24   0
       123     32.1324    801.6879 307.9051928  +6.3373794     1608.149     3152.815     3020.301     90.84784     181.1935     361.8836      1.988     6.80     1202.769     63.78153     197.0515        22     1.421     1.181  86.89   0
       124    246.0370    797.8323 307.8163711  +6.3461319     913.7463     2679.846     6181.638     90.27284     180.6898     361.5957      7.523    10.17      1203.11     63.78153     117.9124        20     2.192     1.316 -58.21   1
       125    254.6199    796.8904 307.8128338  +6.3468079     3607.521     8050.567     11467.67      90.5608     180.6898     361.6677      3.114     5.28     1203.074     63.78153     414.1692        42     1.742     1.476 -88.97   1
       126    442.0698    797.3553 307.7348638  +6.3528774     679.0092     1290.622      1488.66     90.70443     180.9058     361.8477      1.913     6.53     1198.049     63.78153     113.9467         7     1.208     0.992  86.16   0
       127    725.6492    793.3769 307.6170629  +6.3639712     16432.59     31754.44     34557.04     90.27284     181.0497     361.7397      2.020     4.40     1190.806     63.78153      1691.42        53     1.735     1.409 -75.96   3
       128    719.2604    790.0383 307.6198327  +6.3651377     67828.39     129136.3     138864.1     90.70443     181.0497     361.8836      2.020     4.39     1190.627     63.78153      7085.64        86     1.729     1.532 -75.44   3
       129    922.5994    794.0599 307.5351295  +6.3702368     7713.626     12741.08     13368.25     89.83919     180.7619     361.4877      1.755     3.84     1184.335     63.78153     992.1042        36     1.430     1.226 -75.75   0
       130    364.2227    791.0538 307.7674516  +6.3528814     13833.43     30320.05      33273.3     90.12852     180.9778     361.6317      2.212     5.06     1201.237     63.78153     1466.864        62     1.796     1.589 -82.82   0
       131    413.7301    791.4854 307.7468483  +6.3543562     980.2177     2034.554     2582.674     90.84784     181.2653     361.8836      2.391     6.93     1199.228     63.78153     117.4955        13     1.273     1.058 -50.64   0
       132    426.1362    788.8981 307.7417765  +6.3558390     14759.89     32042.81     35190.68      90.5608     181.0497     361.8836      2.198     5.15     1198.489     63.78153     1553.223        63     1.792     1.608 -78.60   0
       133    254.0901    775.6050 307.8137760  +6.3555824     768438.2      2335613      2667872     90.12852     180.6178     361.5597      2.627     5.68     1202.441     63.78153     64083.84       524     2.408     2.124  88.92   4
       134    963.0076    787.5438 307.5185433  +6.3742703     1959.791     3118.656     3438.029     89.98397     180.8339     361.5957      1.626     3.84     1183.088     63.78153     260.7433        18     1.162     1.041 -36.96   0
       135    919.4977    785.5500 307.5367062  +6.3736491     6242.943      10223.5     10935.98      90.5608     180.9058     362.0275      1.815     4.00     1184.154     63.78153      710.694        33     1.457     1.195 -67.03   0
       136    891.8008    786.6985 307.5481867  +6.3722546     650.0685     1194.114     984.0073     90.12852     180.5457     361.4877      1.894     4.69     1184.707     63.78153     82.99475         6     0.974     0.641 -33.16   0
       137    660.0825    784.6389 307.6446265  +6.3653980     4623.165     9455.048     10237.71     90.70443     181.0497     361.8117      2.117     4.90      1190.97     63.78153     482.9602        39     1.647     1.379 -73.77   0
       138    449.1100    782.3128 307.7324452  +6.3593259     1123.175     2503.222     2750.579     90.41694     181.4806     361.9915      2.130     6.18     1196.949     63.78153     138.2677        19     1.346     1.121  -5.72   0
       139    611.5358    777.9794 307.6650416  +6.3665318     437.8875     867.4528     860.4203     90.27284     180.9778     361.7037      2.538     4.77     1190.664     63.78153      118.915         4     1.255     0.514 -58.22   2
       140    429.0029    771.5558 307.7411715  +6.3630983     34853.77      76848.1      84355.3     89.98397     180.4736     361.4517      2.219     5.11     1197.289     63.78153     3438.383        89     1.880     1.664 -83.34   0
       141    971.7933    772.0716 307.5154103  +6.3809532     701.3033     1021.376     1292.776     90.12852     180.4736     361.7397      1.557     5.41     1182.031     63.78153     121.6471         5     1.174     0.704 -80.80   0
       142    546.7357    770.4973 307.6922441  +6.3674629      4993.52     10388.71     11088.06     90.70443     181.1216     361.8836      2.122     4.98      1192.98     63.78153     480.7991        44     1.671     1.493 -85.38   0
       143    463.5979    768.8328 307.7268762  +6.3653776      3019.64     6596.578     7673.354     89.83919     180.7619     361.5957      2.258     5.37     1195.795     63.78153     302.1824        36     1.685     1.397  71.52   2
       144    460.1806    762.2177 307.7285213  +6.3679961     1337.712     3126.005     3336.068     90.41693     180.7619     361.7757      2.278     8.13     1195.686     63.78153     159.5126        23     1.443     1.281 -67.48   3
       145    791.8998    767.0241 307.5903990  +6.3770610     9145.396     16892.22     17213.82     90.84784     180.6898     361.6317      1.950     4.32     1187.312     63.78153     1054.293        44     1.557     1.378 -71.66   0
       146     22.1340    763.8259 307.9106376  +6.3526834     725.8815     1692.654     1738.519     90.27284     180.9058     361.7037      2.321     6.66     1201.686     63.78153     112.4072         8     1.575     0.790 -56.58   0
       147    813.4915    761.7323 307.5815974  +6.3799649     901.4477     1527.593       1025.5     90.70443     181.1216     361.8477      1.780     5.96     1186.274     63.78153     115.1117        10     1.152     0.868 -46.70   0
       148    149.8214    759.3461 307.8576896  +6.3588103     7540.849     16586.35     18989.86     90.12852     180.9778     361.6317      2.262     5.06     1202.094     63.78153     838.1263        53     1.776     1.557  85.56   1
       149    158.0586    759.3444 307.8542641  +6.3590867     2115.504     4575.407     5294.639     90.84783     180.9778     361.8836      2.355     5.42     1202.159     63.78153     260.5536        32     1.497     1.491 -64.20   1
       150    142.4432    756.5284 307.8608536  +6.3597272     2104.151       4592.2     5763.856      90.5608     180.9778     361.8836      2.608    10.36     1201.975     63.78153     242.3517        38     2.472     1.336  71.92   3
       151    142.7207    749.8173 307.8609661  +6.3625086      1120.29     2160.487     2856.966     90.27284     180.6178     361.7757      2.312     6.58     1201.798     63.78153     137.4076        15     1.184     1.027 -81.91   3
       152    986.6367    755.3687 307.5097993  +6.3883457     1526.957     2267.182      2780.92     90.27284     180.6898     361.5597      1.674     4.92     1180.529     63.78153     188.6243        14     1.156     0.925 -71.85   0
       153    937.3402    755.3871 307.5303017  +6.3867014     5684.245      9271.23     9299.297     89.98397     180.9058     361.4877      1.746     3.77     1182.668     63.78153     676.1665        33     1.406     1.216 -81.57   0
       154    693.1405    753.3120 307.6319359  +6.3794391     1185.448     2244.914     1813.456     90.70443     180.9778     361.9556      1.951     7.82     1188.091     63.78153     130.0374        17     1.339     1.279  46.45   0
       155    579.7189    752.3253 307.6791411  +6.3760687     1587.868     3249.174     3305.242     90.99102     181.2653     361.9196      2.058     7.58     1190.179     63.78153     183.2025        24     1.460     1.302  42.10   0
       156    695.4222    774.6436 307.6302666  +6.3707034     1793.025     3366.718      3163.53     90.12852     180.8339     361.6317      1.924     5.57     1189.777     63.78153     226.7073        23     1.348     1.314  32.89   0
       157    961.0200    747.0498 307.5207338  +6.3909317     2793.953     4921.773     5291.615     90.12852     181.0497     361.6677      1.861     3.96     1181.278     63.78153     360.1488        27     1.422     1.166 -62.68   0
       158    931.5496    747.4789 307.5329765  +6.3897758      2737.04     4428.361     4612.531     90.70443     181.0497     361.8477      1.801     4.24     1182.625     63.78153     363.6371        25     1.403     1.137 -87.69   0
       159    684.9947    746.0614 307.6355686  +6.3821630     928.0847     1681.339     2273.897     89.98397     180.7619     361.5957      2.612     7.21     1187.809     63.78153     130.1455        10     1.615     0.901 -49.02   2
       160    991.7969    746.6800 307.5079456  +6.3921061     1752.605     2787.373     3325.516     89.98397     180.4014     361.5597      1.663     3.41     1179.837     63.78153     227.6627        15     1.060     0.940 -78.14   0
       161    831.1862    744.4220 307.5748219  +6.3877038     998.3204     1674.817     1977.037     90.41694     180.7619     361.7397      1.747     5.92     1184.362     63.78153     109.7567        12     1.080     0.914  23.61   0
       162     62.4615    744.4030 307.8945271  +6.3620574     11559.76      12053.5     12057.24     89.98397     180.7619     361.5237      0.858     2.07     1201.156     63.78153     5480.618        13     0.866     0.488  28.93   0
       163    257.0099    742.2159 307.8136941  +6.3694719     1194.767     3027.545     3713.095     90.41694     180.6898     361.7037      2.667     7.64     1201.379     63.78153     167.5581        25     1.684     1.310 -71.46   0
       164    948.8785    736.8496 307.5261272  +6.3947421     913.6532     1460.019     1499.244     90.70443     181.0497     361.8477      1.775     4.87     1181.436     63.78153     148.0828         9     0.983     0.741  86.59   0
       165    923.2217    735.6729 307.5368380  +6.3943761      1044.82     1707.751     1616.761     90.27284     180.7619     361.7757      1.847     5.64     1182.412     63.78153     150.4857        12     1.324     0.851 -57.06   0
       166    975.8649    734.7631 307.5149734  +6.3965000     2304.012     3740.384     4231.719      90.5608     180.9778     361.9196      1.790     4.27     1179.947     63.78153     256.5016        20     1.258     1.010 -56.38   0
       167   1017.5717    728.3124 307.4978438  +6.4005488     1601.245     2232.517     2421.811     90.84784     180.6898     356.5565      1.520     4.54     1177.692     63.78153     228.8276        17     1.367     0.887 -88.93  16
       168    818.8140    726.5841 307.5805693  +6.3946609     904.6927     1527.903     1291.553     90.41694     180.6178     361.7757      1.808     5.56     1183.503     63.78153     115.8679        10     1.175     0.742  86.30   0
       169    905.2001    724.1827 307.5447207  +6.3985239     1299.276     2281.454     2650.577     90.12852     180.4736     361.4877      1.944     5.68     1181.529     63.78153     177.3888        16     1.231     1.046 -77.97   0
       170    879.2373    719.5831 307.5556742  +6.3995613     843.8529     1350.208     1774.604     90.27284     180.8339     361.5597      1.774     5.32     1181.461     63.78153     111.0088         7     1.211     0.660   6.04   2
       171    861.9702    715.0543 307.5630087  +6.4008583     1325.166     2428.686     2714.453     90.41694     181.0497     361.7397      1.853     6.16      1181.31     63.78153     157.1777        16     1.407     0.974  84.22   0
       172     61.7864    714.6613 307.8958186  +6.3743198     1820.292      3771.34     3881.149     90.12852     180.7619     361.5957      2.095     5.87     1199.482     63.78153     204.5151        23     1.392     1.253  77.73   0
       173    673.9761    702.9265 307.6416084  +6.3996141     4137.193     8512.499     9264.395     90.27284     180.7619     361.7757      2.125     5.03     1184.636     63.78153     407.1769        39     1.664     1.367 -77.34   0
       174    621.1727    702.0699 307.6635991  +6.3982093      1006.62     2012.228     2297.633     90.27284     180.8339     361.7757      2.173     7.19     1186.261     63.78153     133.4531        14     1.590     0.911 -44.53   0
       175    647.9603    698.6093 307.6525746  +6.4005311     1511.632     3288.831     3440.754     89.98397     180.7619     361.5597      2.071     6.77      1185.18     63.78153     187.7662        24     1.488     1.319 -54.45   0
       176    137.2523    699.0623 307.8649637  +6.3832905     2434.472     5435.325      5268.77     90.70443     180.9058     361.8117      2.214     5.25     1198.366     63.78153     294.3579        38     1.616     1.510 -80.86   0
       177   1010.8210    697.9907 307.5016724  +6.4128503     2363.563     4057.567      3941.97     90.27284     180.6178     361.6317      1.810     4.37     1177.122     63.78153     281.9149        23     1.409     1.039 -70.53   0
       178    790.9063    695.1021 307.5932388  +6.4067375     14775.43     29096.38     31306.67     90.70443      181.624     361.7397      2.100     4.62     1181.771     63.78153     1624.457        56     1.719     1.456 -77.52   0
       179    920.8816    694.6817 307.5391926  +6.4112311     3039.059     5345.687     5853.685     90.70443     181.2653     361.9556      1.909     4.41     1178.832     63.78153      343.675        24     1.409     1.087 -55.64   0
       180    490.4992    694.3589 307.7182086  +6.3970381     960.1765     1940.261     1919.351     90.70443     180.8339     362.0994      1.962     6.51     1190.161     63.78153     111.9614        10     1.154     1.032  41.47   0
       181    264.5259    688.9062 307.8123765  +6.3917436     3705.447     8680.128     9216.295      90.5608     181.1216     361.8477      2.327     5.67     1197.089     63.78153     381.0007        45     1.795     1.563 -74.23   0
       182    671.4041    687.8889 307.6431861  +6.4057402     4639.999     9889.559     10725.77     90.12852     180.6178     361.4877      2.190     4.94     1183.455     63.78153     453.0408        44     1.699     1.500 -60.55   0
       183    653.3135    688.8502 307.6506779  +6.4047406     605.8281     1277.752      1744.97     90.70443     180.8339     361.9556      2.281     4.94      1184.29     63.78153     91.11743         5     1.125     0.613 -30.20   0
       184    368.2844    687.9778 307.7692547  +6.3955945     639.2811     991.9614     1268.016      90.5608     180.6178     361.7397      1.897     5.95     1195.035     63.78153     100.7183         8     1.224     0.815 -83.37   0
       185    931.0648    680.0669 307.5354495  +6.4176065     894.4288     1821.142     1913.985     90.70443     180.9778     361.8836      2.039     7.14     1177.355     63.78153     137.9562        15     1.537     1.112 -78.54   0
       186    743.0652    676.2952 307.6137719  +6.4129147     2517.393     5261.365     6532.769     90.70443     181.1216     361.8836      2.301     5.83      1181.41     63.78153      264.567        31     1.678     1.272  84.17   0
       187   1009.4529    672.6963 307.5030931  +6.4232536     8068.261     12980.74     12723.79      90.5608     180.9778     362.1353      1.754     3.90     1176.397     63.78153     1010.646        41     1.575     1.201 -70.76   0
       188     28.9783    672.8749 307.9108831  +6.3904807     1190.741      2848.58      3183.14     90.27284     180.8339     361.7757      2.300     8.78     1196.687     63.78153     143.7185        23     1.618     1.331  40.13   0
       189    947.7928    673.2066 307.5287229  +6.4209959     2012.537     3416.263     3458.262     89.98397     180.7619     361.6677      1.798     4.12     1176.666     63.78153     247.4988        21     1.217     1.123 -86.63   0
       190    546.8006    668.0433 307.6956823  +6.4097861     1101.011     2560.421     2549.594     89.98397     180.6178     361.4157      2.302     7.45      1187.34     63.78153     144.7977        13     1.493     1.041 -82.08   2
       191     87.0259    668.0056 307.8869073  +6.3944368     16279.88     36072.75     39821.72     90.12852     180.7619     361.6677      2.241     5.16     1196.517     63.78153     1961.491        64     1.878     1.575  87.95   0
       192    516.5572    665.9646 307.7083315  +6.4096362     835.9861     1534.936     1687.151     90.41693     180.9778     361.6317      1.919     7.45     1187.664     63.78153     97.91833        14     1.332     1.166 -29.58   0
       193    939.2908    664.2798 307.5325599  +6.4244010     677.4026     1368.477     1682.887     90.41694     181.1935     361.9196      2.101     2.90     1176.176     63.78153     128.2859         5     0.744     0.488 -26.80   2
       194    732.7804    660.0339 307.6185987  +6.4192896     2403.756     5110.245     4729.651     90.12852     180.7619     361.6317      2.158     5.40     1180.684     63.78153      284.855        33     1.584     1.392 -64.98   0
       195    754.7121    658.1622 307.6095397  +6.4207925     2746.084     5798.237     6520.372     90.70443     180.9058     361.8477      2.188     5.51     1180.157     63.78153     346.9954        32     1.658     1.305 -80.95   0
       196    586.1823    656.2963 307.6796998  +6.4159512     1948.878     4481.444     4677.699      90.5608     180.7619     361.6317      2.300     6.13     1184.783     63.78153     247.4202        30     1.657     1.314 -52.04   0
       197    247.1723    655.5370 307.8207258  +6.4049469     996.5058     2446.687     2503.928     90.27284     180.9778     361.8117      2.290     8.56      1194.65     63.78153     144.2195        19     1.474     1.389 -85.82   0
       198    423.3961    656.2545 307.7474077  +6.4105387     886.1595     1615.043     1858.568     89.98397     180.6898     361.4517      2.083     5.40     1190.416     63.78153     123.5468         9     1.291     0.638   2.40   0
       199    330.6539    653.6957 307.7860674  +6.4084982      754.394     1852.671     2265.241      90.5608     180.9778     362.1353      2.549     6.54     1193.156     63.78153     100.5638        10     1.691     0.711 -43.53   2
       200    992.9922    653.0872 307.5106001  +6.4308075     7020.278     11879.75     12327.82     90.27284     180.6178     361.5597      1.768     3.98     1174.131     63.78153     808.3951        36     1.508     1.202 -79.05   0
       201    151.7143    646.9801 307.8607177  +6.4052876     14403.94      33734.8     36264.71     90.27284     180.6898     361.7757      2.316     5.49     1195.336     63.78153     1641.752        66     1.898     1.656  89.24   0
       202    438.7988    647.5717 307.7412955  +6.4146394     1929.057     4125.248     4900.938     90.12852     180.6898     361.6317      2.299     5.79     1189.211     63.78153     216.6942        29     1.478     1.371 -75.48   0
       203    819.5446    646.8041 307.5829566  +6.4276408     815.1476     1551.404     1407.024     89.98397     180.7619     361.5237      1.847     4.88     1178.123     63.78153     113.1871         7     1.060     0.637  65.97   0
       204    988.0264    636.0488 307.5132395  +6.4376809     5901.806     11040.87     12588.36     90.27284     180.9778     361.7757      2.026     4.17     1172.366     63.78153     696.6033        42     1.587     1.370  79.30   0
       205     33.0997    635.6412 307.9104348  +6.4059984     781.6266     1711.125     1213.119     90.70443     180.8339     362.0994      2.018     6.82     1196.555     63.78153     99.54468        12     1.713     0.760  42.26   0
       206    581.5766    631.5568 307.6824519  +6.4260170     28688.42     67124.33     73932.75     90.12852     180.8339     361.6317      2.317     5.49     1182.925     63.78153     2712.179        84     1.911     1.720 -77.65   0
       207    189.3550    628.3499 307.8456952  +6.4142428     1581.642     3544.061     3927.667     90.84784     180.8339     361.8836      2.282     6.00     1194.306     63.78153     207.4075        23     1.388     1.334  63.41   0
       208     82.1945    621.7841 307.8904872  +6.4133671     918.2695     1768.921     1645.335     90.27284     180.6178     361.6677      1.957     5.88     1195.092     63.78153     153.0583        10     1.601     0.609  42.84   0
       209    478.8596    615.4536 307.7257204  +6.4292433     36007.26     88147.17     98065.72     90.84784     180.9058     361.8477      2.379     5.68     1186.063     63.78153     3594.087        89     1.951     1.768 -78.95   0
       210     23.0535    616.9052 307.9152501  +6.4134007     1022.702     2145.822     2669.509      90.5608     180.9058     362.1353      2.306     7.05     1196.804     63.78153     143.3331        15     1.304     1.115  13.83   0
       211    153.7159    610.1776 307.8611349  +6.4205563     975.8215      2474.61     2934.727      90.5608     180.6178     361.7397      2.653     7.46     1194.174     63.78153     119.6411        14     1.350     1.155  53.72   0
       212    325.8387    604.6459 307.7897329  +6.4285981     1130.355     2197.134     3205.197     90.41694     180.9778     361.7397      2.608     8.08     1188.018     63.78153     149.9141        17     1.897     1.138 -75.32   2
       213    323.2266    602.8231 307.7908811  +6.4292637     769.8298     1299.349     2175.304     90.12852     180.8339     361.7757      1.731     3.98     1187.977     63.78153     148.8348         5     1.448     0.314 -69.51   2
       214    750.7866    598.8422 307.6131751  +6.4451658     3411.632     7503.073     7529.045     89.98397     180.7619     361.5597      2.112     5.36     1176.788     63.78153      339.465        39     1.645     1.464  89.10   0
       215    804.4211    594.0693 307.5910265  +6.4489216      9655.46     19564.07     21095.47     90.27284     180.9058     361.7397      2.084     4.76     1175.669     63.78153      985.776        52     1.735     1.470 -65.03   0
       216   1022.0045    594.3007 307.5005118  +6.4560541     975.4341     1525.198     1682.594     90.41693     168.5378     301.4378      1.741     6.65      1165.99     63.78153     125.7352        12     1.484     0.836 -86.51  16
       217    628.4631    592.1930 307.6642806  +6.4438396     1683.094      3950.12      4703.65     89.98397     180.6898     361.5957      2.345     7.18     1177.883     63.78153     204.6528        34     1.704     1.475 -67.13   0
       218    945.3694    588.6555 307.5325797  +6.4558420     915.4565         1708     1799.566      90.5608     181.0497     361.8117      2.060     6.36      1170.72     63.78153     120.8699         9     1.509     0.753 -42.56   0
       219    880.6531    576.7736 307.5599001  +6.4586003      2012.48     3965.797     3919.256     90.41694     181.1216     361.7397      2.003     5.47     1172.642     63.78153     223.2776        27     1.394     1.357  58.71   0
       220    839.3090    574.4068 307.5771778  +6.4582038     1746.583     3245.774     3582.907     90.27284     180.6178     361.5957      1.950     4.86     1173.594     63.78153     251.5519        25     1.432     1.210 -64.97   0
       221    267.4332    569.9298 307.8152029  +6.4409857     4180.754     10456.68     11310.09      90.5608     180.9778     361.8836      2.423     6.30     1187.906     63.78153     462.7272        50     1.837     1.650 -87.50   0
       222    819.6436    565.9825 307.5856422  +6.4610298     106859.4     225987.7       244840     90.12852     180.8339     361.5957      2.168     5.01     1173.361     63.78153     11752.72       140     2.098     1.748 -41.54   0
       223    201.5318    564.4886 307.8427983  +6.4410289      32628.8     81397.77     93761.88     90.84784     181.1935     361.8117      2.479     5.93      1190.95     63.78153     3813.341       103     2.062     1.851 -84.97   0
       224    125.7123    560.9305 307.8744549  +6.4399607      3701.29      8831.02     9811.363     90.70443     181.2653     361.8477      2.351     5.71     1192.484     63.78153     415.0045        48     1.891     1.581  86.72   0
       225    990.7343    557.3832 307.5147626  +6.4702662     1062.669      1728.48     1750.859     90.12852     180.8339     361.7037      1.734     6.07     1165.448     63.78153     122.9376        12     1.360     0.762 -55.47   0
       226    374.9136    551.6272 307.7711177  +6.4521379     9084.094     23237.57     26407.65     90.84784     180.6178     361.6677      2.459     6.01     1184.027     63.78153     935.6504        68     1.925     1.798 -88.93   0
       227    241.5962    555.7766 307.8264297  +6.4459678     656.4752     1162.426     796.8281     90.27284     180.6178     361.6677      1.888     4.98     1188.499     63.78153     88.40051         5     1.087     0.646  27.85   0
       228    856.3749    553.0448 307.5707994  +6.4675953     3206.893     6534.384     6927.442     90.12852     181.0497     361.7037      2.070     5.15     1172.116     63.78153     386.4141        36     1.681     1.330 -77.02   0
       229    176.9090    550.3586 307.8535196  +6.4460415     1042.844     2583.227     3383.448     90.70443     180.9778     361.9196      2.730     8.25     1191.359     63.78153     139.5061        19     1.498     1.271 -48.17   0
       230    810.2934    546.5629 307.5901868  +6.4687407     4007.365     8255.836      8514.71     90.84784     180.8339     361.9556      2.118     4.87     1172.128     63.78153     386.7329        41     1.697     1.407 -85.63   0
       231    542.6818    545.9915 307.7015243  +6.4600650     2842.055     4380.895     5372.839     90.27284     180.5457     361.7037      1.788     6.00     1178.002     63.78153     355.1859        15     1.624     0.690 -73.01   3
       232    539.6965    546.0087 307.7027655  +6.4599584     2978.335     5374.247     6995.807     90.41693     180.5457     361.6317      2.144     7.37     1178.113     63.78153     338.1566        30     1.901     1.406  74.34   3
       233    188.3729    539.7618 307.8491110  +6.4508023     3545.799     8998.268     10047.55     90.27284     180.7619     361.6677      2.401     5.96     1190.111     63.78153     435.1808        47     1.880     1.607 -84.81   0
       234    399.7131    542.3718 307.7611159  +6.4567893     710.3466     1745.825     2190.226     90.84784     180.6898     361.7037      2.461     6.76     1181.962     63.78153     96.46594         9     1.579     0.812  -2.29   0
       235    586.3021    539.2782 307.6836069  +6.4642924      1428.72      3314.56     3519.131     90.27284     181.2653     361.8836      2.279     6.53     1176.091     63.78153     151.2845        28     1.535     1.418  75.28   0
       236    283.5245    536.1868 307.8096545  +6.4554618     44802.36     118230.7     135002.1     90.12852     180.6898     361.6317      2.505     6.26     1184.353     63.78153     5013.875       103     2.082     1.829 -84.40   0
       237     60.0389    538.3411 307.9025381  +6.4470915     3003.105     6966.642     7554.532     90.70443     181.0497     361.9196      2.298     5.72     1191.738     63.78153     401.0354        45     1.736     1.690 -67.15   0
       238    827.3618    538.2953 307.5833657  +6.4727235     950.9315     1910.919     1701.933     90.84784     180.8339     361.9915      2.103     6.78     1171.433     63.78153     130.2968        12     1.237     1.043 -15.60   0
       239    806.4887    528.3455 307.5923842  +6.4761394     10857.53     22809.88     25022.51     90.70443     180.8339     361.9915      2.151     4.98     1171.037     63.78153     1067.882        55     1.748     1.543 -77.34   0
       240    510.1941    526.8760 307.7156849  +6.4668776     22472.35     58868.76      69246.6     90.27284     180.4014     361.6677      2.562     5.92      1177.72     63.78153     2052.904        91     2.004     1.962  83.50   0
       241    267.5556    530.6683 307.8164839  +6.4572073     865.8454      2114.88     2447.092     90.70443     180.9058     361.8836      2.336     7.83     1184.805     63.78153     123.7247        12     1.432     1.197 -16.00   0
       242    983.0803    529.1640 307.5188971  +6.4816690      1398.68     2605.177     2933.361      90.5608     181.0497     361.8836      2.224     4.75     1164.248     63.78153     207.5017        15     1.100     1.075 -80.35   0
       243    221.5016    522.5480 307.8359156  +6.4590211     767.9012     1983.697     2150.542      90.5608     180.9778     362.0634      2.642     6.57     1186.782     63.78153     109.5857         8     1.273     0.953  78.15   2
       244     58.4468    523.6039 307.9037013  +6.4531255     769.2624     1748.468     1782.087     89.98397     180.6898     361.4877      2.200     7.30     1191.489     63.78153     98.11926        12     1.477     1.010 -25.39   0
       245    670.1418    522.0378 307.6493148  +6.4742073      1686.31     4047.434      5075.64     90.70443     181.0497     361.8836      2.477     6.61     1173.431     63.78153     193.1798        31     1.559     1.461 -88.83   0
       246    732.0588    520.8265 307.6235995  +6.4767691     890.6277     2027.634     2267.001     90.27284     181.0497     361.6677      2.358     7.58     1171.631     63.78153     113.4069        13     1.464     1.117 -29.89   0
       247    680.0534    521.2637 307.6452179  +6.4748571     740.1039     1685.891     2677.466     90.70443     180.9058     361.8117      3.045     5.93     1173.137     63.78153     97.38477         7     1.234     0.801 -38.19   0
       248    408.0949    517.5672 307.7584698  +6.4673152      1077.91     2309.134     2345.438     90.84784     180.8339     361.9556      2.147     5.04     1180.039     63.78153     190.0997        19     1.388     1.267  20.14   0
       249    340.5445    515.8057 307.7866279  +6.4657864     1861.588     4344.639     5270.774     90.12852     180.7619     361.5237      2.574     6.82     1181.881     63.78153     213.4436        26     1.660     1.328 -72.13   2
       250    154.6444    514.5602 307.8639960  +6.4600831     13986.54     35063.98        39643     90.41694     180.9778     361.7397      2.440     5.85      1189.09     63.78153     1642.823        71     2.008     1.727  88.32   0
       251    519.5007    515.1016 307.7122121  +6.4720517     1151.518      2950.18     3521.992     90.70443     181.4089     361.6677      2.836     7.18     1176.544     63.78153     144.7535        21     1.652     1.535 -28.03   0
       252    882.0367    514.0569 307.5614393  +6.4845533     1124.389     2056.139     2183.506     90.70443     180.9778     361.8836      1.830     6.39     1168.467     63.78153     159.6057        14     1.326     0.871 -31.45   0
       253    119.9755    512.6371 307.8784817  +6.4597166     1467.797     3800.231     3496.611     90.27284     180.7619     361.5597      2.358     8.97         1190     63.78153      167.668        30     1.740     1.343  79.79   0
       254      1.2272    512.7482 307.9278702  +6.4556915     877.5771     1214.237     1472.969      77.0464     142.2314     270.2411      1.542     4.54     1192.119     63.78153     179.5039         9     1.404     0.417  88.19  24
       255    980.0125    508.8194 307.5208587  +6.4899712     4132.603      7699.29     8523.859     90.41694     180.6898     361.7397      1.968     4.36     1163.454     63.78153     479.5221        35     1.675     1.205 -71.80   0
       256     18.9354    499.0078 307.9209720  +6.4619607     14420.26     35032.74      39401.1     90.12852     180.6898     361.7037      2.358     5.65     1191.879     63.78153     1777.745        66     1.964     1.638  89.78   0
       257    451.5403    495.5711 307.7411430  +6.4778515      22053.8     57400.96     64463.65     90.27285     181.0497     361.7757      2.486     6.20      1176.97     63.78153     2229.837        82     2.020     1.797 -80.89   0
       258      2.4214    493.2721 307.9280360  +6.4637762     116821.9     198514.8     211497.9     90.27284     161.2752     292.1835      1.854     5.06     1192.307     63.78153     13501.34        76     1.963     1.133 -88.68  24
       259    659.5278    495.0617 307.6546416  +6.4849969     7148.625     16642.25      19011.6     90.84784     180.9778     361.9196      2.366     5.62     1172.203     63.78153     647.1932        55     1.869     1.659  87.82   0
       260    216.8229    493.2991 307.8388545  +6.4709462     10078.68     26522.31     30980.17     90.84784     180.6898     361.5957      2.526     6.12     1184.067     63.78153     991.5485        72     2.074     1.786  80.91   0
       261    182.6773    494.5497 307.8530152  +6.4692870     1053.127     2413.874     2486.859     90.70443     181.0497     361.8117      2.255     8.64     1185.865     63.78153     123.6421        19     1.623     1.428  55.34   0
       262    581.3356    491.9565 307.6872733  +6.4836742     1526.836     3689.364     4795.729     90.70443     180.9058     361.8477      2.729     8.84     1173.374     63.78153      152.578        31     1.885     1.374 -61.68   0
       263    993.0737    493.1435 307.5159533  +6.4968802     850.1287      1553.95     963.1293      90.5608     180.8339     361.8117      1.823     4.58     1162.241     63.78153     132.5703         7     0.930     0.640 -14.71   0
       264    955.1196    488.9651 307.5318830  +6.4973461     3779.946     6936.293     7303.896      90.5608     181.0497     361.8836      1.924     4.37     1163.413     63.78153     436.6709        34     1.588     1.225 -74.47   0
       265    628.2933    487.4496 307.6678920  +6.4871008     3613.302     8805.096     10039.46      90.5608     180.8339     361.9915      2.419     6.01     1172.035     63.78153     343.5144        47     1.836     1.630 -60.55   0
       266    977.7124    481.0815 307.5227500  +6.5013528     2800.366     5088.265     5170.636     90.41694     181.1935     361.9556      1.871     4.56     1162.225     63.78153      386.535        26     1.457     1.154 -64.95   0
       267    540.4365    478.8527 307.7047299  +6.4877233      3930.12     9842.863     10960.97      90.5608     180.9778     361.8836      2.451     6.20     1173.666     63.78153     371.8818        50     1.865     1.646  89.59   0
       268    387.9857    479.0430 307.7681400  +6.4825567     1129.795     2930.665     3822.149     89.83919     180.6898     361.5597      2.798     8.87     1177.709     63.78153     125.8567        22     1.784     1.231 -45.03   2
       269    896.7939    474.3040 307.5566409  +6.5014649     2257.129     4666.003     5105.006     90.41694     180.6178     361.6317      2.136     5.14     1164.903     63.78153     296.6537        28     1.520     1.299 -53.70   0
       270    904.3773    468.8806 307.5536690  +6.5039571     1577.496     3006.167     3329.487     90.27284     180.6178     361.7757      1.968     5.50      1164.12     63.78153     184.3151        19     1.380     1.099  88.55   0
       271    942.8359    467.8247 307.5377055  +6.5056708     962.2299     1823.691     1599.338     90.27284     180.7619     361.5597      1.983     4.84     1162.395     63.78153     145.5787         8     1.208     0.550 -87.06   2
       272    728.1513    464.8460 307.6271156  +6.4997632      1685.76     3931.335     4111.127     90.70443     180.8339     361.8836      2.294     6.78     1169.006     63.78153     195.1691        27     1.568     1.472  53.74   0
       273    401.0177    462.7729 307.7632702  +6.4897126     1527.557     2731.534     3506.629     90.27284     180.7619     361.7397      2.021     7.16     1175.602     63.78153     241.0153        22     1.958     0.932 -69.57   3
       274    397.7174    462.6472 307.7646474  +6.4896543     1327.193     2717.854     3535.544     90.70443     180.9778     361.8477      2.230     7.55      1175.66     63.78153     200.4919        19     1.938     0.822 -66.10   3
       275     90.3593    463.7703 307.8924612  +6.4789094     1032.041     2763.934     2412.466     90.27284     180.7619     361.7037      2.473     7.27     1188.534     63.78153     146.5923        20     1.736     1.326  53.02   0
       276    626.9586    459.8236 307.6693812  +6.4984679     5294.467     13995.83     15828.48     90.27284     180.7619     361.5957      2.455     6.33     1170.059     63.78153     548.8474        55     1.921     1.682 -80.75   0
       277    310.3361    456.2231 307.8012140  +6.4893882     1288.892      3183.69     3541.621     90.27284     180.9778     361.7037      2.602    10.04     1176.577     63.78153     175.0431        23     1.856     1.515 -82.60   2
       278    307.9649    458.0000 307.8021401  +6.4885750     860.5501     1696.075     2125.845     89.54891     180.6898     361.5957      1.854     3.81     1176.744     63.78153     125.5656         5     0.829     0.502  23.95   3
       279    789.8529    456.0164 307.6017457  +6.5054636     10053.09     22765.21     26399.29     90.12852     181.0497     361.5597      2.321     5.57     1166.661     63.78153     1046.928        66     2.116     1.596 -56.44   0
       280    974.9633    451.1644 307.5249016  +6.5136198     1518.787      2598.81     2188.796     90.41694     180.8339     361.5957      1.785     5.10      1160.43     63.78153     235.5377        19     1.369     1.161 -56.93   0
       281    818.3494    453.3472 307.5899811  +6.5075141     866.1124     1515.548     1601.755     90.84784     180.8339     361.8836      1.844     4.86     1165.692     63.78153     110.5563         7     1.175     0.570 -22.35   0
       282    391.4103    453.2422 307.7675897  +6.4933285     890.2344     2087.003     2646.951     89.98397     180.7619     361.5597      2.433     5.01     1174.619     63.78153     112.4915         7     1.016     0.697  83.05   2
       283    127.4381    448.3828 307.8775607  +6.4865073     2428.684      6042.22     6958.946     90.27284     180.8339     361.5597      2.477     6.49     1185.651     63.78153     314.4346        44     1.885     1.626  76.67   0
       284    764.8840    446.9106 307.6124403  +6.5083944     1401.979      3057.83     3560.875     90.41694     181.2653     361.9556      2.311     6.49     1166.792     63.78153     191.2174        24     1.538     1.369  38.48   0
       285    363.2904    443.1110 307.7796306  +6.4965740     1634.888      4611.43     4806.137     90.70443     181.5523     361.9556      2.572     9.16     1174.283     63.78153     184.0449        40     1.870     1.638 -60.49   0
       286    718.7922    441.1339 307.6318100  +6.5092466     902.8086     2066.749     2211.035     90.12852     180.6898     361.6677      2.377     7.03     1167.686     63.78153     123.4467        11     1.287     1.077 -82.25   0
       287    845.2573    430.8536 307.5795461  +6.5177004     1036.581     2212.682      2801.18     90.84784     180.9778     361.8477      2.417     6.96     1163.156     63.78153     129.6445        14     1.501     0.904 -58.99   0
       288    830.5280    429.6833 307.5857132  +6.5176940     1296.169     2917.563     2677.697     90.99102     181.3371     361.8836      2.275     7.60     1163.403     63.78153     157.2035        23     1.581     1.342  79.85   0
       289    728.1326    428.0137 307.6283674  +6.5149771     8714.991     20897.56     22784.52     90.12852     180.7619     361.7757      2.322     5.50     1166.746     63.78153     892.9487        55     1.809     1.635 -87.69   0
       290    483.9505    430.6978 307.7298575  +6.5057303     646.7334      1341.97     1747.976     90.70443     180.9058     362.0275      2.218     4.54     1168.707     63.78153     95.50208         6     0.873     0.669  30.12   0
       291    649.1700    424.1618 307.6613468  +6.5139388     1385.705     3644.264     4155.175     90.27284     180.6898     361.7037      2.590     7.27     1167.205     63.78153     175.3101        29     1.756     1.445  11.06   0
       292    621.6370    419.1708 307.6729696  +6.5150831     8040.082     22085.68     29289.02     90.27284     180.6898     361.6677      2.875     7.38     1166.863     63.78153      796.683        89     2.587     1.853  40.49   0
       293    953.2529    417.7110 307.5350609  +6.5267178     2812.826     5443.734     5933.947     90.70443     180.7619     361.9915      2.101     4.93     1158.464     63.78153     310.2494        31     1.605     1.247 -89.42   0
       294    392.6419    414.0523 307.7684055  +6.5095577     14164.09     38734.66     44653.09     90.70443     181.0497     361.8836      2.564     6.50     1170.082     63.78153     1474.147        75     2.049     1.817 -87.88   0
       295    139.3063    414.0349 307.8737908  +6.5010924     1187.921     3043.832     2980.455     90.84783     180.8339     361.9556      2.418     9.33     1183.213     63.78153     170.2808        25     1.772     1.369 -25.15   0
       296    908.7791    413.0193 307.5537213  +6.5271785       1096.8     2212.212     3177.416     90.41694     180.9058     361.7397      2.538     6.89     1159.172     63.78153     127.2319        20     1.424     1.267  62.14   0
       297    922.0855    408.1807 307.5483486  +6.5296194     3491.683     6862.259     7022.476     90.27284     180.6898     361.7757      2.036     4.58     1158.254     63.78153     419.4919        36     1.588     1.357 -65.72   0
       298     73.2026    409.9094 307.9014286  +6.5005821     789.3786     2084.518     3289.298     89.98397     180.6178     361.5597      2.996     6.36     1185.714     63.78153     98.74744        10     1.501     0.757 -48.63   2
       299    251.5362    404.5020 307.8274285  +6.5087861     6829.896     12266.59     13956.49      90.5608     181.0497     361.8836      1.975     6.01     1176.233     63.78153     751.2302        37     2.040     1.052 -89.15   3
       300    248.8039    404.3739 307.8285695  +6.5087476      5314.58     11482.95     12683.32     90.12852     180.7619     361.6677      2.226     6.84     1176.339     63.78153     541.3635        28     2.174     0.904 -89.21   3
       301    973.1870    396.0999 307.5274961  +6.5363069     808.2242     1685.283     1782.034     90.41693     180.6898     361.5957      2.346     6.31     1156.069     63.78153     105.6088        10     1.218     0.918  88.56   0
       302    150.4958    393.3438 307.8698391  +6.5100136     2550.983     6743.243     7909.112      90.5608     180.9778     362.0634      2.563     6.40     1181.827     63.78153     338.8666        46     1.854     1.669 -75.62   0
       303    364.1195    393.7745 307.7809581  +6.5169809     679.7707     1875.817     2628.525     90.41693     180.7619     361.8477      2.574     6.76     1169.799     63.78153     110.4807         9     1.807     0.710  49.81   0
       304    173.4188    388.6767 307.8604619  +6.5127089     1320.159      3204.29     3161.629     90.12852     180.6178     361.8117      2.348     7.48     1180.322     63.78153     193.5723        20     1.811     1.306  62.88   2
       305    397.4556    384.1798 307.7674154  +6.5220578     825.2156     1795.687     2283.075     90.12852     180.9778     361.6317      2.626     6.23     1167.781     63.78153     107.4126        11     1.478     0.738 -62.57   2
       306    393.8898    383.8329 307.7689105  +6.5220820     665.3585     1415.347     2177.701     90.84784     180.8339     361.8477      2.639     6.47     1167.894     63.78153     102.1538         8     1.626     0.723 -65.52   2
       307    984.1758    381.8474 307.5234045  +6.5425591     681.2512     1257.583     1571.631     90.27284     180.9778     361.7037      2.357     4.44     1154.174     63.78153     92.89258         6     1.190     0.471 -63.74   0
       308     46.3820    378.1878 307.9136641  +6.5127859     1809.384     4589.446     5515.376     90.41694     180.6178     361.7397      2.578     7.06     1185.269     63.78153     189.5665        36     1.711     1.601  46.18   0
       309    449.8054    377.4292 307.7458660  +6.5265943      3579.97     10094.94      11478.9     90.12852     180.7619     361.6317      2.579     6.56     1165.713     63.78153     379.4154        54     1.961     1.747 -68.25   0
       310    782.5198    375.7997 307.6075044  +6.5383554     1201.994     2951.507     4530.459     89.83919      180.257     361.5237      3.070     9.17     1161.631     63.78153     174.9531        24     1.813     1.294 -88.65   1
       311    790.2153    374.6344 307.6043422  +6.5390927     7795.782     17519.37     19928.64     90.27284     180.6898     361.6677      2.301     5.19     1161.411     63.78153     854.7224        54     1.792     1.577 -74.94   0
       312    136.7772    378.3279 307.8760560  +6.5157567     28253.44     28389.38     28302.11     90.27284     180.7619     361.8477      0.709     1.27     1181.772     63.78153     11994.31         9     0.551     0.439  66.84   0
       313      4.6057    363.6575 307.9315366  +6.5173871     901.7536     2241.838     3715.242     90.12852     180.8339     325.8032      3.408     7.85     1185.615     63.78153     123.7107        13     1.401     1.231  42.73  16
       314    496.4351    360.8131 307.7270300  +6.5350141     1247.291     2150.987     3015.875     90.12852     180.7619     361.6677      2.197     6.77     1163.838     63.78153     161.4409        16     1.772     0.725 -85.00   3
       315    499.5115    361.0116 307.7257434  +6.5350348     1458.768     2314.569       2825.9     90.27284     180.6178     361.6677      2.060     6.15     1163.785     63.78153      189.525        17     1.705     0.818 -79.35   3
       316    470.2589    361.6272 307.7378922  +6.5338043     1004.559     2761.859     2634.252     90.27284     181.0497     361.7037      2.564     9.51     1164.342     63.78153     116.3572        21     1.644     1.534 -59.33   0
       317    925.6226    360.7190 307.5484772  +6.5493423     625.2411     1030.088     1053.202     90.27284     180.6178     361.7757      1.579     3.51      1155.04     63.78153     101.3773         5     0.773     0.460  75.61   0
       318    855.6202    357.4390 307.5777117  +6.5483708     21771.12     46732.52     51427.14     90.27284     180.7619     361.5597      2.206     5.11     1158.286     63.78153     2200.506        74     1.919     1.588 -81.69   0
       319    627.5621    349.7078 307.6728534  +6.5439738     1441.294     3782.498     4682.685     90.84784     180.9058     361.9196      2.614     8.64     1161.533     63.78153     163.4459        26     1.598     1.304 -30.46   0
       320    712.1099    343.5128 307.6378879  +6.5493489     44331.46     108945.7     120894.4     90.41693     181.4806     361.9915      2.378     5.71     1160.359     63.78153      4418.82        93     1.981     1.751 -78.06   0
       321    870.0979    344.6030 307.5721214  +6.5541544     823.9423     1710.505     2329.782     90.41693     180.6898     361.4877      2.504     6.14     1156.859     63.78153     85.08728        11     1.082     0.979 -63.20   0
       322     92.2693    343.7381 307.8957466  +6.5285533       682.02     1430.889     1357.116     90.70443     180.9778     361.8836      1.608     3.79     1182.746     63.78153     88.33704         5     1.327     0.311 -30.85   0
       323    574.6235    340.2331 307.6951981  +6.5461230     1242.229     3350.417     3870.003     90.12852     180.8339     361.6317      2.487     9.13     1160.882     63.78153     135.2584        27     1.738     1.339 -71.63   0
       324    111.9537    339.4602 307.8877033  +6.5309798     3189.249     8365.927      9177.86      90.5608     180.9778     361.9196      2.470     6.11     1181.542     63.78153     379.8608        52     1.922     1.691  81.98   0
       325    559.6540    336.3427 307.7015575  +6.5472309      3031.37     5023.933     6420.656     90.84784     180.9778     361.8477      1.960     6.31     1160.542     63.78153     361.3745        22     1.731     1.053  70.59   3
       326    556.3040    336.3790 307.7029500  +6.5471041     2937.541     5949.038     7542.195      90.5608     180.7619     361.6317      2.273     6.21     1160.571     63.78153      376.538        28     2.006     1.031  87.11   3
       327    420.8459    331.7426 307.7594616  +6.5444990     12566.92     34870.09     39909.86     90.70443     180.9778     361.9556      2.586     6.38     1163.277     63.78153     1261.005        76     2.073     1.836 -85.03   0
       328    287.0596    334.2411 307.8150348  +6.5389962     1170.786     3091.402     3352.693     90.70443     180.9778     361.9196      2.463     8.94     1170.666     63.78153     159.9987        24     1.764     1.370  77.84   0
       329    509.9283    322.0482 307.7227289  +6.5514769     4158.913     11347.58      13486.6     90.70443     181.0497     361.8836      2.590     6.77     1160.164     63.78153     435.4075        57     2.017     1.719 -78.96   0
       330    779.0002    320.8501 307.6108240  +6.5609366     1865.517     4406.868     4625.485     89.83919     180.4014     361.3436      2.220     6.83     1158.204     63.78153     196.8411        30     1.683     1.315 -58.18   0
       331    338.2170    320.2158 307.7942280  +6.5464998     567.5519      1063.36     1231.226     90.41693     180.6178     361.7757      1.870     3.94     1166.543     63.78153     101.8823         5     0.732     0.712 -35.06   0
       332    401.4446    306.2893 307.7683956  +6.5543649     3373.666     6491.099     8664.695     90.70443     180.9058     361.8836      2.457     8.64     1162.338     63.78153     419.4833        39     2.183     1.592  80.70   3
       333    398.6499    307.3322 307.7695230  +6.5538407     2733.153     4935.894      6074.75      90.5608     180.8339     361.8477      1.985     6.25     1162.518     63.78153     313.6094        18     1.597     0.962  65.60   3
       334    256.9878    306.4536 307.8284883  +6.5494684     1037.795     2435.999     3000.434     89.98397     180.9058     361.5237      2.896     9.10     1170.783     63.78153     137.2262        16     1.655     1.397  23.15   2
       335    767.5922    302.0560 307.6162051  +6.5683204     31691.97     74353.77     82042.02     89.98397     180.8339     361.5237      2.322     5.50     1156.908     63.78153     3153.745        84     1.934     1.696 -85.27   0
       336    439.0193    301.4436 307.7529275  +6.5576212     1028.301     3065.711     3666.758     90.12852     180.8339     361.5957      2.625    10.17     1160.488     63.78153     138.5896        27     1.782     1.618  78.08   0
       337   1002.3719    298.9320 307.5186277  +6.5774138     1292.589     2488.283     2761.617     90.41693     180.9058     361.7757      2.079     5.91     1147.718     63.78153      151.286        19     1.434     1.097 -80.15   0
       338    943.2553    298.2811 307.5432460  +6.5757197     1605.222     3015.615     2990.322     90.70443     180.9778     361.8836      1.962     5.92     1150.208     63.78153     186.9509        18     1.334     1.137 -31.33   0
       339    585.7654    298.1535 307.6919862  +6.5638763     688.7103     1545.462      1075.96     90.27284     180.9058     361.7757      2.149     6.55     1156.154     63.78153     110.8254         7     1.603     0.750 -25.76   0
       340    424.8641    298.7496 307.7589078  +6.5582614     852.6405     1907.198     2404.417     90.70443     180.9058     361.8836      2.443     5.61     1160.692     63.78153     109.9696         8     1.258     0.704  41.39   2
       341    766.0916    286.7886 307.6173450  +6.5745770     3621.281     8362.369     9291.695     90.41693     180.6178     361.6317      2.300     5.58     1155.834     63.78153     393.8459        45     1.871     1.497 -76.76   0
       342    204.0266    288.2807 307.8511384  +6.5552028     1011.239     1818.331     2449.027      90.5608     180.7619     361.8836      2.200     6.74     1173.758     63.78153     139.1056        14     1.629     0.782 -73.70   2
       343    201.0000    287.0000 307.8524410  +6.5556305     848.3616     1779.774     1571.223     89.11173     180.3292     361.3436      2.345     7.77      1173.91     63.78153     108.0955        13     2.265     0.746 -83.84   2
       344    456.8498    288.5987 307.7459444  +6.5635223     640.8164     1500.742      1880.39     89.98397     180.5457     361.3436      2.287     4.14     1159.091     63.78153     90.04236         5     1.155     0.424 -13.22   0
       345     99.4865    286.9196 307.8946756  +6.5522642     564.5228     1656.128     1984.204     90.41693     181.2653     361.9915      2.217     4.45     1180.404     63.78153     112.5603         6     1.803     0.313 -58.15   0
       346    782.5386    284.6250 307.6105751  +6.5760180     1604.075     3718.763     3938.264     90.27284     180.9058     361.7397      2.297     7.12     1155.691     63.78153     166.1453        28     1.644     1.305 -59.75   0
       347    372.1736    279.2457 307.7814902  +6.5645577     1087.761     2882.217     3461.023     90.12852     181.0497     361.7397      2.830     8.69     1162.523     63.78153     125.9956        22     1.840     1.146  18.35   0
       348     85.6291    281.8280 307.9006137  +6.5539030     630.4462     1302.698     2001.795     90.12852     180.6898     361.5597      1.724     4.21     1181.129     63.78153     99.25354         6     1.737     0.291  -8.08   0
       349   1020.5204    275.4007 307.5118694  +6.5877365     4692.961     8293.181     8490.959     89.83919      180.257     323.8394      1.859     4.13     1145.409     63.78153     585.3051        32     1.539     1.222 -73.70  16
       350    499.7428    276.4216 307.7285114  +6.5699838     892.3987     1893.797     1829.243     90.27284     180.9058     361.6317      1.916     5.25     1156.161     63.78153     117.5023         8     1.394     0.559 -57.90   2
       351    497.4128    275.2452 307.7295206  +6.5703920     870.4285     1529.242     1539.382     89.98397     180.7619     361.5597      1.618     4.06     1156.192     63.78153      126.575         8     1.059     0.502  85.90   3
       352    261.4843    271.2565 307.8278122  +6.5641573     2866.097     7588.362     9054.723     90.70443     180.9778     361.9556      2.598     6.48     1169.443     63.78153      354.047        47     1.946     1.619  78.92   0
       353    396.6885    262.8500 307.7718467  +6.5721492     914.5497     2094.617     2683.269     90.70443     180.7619     361.9915      2.270     5.42     1160.044     63.78153     138.0341        10     1.468     0.564 -53.69   0
       354    982.3123    260.8853 307.5282560  +6.5924641     769.7615     1328.952     1436.415     90.41694     181.1935     361.9556      1.949     5.46     1146.041     63.78153     112.1998         8     1.315     0.640  53.02   0
       355    166.6990    257.4807 307.8677139  +6.5666753     847.5029     2217.811       2468.9      90.5608     181.4806     361.9196      2.409     6.79     1175.372     63.78153     114.6541        12     1.584     0.816 -84.40   2
       356    575.6298    253.6825 307.6977079  +6.5819079     972.4714     2691.084     2949.155      90.5608     180.7619     361.8117      2.560     6.92     1152.304     63.78153     128.3281        13     1.444     0.929 -52.05   2
       357    918.6251    252.1692 307.5550488  +6.5939493     1406.456     2964.226     3438.456     90.12852     180.8339     361.6677      2.259     7.57     1148.371     63.78153     168.7091        22     1.554     1.244 -41.58   0
       358    738.3356    250.7608 307.6301102  +6.5885354     2937.626     6978.554     7175.782     90.70443     180.9058     361.9556      2.296     5.87     1153.256     63.78153     319.3613        41     1.722     1.577  88.80   0
       359    678.2828    250.8699 307.6550927  +6.5864907     1069.977     2278.759     2679.535     90.99102     181.2653     361.8836      2.177     6.53     1152.904     63.78153     137.9108        13     1.371     0.872 -74.63   2
       360    681.2402    250.5529 307.6538729  +6.5867201     818.0978     1284.096     1639.889      90.5608     180.9778     361.6317      1.277     2.11     1152.922     63.78153     166.0955         5     0.689     0.463  25.98   3
       361    933.7453    243.2066 307.5490598  +6.5981538      873.899     1847.121     2007.353     90.12852     180.6898     361.5237      2.214     5.69     1147.196     63.78153     96.30249        10     1.150     0.792 -46.35   0
       362    238.2203    236.2741 307.8386785  +6.5778288     1005.814     2861.897     2529.115     90.27284     180.8339     361.7757      2.389     9.60     1171.376     63.78153     156.2523        21     1.793     1.456  64.25   0
       363    880.3426    235.2301 307.5715487  +6.5996742     981.5478     1980.517     1724.721     90.41694     181.0497     361.7037      2.027     7.41     1148.698     63.78153     130.2695        14     1.394     1.103 -35.04   0
       364    770.2601    234.4686 307.6173776  +6.5963277     905.7782     1943.127     1627.835     90.84784     180.9058     361.8477      2.196     6.24     1152.039     63.78153     123.7378        12     1.328     0.825  75.66   0
       365    472.1088    226.0026 307.7417163  +6.5898880     10896.97     30614.66     36080.93     89.98397     180.6178     361.5597      2.592     6.39     1152.261     63.78153     1108.433        81     2.244     1.898 -50.24   0
       366    797.8517    225.1407 307.6062123  +6.6010989     8028.865     18592.48     21105.94     90.70443     180.9058     361.8477      2.329     5.49     1151.395     63.78153       812.48        58     1.814     1.659 -74.45   0
       367    160.5658    220.4566 307.8715235  +6.5817629     1285.925      3144.35      3167.88      90.5608     180.9778     361.8477      2.368     8.02     1175.178     63.78153     176.2251        21     1.540     1.167 -17.26   2
       368    136.0317    218.7720 307.8817880  +6.5816371     656.8074     1579.865     2377.732     90.12852     180.6898     361.6317      2.730     4.14     1176.964     63.78153     97.88586         5     1.134     0.586 -79.79   0
       369    934.2853    215.6694 307.5497636  +6.6095468     1144.921     2038.057     1991.647     90.84784     181.2653     361.8836      1.855     5.01     1145.422     63.78153     174.1149        11     1.183     0.845 -15.11   0
       370    595.9938    211.7506 307.6906538  +6.5999076     2270.907     6089.136     7336.295     90.12852     180.7619     361.4157      2.565     7.00     1149.362     63.78153     275.0085        45     1.897     1.675 -71.55   0
       371    560.1797    211.0816 307.7055778  +6.5989898      996.568      2343.57     3158.499     90.41693     180.6178     361.7757      2.500     6.57     1149.294     63.78153     120.7511        13     1.416     0.856 -82.23   2
       372    902.9420    208.2022 307.5630571  +6.6115899     7605.586      16048.8     17381.29     89.98397     180.6898     361.5597      2.156     5.03     1145.843     63.78153     912.5013        49     1.694     1.490 -81.40   0
       373    401.4176    210.5122 307.7716533  +6.5939260     831.8446     1710.589         2024     90.41694     180.6898     361.6677      2.757     5.90     1156.771     63.78153      97.0874        10     1.263     0.775   2.99   0
       374    956.8218    208.6199 307.5406240  +6.6132073     1883.078     3723.865     3347.967     90.41694     180.9058     361.7757      2.074     4.84     1143.624     63.78153     234.8746        29     1.457     1.344  81.70   0
       375    989.5521    205.9829 307.5270939  +6.6153835     7336.284     13729.46     14463.77     90.12852     180.9058     361.5957      1.969     4.33     1141.583     63.78153     959.6011        43     1.636     1.342 -83.68   0
       376     29.3487    205.2539 307.9266323  +6.5836454     14510.57     36334.83      41673.2     90.84784     180.9058     361.8836      2.447     5.87      1183.59     63.78153     1695.215        75     2.044     1.744 -83.05   0
       377    700.9329    206.3977 307.6471718  +6.6056152     1406.187     3726.127     4326.219     89.98397     180.5457     361.6317      2.506     8.03     1150.216     63.78153     168.9871        32     1.746     1.481 -73.74   0
       378    510.0789    200.6974 307.7267751  +6.6016078     997.9019     2324.308     2853.511     90.41694     181.2653     361.8836      2.486     7.81     1149.316     63.78153     141.2711        14     1.581     1.079  43.56   0
       379    841.3198    197.5155 307.5890583  +6.6139558     1382.436     2850.616     2920.705      90.5608     181.3371     361.9556      2.046     6.55     1147.029     63.78153     147.4738        18     1.331     1.082 -72.99   0
       380    521.7843    197.0803 307.7220272  +6.6034925     1250.096     3150.366     3621.844     90.27284     180.6898     361.6317      2.482     8.35      1148.93     63.78153     146.3317        26     1.651     1.539  17.33   0
       381    893.5175    196.5128 307.5673729  +6.6161053      1322.15     2825.732     3643.902     90.41694     181.1935     361.9196      2.312     5.25     1145.149     63.78153     192.0248        19     1.468     1.185  86.38   0
       382    753.1516    194.2499 307.6258547  +6.6123716     23315.34     55247.53     61104.67     90.70443     180.8339     361.7757      2.348     5.56      1149.12     63.78153      2419.55        76     1.912     1.711 -85.22   0
       383    356.3795    193.9786 307.7909527  +6.5992505     3420.423     9605.833     11908.53     90.41693     180.9058     361.8117      2.779     7.49     1159.334     63.78153     358.4757        64     2.380     1.719 -76.30   0
       384    986.7908    193.0050 307.5286803  +6.6206527     2131.192     4102.983     4699.254     89.98397     180.6898     361.6677      2.155     4.68      1140.86     63.78153     307.9584        27     1.482     1.210  83.05   0
       385   1024.0000    191.9059 307.5132345  +6.6223418     540.6755     823.4987     1047.143     73.23498     137.4843     265.5273      1.341     3.66     1138.798     63.78153      143.024         5     1.336     0.289  90.00  24
       386    921.0302    191.2522 307.5561024  +6.6191925     5338.042      10619.9     10961.41     90.41694     181.1216     361.7757      2.059     4.67     1144.024     63.78153     610.5853        42     1.589     1.454 -69.09   0
       387    464.6667    190.7525 307.7460068  +6.6042001     2446.838     6593.613     6895.093     90.70443     180.9058     361.8836      2.479     6.91     1150.276     63.78153     264.5609        45     1.870     1.705  54.27   0
       388    122.1827    182.0239 307.8887989  +6.5963520     2587.172     6540.055     8187.707     90.41694     180.8339     361.7757      2.591     6.32     1176.609     63.78153     304.4999        42     1.847     1.529 -81.69   0
       389    292.3640    178.6810 307.8181065  +6.6034292     16498.31     45869.65     53039.34      90.5608     181.0497     361.8477      2.593     6.49     1168.683     63.78153     1888.731        84     2.109     1.845 -80.52   0
       390    267.6756    179.7493 307.8283423  +6.6021622     3339.502     9027.923     10398.61     90.70443     181.0497     361.8477      2.599     6.68     1170.135     63.78153     407.9275        51     1.968     1.693 -77.54   0
       391    720.1920    177.9978 307.6401181  +6.6179876     544.9897     1142.346     1771.388     89.98397     180.6178     361.5957      1.215     3.51     1148.407     63.78153     87.97827         5     1.629     0.218  63.41   0
       392    416.3650    174.0808 307.7666690  +6.6094737     24425.37     68057.42     78727.95      90.5608     181.0497     361.8836      2.581     6.57     1152.612     63.78153     2696.411        90     2.091     1.877 -81.12   0
       393    172.4484    175.5588 307.8681052  +6.6007060     2108.863     5678.826     6091.952     90.70443     180.9058     361.7397      2.551     6.65     1173.949     63.78153     291.0721        42     1.819     1.626 -73.73   0
       394    320.4031    171.8446 307.8066722  +6.6071906     8808.437     24956.21      29652.1     89.98397     180.5457     361.4517      2.642     6.73     1164.488     63.78153     998.2899        72     2.072     1.886 -83.99   2
       395    327.9280    171.8019 307.8035428  +6.6074598      1049.19     2537.501     3270.037     90.12852     180.4736     361.6677      2.432     8.23     1163.203     63.78153     155.3269        16     1.604     1.182 -22.82   3
       396    755.5874    170.1249 307.6256562  +6.6224180     19477.02     45760.54     50738.27     90.12852     180.6178     361.6317      2.329     5.49     1147.282     63.78153     1920.854        71     1.900     1.686 -85.23   0
       397    435.4377    174.0247 307.7587352  +6.6101338     670.2495     1334.218     1670.731     90.27284     180.7619     361.5957      2.735     3.33     1151.203     63.78153     109.6189         5     0.770     0.583   3.16   0
       398    803.0123    171.4763 307.6058770  +6.6234378     729.8258     1634.858     2313.675     90.27284     180.5457     361.6317      2.875     6.00     1146.147     63.78153     92.68933         8     1.321     0.767 -79.40   2
       399     72.5412    167.7196 307.9099389  +6.6005970     4959.848     12576.45     13871.32     90.84784     180.9778     361.8477      2.446     6.09     1179.586     63.78153     603.5959        51     1.932     1.626 -81.50   0
       400    106.7564    165.9236 307.8957645  +6.6024855     879.4731     2188.549     2734.111      90.5608     181.0497     361.8836      2.681     6.83     1176.755     63.78153     143.3575        12     1.758     0.745 -18.45   0
       401   1014.1730    164.6251 307.5182428  +6.6332847     823.8209     1430.873     2132.756     90.12852     180.7619     361.7397      1.910     4.10     1137.567     63.78153     112.8948         7     1.021     0.469   7.51   0
       402   1014.9123    150.5037 307.5184110  +6.6391425      1765.43     3633.005     4189.147     90.70443     181.4089     361.8836      2.254     5.10     1136.936     63.78153      238.157        26     1.604     1.098  83.84  16
       403    291.2516    144.9225 307.8197150  +6.6173361     15251.52     41786.58      48784.2     90.70443     181.0497     361.8477      2.576     6.28     1169.423     63.78153     1717.458        80     2.086     1.840 -86.34   0
       404    605.4988    146.8435 307.6888950  +6.6270354     875.1011     2597.628     3445.415     90.70443     180.8339     362.0994      2.658     7.63     1146.659     63.78153     145.8936        14     1.777     0.918  82.96   2
       405     36.5456    143.4447 307.9257409  +6.6094169     2423.359     6031.876     6418.017     90.70443     180.9778     361.8836      2.423     6.59     1182.237     63.78153     297.3091        41     1.857     1.540  82.63   0
       406    722.8132    141.3567 307.6402656  +6.6332102     4539.635     10931.83     12587.05     90.12852     180.7619     361.5597      2.392     5.84     1146.356     63.78153     470.5212        51     1.846     1.577 -77.58   0
       407    133.7909    138.7913 307.8854387  +6.6145982     2568.175     6697.612     7051.009     89.98397     180.7619     361.7037      2.425     6.36     1174.781     63.78153     307.9938        44     1.885     1.575 -83.92   0
       408    404.2658    134.5698 307.7730426  +6.6253900     2014.594     5482.298     6293.607     90.41694     180.9778     361.7757      2.637     7.28     1152.328     63.78153     238.4032        42     1.800     1.655  71.15   0
       409    369.1739    133.4970 307.7876804  +6.6246606     1607.949     4267.779     4508.538     90.84784     180.6898     361.7397      2.581     8.06     1156.583     63.78153     196.8622        39     1.854     1.706  82.28   0
       410    123.7179    134.0877 307.8897897  +6.6162036     1013.445     2445.648      2580.65     90.41694     181.1935     361.9196      2.377     6.69     1175.156     63.78153     141.2767        15     1.443     1.336 -50.89   0
       411   1015.4360    127.6970 307.5189616  +6.6485807     1147.934     1832.702     2061.037     90.70443     180.8339     362.0275      1.726     7.16     1136.203     63.78153     110.9889        16     1.379     1.043  28.28  16
       412    220.7073    122.6584 307.8498230  +6.6241723     2805.944     7558.297     8721.304      90.5608     180.9058     361.9915      2.527     6.73     1171.945     63.78153     295.6254        45     1.865     1.646 -70.70   0
       413    684.0000    120.9995 307.6571043  +6.6403266     2605.238     4512.579     5354.643     89.83919     180.4014     361.4877      1.832     4.83      1145.55     63.78153     335.0424        21     1.736     0.747  81.99   3
       414    681.2559    121.3036 307.6582358  +6.6401096     3103.013     6090.269     7266.196      90.5608     180.9058     362.0634      2.167     5.86     1145.561     63.78153     378.0037        28     1.982     0.929  84.53   3
       415    104.6011    122.3910 307.8981413  +6.6203944     1039.791     2018.318     2757.148     89.98397     180.6178     361.5957      2.324     6.24     1175.838     63.78153     139.2543        13     1.606     0.681  75.89   0
       416    634.4318    118.4355 307.6778168  +6.6397342      5062.96     12951.28      15365.8     90.27285     180.6898     361.5597      2.530     6.20     1145.555     63.78153     476.7046        54     1.948     1.719  89.02   3
       417    638.0837    109.9853 307.6765830  +6.6433464     29336.81     73617.27     83318.64     90.27284     180.6178     361.7037      2.419     5.81     1145.186     63.78153     2748.961        87     2.002     1.775 -85.03   3
       418    829.0000    121.0420 307.5967661  +6.6451352     503.8681     1220.341     1061.253     89.83919     180.5457     361.3797      2.140     3.37     1142.066     63.78153     86.90576         4     0.708     0.464 -88.19   2
       419    361.6490    114.2586 307.7914639  +6.6323557     2029.323     5778.965     6684.433     90.70443     180.9778     361.9196      2.657     7.99     1157.125     63.78153     216.0842        47     2.083     1.680  88.71   0
       420    543.6245    114.9688 307.7157197  +6.6381384     667.2339      1514.19     2000.074     90.12852     180.8339     361.6317      2.265     4.68     1145.349     63.78153     100.4095         6     1.280     0.486  32.19   1
       421    543.9017    112.1132 307.7157011  +6.6393272     728.2403     1665.657     1639.987     90.70443     181.4806     361.9196      1.909     4.47     1145.243     63.78153     109.7245         7     1.498     0.379  21.17   0
       422    315.6160    104.8426 307.8109374  +6.6347062     1261.133     2281.494     3278.682     90.12852     180.6898     361.5957      2.153     6.33     1164.536     63.78153      171.014        15     1.583     0.711  68.20   3
       423    318.3690    103.4594 307.8098388  +6.6353696     1858.078     3245.542     4519.466     90.41694     180.9778     361.8117      2.197     7.57      1164.16     63.78153     214.5348        25     1.904     1.023  52.16   3
       424    689.3969     98.8765 307.6556065  +6.6496446      591.469     1257.179     1075.008     90.12852     180.4014     361.7037      1.797     5.34     1144.377     63.78153     104.5746         7     1.917     0.420 -53.05   0
       425     14.7411     87.0325 307.9367327  +6.6319865       758629      2173392      2507108      90.5608     181.0497     361.8117      2.599     5.82     1181.322     63.78153        62086       413     2.346     1.989 -80.44  28
       426    718.3515     97.7859 307.6435947  +6.6510594     527.3914     987.1017     639.6943     89.98397     180.9058     361.4877      1.893     4.62      1144.32     63.78153     92.85864         5     1.193     0.508  32.53   0
       427    687.1882     97.4074 307.6565752  +6.6501779     745.7368      1242.14     1134.558     90.27284     180.7619     361.7397      1.800     4.74     1144.272     63.78153     97.29773         6     0.933     0.684 -79.26   1
       428    702.4330     93.8718 307.6503511  +6.6521461     1815.363     4196.967     4392.443      90.5608     180.9778     361.8477      2.354     6.28     1144.051     63.78153     216.3242        32     1.560     1.432 -23.57   0
       429    444.3361     85.1101 307.7580459  +6.6471581     2054.178     5526.561     6736.663      90.5608     181.1935     361.8836      2.547     7.57     1147.879     63.78153     231.6005        39     1.876     1.529 -87.86   0
       430    916.6746     80.0351 307.5616661  +6.6649886     2972.075     5813.223     6015.803      90.5608     181.0497     361.8117      2.063     4.87     1136.267     63.78153     371.9738        33     1.590     1.320 -83.85   0
       431    898.5311     81.0138 307.5691833  +6.6639814      1401.73     2694.407     2731.107     90.12852     180.9058     361.7397      1.916     5.97     1136.812     63.78153     175.9144        21     1.457     1.116  84.94   0
       432    610.0692     78.6005 307.6893021  +6.6553766     972.5568     1672.861     1010.316     90.12852     180.4014     361.6317      1.871     6.20     1143.867     63.78153     149.0872        13     1.709     0.633 -56.74   2
       433    607.5567     77.4232 307.6903875  +6.6557791     603.0375     615.5328     541.3396     90.12852     180.8339     361.6317      1.512     3.51     1143.771     63.78153     127.0326         5     1.472     0.241 -72.15   2
       434    408.3536     77.3438 307.7732818  +6.6491642     910.2851     2207.335     1901.277     90.70443     180.9778     361.9196      2.366     6.75     1151.197     63.78153     153.4523        15     1.716     1.170 -51.53   0
       435    155.8213     73.8450 307.8784797  +6.6421623     1755.631     4669.479     5782.762     90.27284     180.8339     361.6317      2.682     6.97      1171.75     63.78153       187.49        36     1.682     1.579  60.12   0
       436     37.5879     71.7734 307.9277458  +6.6390554     7270.798      17743.8     20353.54     90.27284     180.7619     361.7757      2.430     5.70     1178.476     63.78153     910.4681        58     1.983     1.624 -77.77   0
       437    304.2419     74.3837 307.8167038  +6.6469071     683.8361     1368.675     2312.246     90.12852     180.7619     361.5957      2.947     4.67     1165.911     63.78153      110.439         6     0.950     0.651  70.01   0
       438    839.1122     65.9901 307.5944167  +6.6682118     4240.548      8673.12     9080.566     90.27284     180.6178     361.6677      2.090     4.75     1138.017     63.78153     483.5862        36     1.548     1.432 -78.32   0
       439    784.0730     66.3717 307.6173076  +6.6662232     1949.963     4409.792     4420.877      90.5608     180.9778     361.7757      2.234     6.28     1140.387     63.78153     243.4424        32     1.670     1.412  71.95   0
       440     78.1050     63.6258 307.9111643  +6.6437792     1916.651     4550.161     4946.185     90.84784     180.6898     361.7037      2.322     6.35     1175.349     63.78153     231.3547        33     1.634     1.447 -71.65   0
       441     20.5909     59.0946 307.9352495  +6.6437223     1518.545     3574.319      4801.61     90.27284     180.5457     361.5957      2.767     6.94     1178.511     63.78153     199.5121        27     1.703     1.231 -54.41   0
       442    601.4835     59.5202 307.6935205  +6.6629717      886.194     1535.595     1531.672     90.70443     181.2653     361.9556      1.962     5.71      1142.95     63.78153     98.90344         9     1.252     0.733 -60.26   0
       443    778.9182     54.2708 307.6198615  +6.6710502     1257.997     2709.938     3229.244     90.99102     181.3371     361.8836      2.325     8.67     1139.467     63.78153     142.2739        24     1.612     1.422 -61.94   0
       444    105.6088     47.9265 307.9002541  +6.6511856     5416.084     13383.08     15276.48     90.27284     180.4736     361.6677      2.455     5.70      1172.97     63.78153     627.3104        55     1.995     1.590 -83.84   0
       445    434.6577     47.5180 307.7633473  +6.6623626     1449.944     3716.316     4180.854     90.84784     180.9778     361.9196      2.468     8.50     1148.958     63.78153     171.2668        30     1.683     1.497 -10.62   0
       446    648.2234     39.6547 307.6747426  +6.6727354     10570.62     25174.86     28465.43     90.27284     180.9778     361.6317      2.358     5.62     1141.514     63.78153     1038.789        63     1.901     1.672 -84.76   0
       447    548.0481     35.8133 307.7165590  +6.6709822     2820.652     7194.667     8455.574     89.98397     180.9058     361.5237      2.428     6.23     1143.401     63.78153     281.9218        47     1.883     1.622 -72.94   0
       448    266.6434     36.5582 307.8336329  +6.6612734     1221.681     2868.953     5637.846     90.41694     180.9778     361.7397      4.740     6.25     1167.838     63.78153     154.3782        16     1.501     1.109  -7.20   3
       449    274.1850     31.9445 307.8306513  +6.6634314     4797.434     12998.21     15878.21     89.98397     180.9058     361.5237      2.791     6.13     1167.423     63.78153     513.9528        62     2.039     1.766 -83.43   2
       450    453.5728     31.3882 307.7560230  +6.6696569     11760.14     31322.06     36053.98     90.27285     180.7619     361.7757      2.525     6.13     1147.432     63.78153     1171.784        70     2.006     1.795 -84.68   0
       451     40.7427     31.4629 307.9278048  +6.6558112     1379.022     3277.504     3772.159     90.84784     180.9058     361.8836      2.481     8.57     1175.204     63.78153     167.6503        23     1.875     1.118 -84.36   2
       452    931.3235     31.3048 307.5572139  +6.6856044      1381.31     2554.278     2472.816     90.41694     181.1216     361.9196      1.843     4.99      1132.92     63.78153     203.3038        18     1.309     1.149 -70.75   0
       453    634.5117     29.8609 307.6807799  +6.6763239     1988.009     5061.441     5851.129     90.70443     181.1216     361.8836      2.514     8.16     1141.029     63.78153     248.3378        39     2.007     1.499  71.65   0
       454    333.0750     31.8548 307.8061492  +6.6654379     705.9088     1749.098      2280.05      90.5608     180.9778     361.8117      2.440     5.15     1160.781     63.78153     130.5175         5     1.161     0.647   9.80   0
       455    262.2877     28.6784 307.8357129  +6.6643824     1619.445     4274.043     6108.283     90.41694     181.3371     361.9915      3.476     8.17     1167.718     63.78153     209.6364        36     2.018     1.402  68.76   0
       456    703.3442     21.4957 307.6524186  +6.6820725     1115.152     2578.816     2991.598      90.5608     180.9778     362.0634      2.471     6.78      1138.63     63.78153     130.8153        18     1.492     1.150 -16.81   0
       457    951.7845     20.9451 307.5490483  +6.6905635     685.9647     973.2127     485.3608     89.98397     180.9778     361.4877      1.515     3.18     1129.549     63.78153     86.51331         5     0.907     0.721  86.17   0
       458    445.1288   1020.3995 307.7260426  +6.2608465     3321.672      5697.61     6189.897     89.98397     180.4014     325.8831      1.849     3.99     1207.174     63.78153     348.1841        28     1.345     1.226  83.31  16
       459    586.3052   1019.4289 307.6673739  +6.2659545     3667.868     6244.293     7134.131     90.84784     180.6898     338.1552      1.843     4.11     1205.044     63.78153     424.0223        28     1.390     1.204 -88.83  16
       460      6.4661     14.1191 307.9426575  +6.6618253     552.9074     694.5376     736.5812     90.99101     181.1935     348.2822      1.057     3.80      1175.29     63.78153      118.569         6     0.832     0.498 -87.12  16
       461    722.5855   1019.2834 307.6107120  +6.2705522     970.0029     1367.924     1892.305     90.27284     180.6898     339.9215      1.520     5.71     1203.376     63.78153     137.0265        11     1.139     0.807 -51.60  16
       462    761.9268   1015.4723 307.5944819  +6.2734353     1147.652     1957.661     1953.519     90.99101     181.1216     361.8836      1.691     5.63     1203.083     63.78153     171.5233        12     1.179     0.889  67.63   0
       463    254.4485   1010.0716 307.8056763  +6.2587446     1167.149     2024.766     1710.582     90.70443     181.0497     361.8836      1.836     7.29     1207.172     63.78153     146.3892        16     1.681     0.886  74.31   0
       464    969.6979   1009.6055 307.5082837  +6.2827624     7241.505     10677.67     10730.76     90.41694     180.6178     361.4877      1.588     3.35     1197.173     63.78153     982.8134        31     1.368     1.054 -79.04   0
       465    729.4070   1007.6130 307.6082694  +6.2756000      2678.31     4184.355     5191.897     90.27284     180.7619     361.7397      1.895     4.45     1202.485     63.78153     318.9341        24     1.440     1.099 -70.99   0
       466    452.7643   1008.7680 307.7232614  +6.2659059     792.2003     1319.016     1190.404     90.27284     180.6898     361.5597      1.870     5.12     1206.762     63.78153     99.30017         8     1.066     0.696  37.00   0
       467    745.0586   1007.0466 307.6017803  +6.2763547       1067.2      1443.37      1051.78     90.70443     180.9778     361.9915      1.466     3.15     1202.394     63.78153     149.5092         9     0.807     0.746 -63.82   0
