#   1 NUMBER                 Running object number                                     
#   2 X_IMAGE                Object position along x                                    [pixel]
#   3 Y_IMAGE                Object position along y                                    [pixel]
#   4 ALPHA_J2000            Right ascension of barycenter (J2000)                      [deg]
#   5 DELTA_J2000            Declination of barycenter (J2000)                          [deg]
#   6 FLUX_APER              Flux vector within fixed circular aperture(s)              [count]
#   9 FLUXERR_APER           RMS error vector for aperture flux(es)                     [count]
#  12 FLUX_RADIUS            Fraction-of-light radii                                    [pixel]
#  13 FWHM_IMAGE             FWHM assuming a gaussian core                              [pixel]
#  14 BACKGROUND             Background at centroid position                            [count]
#  15 THRESHOLD              Detection threshold above background                       [count]
#  16 FLUX_MAX               Peak flux above background                                 [count]
#  17 ISOAREA_IMAGE          Isophotal area above Analysis threshold                    [pixel**2]
#  18 A_IMAGE                Profile RMS along major axis                               [pixel]
#  19 B_IMAGE                Profile RMS along minor axis                               [pixel]
#  20 THETA_IMAGE            Position angle (CCW/x)                                     [deg]
#  21 FLAGS                  Extraction flags                                          
         1    710.0508     17.7960 307.6452709  +6.6898608     7662.246     11322.69     11370.14     77.71014     156.0437     312.0874      1.534     3.80     828.1129     55.08172     1099.731        32     1.464     0.978 -39.78   0
         2    630.2049     17.1147 307.6784646  +6.6874736     3703.248     5455.069     5628.394     77.83498     155.9815     312.1807      1.527     3.84     828.6183     55.08172     520.6827        23     1.486     0.841 -40.10   0
         3    430.4604     13.2303 307.7615748  +6.6823921     6495.843     9764.448      10076.4     78.08405     156.2924     312.4605      1.609     3.53     832.2552     55.08172     896.7583        31     1.421     1.000 -49.12   0
         4     31.3207     12.8057 307.9273954  +6.6691674     8635.567     13169.25     13617.19     77.95961     155.7946      312.274      1.611     3.53     842.7153     55.08172     1171.072        35     1.499     1.014 -40.57   0
         5    677.5160     12.4671 307.6589662  +6.6909737     847.0477     1192.652     1249.918     78.57983     156.5407     312.5226      1.306     4.36     828.2837     55.08172     148.3937         8     1.239     0.438 -53.12   0
         6    506.1765     10.4824 307.7302130  +6.6860622     859.6599     1284.657     1429.486     78.20829     156.0437     312.4294      1.780     4.24     829.2393     55.08172     117.6479         9     1.090     0.582 -63.05   0
         7    326.9876      8.1749 307.8047300  +6.6810106     13210.05        20154     21461.31     77.95961     156.1059     311.6204      1.602     3.67     839.7643     55.08172     1818.116        41     1.558     1.009 -43.53  16
         8    422.3611      8.6754 307.7650930  +6.6840011     692.9743     1136.137      1752.49     78.20829     156.2924     312.5226      1.628     3.40     832.6566     55.08172     117.6124         5     0.761     0.440 -71.83   0
         9    100.7443      8.3875 307.8987064  +6.6733260     2547.639     3928.949     4543.301     77.71014     156.2303     312.0563      1.677     3.89     839.6119     55.08172     418.0237        20     1.265     0.949 -36.36  16
        10    392.9989      6.2437 307.7773727  +6.6840210     2237.043     3434.375     3481.514     77.71014     155.9815     298.4759      1.590     4.34     835.0447     55.08172     310.3986        22     1.549     0.836 -40.85  16
        11     91.8488      7.2221 307.9024411  +6.6735080      1543.08     2400.636     2587.193     77.95961     156.3545      306.595      1.532     4.06     839.7339     55.08172     227.8911        13     1.312     0.670 -51.06  16
        12    795.7109      6.9230 307.6100494  +6.6972097      1017.74     1438.832     1995.964     78.33233     156.5407     304.4659      1.781     4.93     826.9441     55.08172     141.1091        11     1.022     0.832 -48.57  16
        13    818.4225      1.7232 307.6007885  +6.7001142     1303.092     2030.644     2200.605     72.40681     129.7499      241.356      1.627     4.19     826.8043     55.08172     258.7393        14     1.280     0.964  -4.52  24
        14    653.8304      2.0823 307.6691552  +6.6944691     10714.41     13993.67     14398.23      75.9409     134.9581     247.0414      1.393     3.87     827.9971     55.08172     1718.515        28     1.372     0.846 -23.53  24
        15    988.6011      3.0201 307.5300441  +6.7052522     643.7611     903.3483      1187.96     77.95961     145.6826      260.657      1.456     4.22      822.156     55.08172     100.1053         6     0.950     0.638 -64.51  16
        16    531.5671      1.6500 307.7199624  +6.6905583     1229.331      1514.47     1366.095     72.13814     128.9995     240.2271      1.221     3.19     828.6907     55.08172     201.8337         9     0.967     0.620 -16.43  24
        17     72.2338      2.0532 307.9107639  +6.6749822     668.1838     1032.139     1181.916      75.9409       134.67     246.5693      1.565     4.30     840.3158     55.08172     107.3347         5     0.753     0.699 -79.47  24
        18    252.9622      1.0000 307.8357235  +6.6814887     419.5086     569.7197     774.8541      62.7835     118.8132     229.4364      1.419     3.63      841.069     55.08172     142.9246         5     1.313     0.289   0.00  24
        19     65.1748    996.0992 307.8801022  +6.2643895     964.8333     1745.931     2032.677     78.45618     156.0437     312.3673      1.944     5.25     861.6149     55.08172     137.9354        10     1.235     0.631 -35.14   0
        20    958.3901   1023.0108 307.5084278  +6.2831543     5280.588     7631.091     7717.135     74.91114     133.4388     245.4643      1.529     4.00      858.303     55.08172     683.7329        25     1.448     0.944 -10.21  24
        21    718.0825   1021.6797 307.6082262  +6.2756922     2670.856     4130.344     4814.927     78.45618     149.1729     265.1989      1.727     3.51        862.1     55.08172     369.4851        24     1.408     1.023 -24.76  26
        22    441.3195   1022.3104 307.7230883  +6.2661813     881.8597     1150.515     742.7852     78.08405     142.4478     256.2999      1.350     4.95     865.5684     55.08172     134.3017        11     1.162     0.720 -42.18  24
        23    242.9041   1023.2842 307.8054142  +6.2591321      1103.79     1466.046     1176.343     72.40681     130.0489      241.356      1.375     3.72     865.6689     55.08172     176.2864        11     1.132     0.652 -14.42  24
        24    483.6051    993.9156 307.7064909  +6.2793185     2368.609     3170.809     2902.341     77.83498     155.9192     312.2118      1.489     3.47     864.9056     55.08172     298.8182        21     1.282     0.929 -39.36   0
        25    918.1078    985.9731 307.5263897  +6.2971033     40366.23     68594.64     73483.67     78.45618     156.0437     312.3362      1.829     3.78     858.1833     55.08172     5034.038        76     1.733     1.341 -35.46   0
        26    323.3289    987.1801 307.7732477  +6.2767327     571.1237     921.8555     812.9073     77.95961     156.1681     312.4294      1.576     3.96     864.8013     55.08172      76.5683         6     1.108     0.404 -76.58   0
        27    225.3744    984.1815 307.8140087  +6.2746867     1711.479     2596.637     2784.392     77.95961     156.1059     312.4294      1.646     4.03     864.3574     55.08172     245.7473        15     1.228     0.809 -42.52   0
        28    624.7145    982.4146 307.6483020  +6.2887842     936.5782     1368.901     1128.007     77.95962     156.0437     312.3673      1.502     4.30     862.7861     55.08172     135.8834        10     1.161     0.655 -75.73   0
        29    113.3024    983.1968 307.8605612  +6.2713322     630.2432      1093.18     911.2729     78.08405     155.9815     312.1807      1.507     5.06     862.2742     55.08172     98.27417         7     1.333     0.543 -27.00   0
        30    816.0721    979.7864 307.5689543  +6.2962565     2257.721     3662.642     4115.802     77.83498     156.0437     312.3673      1.764     4.51     860.3873     55.08172     313.9537        19     1.446     0.846 -30.65   0
        31    764.2508    977.7395 307.5905351  +6.2953730      6416.05     10550.78     11932.36     78.33233     156.2303     312.4916      1.814     3.96     860.9667     55.08172     798.4684        38     1.700     1.102 -52.45   0
        32    551.1514    976.6410 307.6790328  +6.2887091     997.8448     1515.911     1523.183     78.33233     156.2303     312.4294      1.492     4.09      864.255     55.08172     179.5143        10     1.156     0.608 -51.16   0
        33    233.5383    976.5538 307.8108771  +6.2781094     1450.334     2345.232     2374.169     78.20829     156.1681     312.5226      1.683     4.27     864.1776     55.08172     211.0137        16     1.415     0.786 -36.11   0
        34     58.5729    974.7201 307.8835644  +6.2729934     2712.441     4475.918     4209.053     78.20829     156.1059     312.5226      1.718     4.36     861.3235     55.08172     423.6277        26     1.539     1.038 -35.49   0
        35    197.6621    976.2116 307.8257805  +6.2770472     784.4747     1069.084     1007.284     77.83498     156.1059     312.3051      1.557     4.58     863.6512     55.08172     122.4786         8     1.137     0.524 -36.98   0
        36    952.4461    972.6860 307.5125798  +6.3037325     6397.638     10643.73     10800.21     78.33233     156.1681     312.4916      1.806     3.81     856.9847     55.08172     709.5708        37     1.567     1.162 -29.84   0
        37    208.8099    968.9408 307.8213984  +6.2804228     746.1757     1237.861     1310.082     77.71014     156.1681     312.2118      1.677     4.34     863.5906     55.08172     109.3182         7     1.165     0.460 -33.04   0
        38    634.9963    966.8655 307.6445560  +6.2955469     733.5369     1260.365      1172.73     77.58511     156.0437      312.274      1.962     4.53     862.4342     55.08172     98.44305         8     1.377     0.424 -28.89   0
        39    926.1682    964.4705 307.5237636  +6.3062490     1989.494     3328.109     2357.592     78.20829     156.2924     312.4916      1.789     4.51     857.4913     55.08172     237.1792        24     1.482     1.054 -37.89   0
        40    995.6512    960.7431 307.4950436  +6.3101016     675.5778     1141.071     1104.968     78.33233     156.2924     312.4916      1.730     6.20     855.2969     55.08172     84.62646        12     1.687     0.640 -66.80   0
        41    646.8584    960.3101 307.6398519  +6.2986495     4595.699     7114.998     7785.582     78.20829     156.2924     312.6158      1.675     3.82     862.2237     55.08172     625.2482        31     1.615     0.987 -42.17   0
        42    785.7417    960.8104 307.5821814  +6.3030789     1341.129      2109.74     2165.119     77.71014     156.1681     312.2118      1.686     4.67     860.4827     55.08172     181.1396        16     1.434     0.786 -52.05   0
        43    259.0472    960.4719 307.8008306  +6.2856038      4523.41     6916.996     7210.246     78.33233     156.3545     312.4916      1.634     3.54     863.9509     55.08172     593.8385        29     1.444     1.035 -43.30   0
        44    879.5914    957.0724 307.5433469  +6.3077513     949.1638     1522.465     1184.013     77.83498     155.8569     312.3362      1.733     6.94     858.4197     55.08172      113.923        14     1.351     1.000  46.45   0
        45    469.1551    958.5863 307.7136774  +6.2934200     1186.826     1466.614     1538.377     77.71014     156.1059     312.2429      1.447     3.68     864.0275     55.08172     176.2307        11     1.039     0.738 -51.79   0
        46     27.8994    957.8579 307.8968660  +6.2789237     2216.994     3380.187     3445.106     78.08405     156.2924     312.6779      1.601     3.57      860.877     55.08172     357.6958        19     1.309     0.868 -51.37   0
        47    949.6108    953.9708 307.5143833  +6.3113645     646.0139     1092.776      1194.32     77.83498     156.1059     312.3362      1.639     4.68     856.5151     55.08172     100.9416         5     1.042     0.596  14.23   0
        48    295.2495    953.8173 307.7860273  +6.2895646     843.4122      957.637     994.6258     77.83498     156.3545     312.2429      1.171     2.78      864.268     55.08172     166.9234         6     0.754     0.535 -44.38   0
        49   1003.2211    952.2090 307.4921867  +6.3138768     864.5169     1622.116     1891.128     77.95961     156.1059     312.3051      2.009     6.35     854.7108     55.08172     106.1741        13     1.410     0.803 -68.31   0
        50    571.7151    952.5816 307.6713050  +6.2993291     1648.333     2562.583     2894.174     77.95962     156.0437     312.4294      1.605     4.04     863.1016     55.08172     223.0707        15     1.363     0.690 -34.43   0
        51    610.7633    949.4236 307.6552014  +6.3019379     1287.663     2087.097     1984.273     77.95962     156.0437      312.274      1.687     5.04     862.1713     55.08172     165.2912        15     1.408     0.726 -40.21   0
        52     60.5620    949.4392 307.8835926  +6.2834966     845.1927      1441.21     1885.546     78.08405     156.2303     312.3673      1.923     5.70     861.1075     55.08172     139.7624        11     1.364     0.671 -27.47   0
        53    290.9380    946.6853 307.7880574  +6.2923644     1618.638     2757.824     2953.358     78.45618     156.4166     312.4916      1.831     4.33     864.1548     55.08172     250.5829        21     1.446     0.975 -28.61   0
        54    559.1479    944.8369 307.6767821  +6.3021062     571.2258     751.3594      206.679     78.20829     156.2924     312.5226      1.285     4.02     863.1827     55.08172     111.1405         6     1.075     0.462 -27.21   0
        55    757.5447    942.9954 307.5944842  +6.3094929     913.5041     1341.044     987.0338     77.71014     156.1059     312.2118      1.660     4.10     860.6675     55.08172     166.4584        12     1.287     0.818 -51.12   0
        56    895.1062    939.5845 307.5374920  +6.3154880     6850.947     11349.41     11960.71     78.08405     156.1059     312.3362      1.764     3.78       857.66     55.08172     853.5085        39     1.577     1.153 -39.44   0
        57    133.2210    940.5986 307.8537309  +6.2895863     483.1812     476.7815     646.5078     77.95962     155.9815     312.2118      1.211     3.39     861.8552     55.08172     78.53424         5     0.744     0.447 -19.74   0
        58    431.0798    936.7080 307.7302190  +6.3011777     2368.642      3514.06     3701.528     78.08405     156.5407     312.5537      1.576     3.96     863.6227     55.08172     314.5594        21     1.359     0.883 -46.87   0
        59    332.6354    935.1133 307.7711383  +6.2985390     9930.972     14877.59     15527.79     78.33233     156.1681     312.4916      1.597     3.60     863.9609     55.08172     1548.084        35     1.513     0.993 -39.53   0
        60    252.7750    934.0144 307.8043261  +6.2963157     7280.339     11164.68     11137.12     78.08405     156.1059     312.4294      1.588     3.66     863.1505     55.08172     1051.584        32     1.506     0.987 -38.20   0
        61    580.7680    928.6340 307.6683516  +6.3095181     1290.452     1822.254     1500.893     77.83498     156.0437     312.2429      1.498     3.89      862.335     55.08172     203.0234        14     1.137     0.913 -32.17   0
        62    765.2655    927.7748 307.5917896  +6.3160342     604.1357     898.1232     1097.238     77.95962     156.2924     312.3673      1.812     3.85     860.3479     55.08172     99.96283         5     0.988     0.430 -44.26   0
        63    911.2692    924.2684 307.5312951  +6.3223497     1077.014     1675.988     1755.013     78.33233     156.4166     312.4605      1.630     4.08     856.9789     55.08172     187.3768        14     1.350     0.748 -38.18   0
        64    867.1406    923.5618 307.5496384  +6.3211708      715.231     1301.144     1203.752     78.33233     156.3545     312.5226      2.109     5.16      857.915     55.08172     90.70459         9     1.277     0.590  28.10   0
        65    214.6359    924.8257 307.8204677  +6.2988299     450.8903     623.3555     417.1833     77.95961     156.1059      312.274      1.680     3.68      862.284     55.08172     73.79395         5     1.040     0.374  -3.87   0
        66    409.1470    923.1143 307.7397812  +6.3060553     714.7831     1044.091     925.6312     78.33233     156.2303     312.6469      1.603     4.56     863.4497     55.08172     108.0439         8     0.923     0.641 -41.60   0
        67    747.2560    917.7288 307.5996030  +6.3195806     1699.026     2671.718     3143.784     78.33233     156.2303     312.4605      1.751     3.78     860.4283     55.08172     230.8496        17     1.310     0.808 -37.13   0
        68    570.9221    918.3122 307.6727858  +6.3134501     778.8644     1221.799     1049.581     78.33233     156.6027     312.6158      1.696     5.43     862.1935     55.08172     112.6761         8     1.048     0.795 -55.42   0
        69    978.4956    913.4414 307.5037487  +6.3290586      1291.62     1880.286     2706.172     78.33233     156.2303     312.6158      1.716     3.99     854.4164     55.08172     160.3433        14     1.123     0.876 -38.08   0
        70    611.3544    913.9597 307.6561473  +6.3165984     792.3847     1277.662     1297.842     78.20829     156.2924     312.3362      1.631     4.66     861.2859     55.08172     145.9528        10     1.120     0.748 -30.23   0
        71    532.4877    913.2419 307.6889115  +6.3142582     1016.132     1696.688     1607.891     78.33233     156.2924     312.5226      1.801     5.46     862.6658     55.08172     174.5061        13     1.533     0.671 -25.39   0
        72    665.4630    910.9636 307.6337855  +6.3196429     2493.753     4106.505     4586.346     78.33233     156.3545     312.4916      1.700     7.28     860.6738     55.08172     390.5598        21     1.412     1.052 -21.36   0
        73   1017.0980    909.9703 307.4878390  +6.3317767     632.9637     1304.041     1625.497     78.45618     156.0437     310.5906      2.267     5.37     852.6768     55.08172     104.8281         6     1.199     0.679 -21.92  16
        74    956.3818    908.7684 307.5130857  +6.3302514     594.8634     871.7104     696.2755     77.95962     156.1059     312.3673      1.659     5.04     855.2891     55.08172     89.94391         5     1.029     0.699  10.45   0
        75    826.8892    907.4918 307.5668871  +6.3264633     808.2378     1233.195     1494.595     78.33233     156.7886     312.5848      1.647     5.67     858.5256     55.08172     112.7015        10     1.377     0.657 -34.36   0
        76    944.3229    906.6441 307.5181630  +6.3307268      576.908     1009.873     413.2137     78.20829     156.2924     312.5226      1.625     4.20     855.7837     55.08172     85.03687         6     1.097     0.459  84.93   0
        77    375.4973    907.6568 307.7542703  +6.3113097     2466.709     2361.127     2314.395     78.20829     156.2303      312.709      0.758     0.77      863.332     55.08172     825.2138         5     0.535     0.489  61.15   0
        78    205.9308    906.0728 307.8247137  +6.3062795     2362.244      3385.11     3056.241     78.45618     156.4166     312.4916      1.510     3.76     862.1164     55.08172     325.6081        20     1.403     0.841 -41.54   0
        79     80.0474    906.2277 307.8769636  +6.3019896     1974.149      2824.07     2626.204     77.95961     156.3545     312.4294      1.471     3.94     860.3781     55.08172     289.0103        17     1.347     0.777 -43.62   0
        80     62.2680    907.1489 307.8843127  +6.3010120     2955.206     4747.433     5383.347     78.20829     156.1681     312.4294      1.648     4.06     860.2795     55.08172     412.5035        24     1.451     0.962 -49.38   0
        81    239.4417    903.3088 307.8108960  +6.3085446      807.666     1313.678     1286.699     78.33233     156.2924     312.5537      1.538     3.82     862.4948     55.08172     130.5049         8     1.145     0.477 -46.35   2
        82    344.7598    902.3215 307.7672098  +6.3124826     869.2959     1393.895     1926.482     78.20829     156.2924     312.4916      1.620     3.84     863.3018     55.08172     149.9424         9     1.103     0.577 -48.22   0
        83    798.1951    901.1917 307.5790106  +6.3281073     810.6801     1357.397      1241.98     77.71014     156.0437     312.3362      1.899     4.65     859.0922     55.08172     121.0878        10     1.095     0.775 -62.06   0
        84    660.4291    900.1770 307.6362374  +6.3239278     7008.786     10571.32     11457.72     77.83498     156.1059     312.3362      1.613     3.66     860.3277     55.08172     1051.473        35     1.533     0.992 -36.31   0
        85     20.3157    898.9204 307.9020051  +6.3029991     1209.171     2026.159     1971.091     78.20829     156.6027     312.5848      1.674     5.69     859.7005     55.08172     174.7809        16     1.566     0.808 -40.23   0
        86    898.1660    896.5103 307.5376646  +6.3333728     2712.327     4288.173      4184.39     78.45618     156.1681     312.4916      1.683     3.88     856.8499     55.08172     344.9326        26     1.466     1.037 -41.67   0
        87    449.9841    897.8852 307.7236777  +6.3178377     542.8503     588.3343     587.1134     77.95961     156.0437     312.3983      1.377     4.39     862.9402     55.08172     77.67896         5     1.054     0.520 -35.23   0
        88     33.6329    896.7570 307.8965502  +6.3043398     1069.718     1432.129     1373.357     77.95962     156.2924     312.3362      1.481     3.38     859.7479     55.08172     149.1566        12     1.061     0.753 -68.57   0
        89    343.4137    893.3646 307.7680702  +6.3161352     17027.58     25612.04     26731.67     77.83498     156.1059     312.3362      1.630     3.58     863.1193     55.08172     2598.813        48     1.558     1.075 -38.49   0
        90     78.1017    894.3124 307.8781736  +6.3068430     1350.672     2103.652     1935.207     78.33233     156.7266     312.5226      1.590     4.75      860.042     55.08172     217.3871        18     1.419     0.902 -43.89   0
        91    393.7913    892.5972 307.7471830  +6.3181394     654.6589      1056.96     1400.935     77.71014     155.9815     312.3362      1.806     5.80     862.9938     55.08172     89.05371        10     1.313     0.721 -39.78   0
        92    214.4519    892.6733 307.8216283  +6.3120969     1341.191     2021.208     2011.384     78.33233     156.3545     312.5226      1.577     4.01     862.0989     55.08172     203.3882        15     1.253     0.859 -33.41   0
        93    421.2067    884.2239 307.7360838  +6.3225141      997.025     1582.412     1112.052     77.83498     156.1059     312.3362      1.602     4.07     862.7902     55.08172     162.1913        10     1.123     0.631 -33.32   0
        94    106.8603    884.0038 307.8665837  +6.3120646     1678.248     2715.864     2626.801     77.71014     156.1681     312.2429      1.728     4.02     860.2205     55.08172     233.6582        18     1.325     0.895 -38.91   0
        95    674.6852    880.3941 307.6309832  +6.3325710     749.8574     1235.536     1483.655     77.83498     155.9815     312.2118      1.920     5.05     859.4656     55.08172     117.9871        10     1.213     0.620 -35.61   0
        96    502.0028    880.8629 307.7026556  +6.3266056     646.5398     929.7267     1617.606     77.71014     156.1059     312.2429      2.490     5.91     862.3485     55.08172     114.2563         9     1.584     0.622 -27.38   0
        97    888.5756    877.9973 307.5422662  +6.3406961     2055.046     3310.582     3196.827     77.95961     155.9815     312.3051      1.732     3.77     856.6781     55.08172       283.16        23     1.368     1.026 -41.25   0
        98    859.2011    877.7100 307.5544709  +6.3398357     2055.318     3194.729     3026.007     77.58511     155.8569     312.2429      1.644     4.21     857.1329     55.08172      265.161        20     1.419     0.895 -44.92   0
        99    822.6029    877.1624 307.5696833  +6.3388415     2962.814      4853.37     5200.851     77.45987     156.0437     312.3051      1.687     3.84     858.0223     55.08172     382.8263        26     1.504     0.930 -41.58   0
       100     90.1793    877.4704 307.8737288  +6.3142014     2365.177     3480.975     3339.734     77.95962     156.1681     312.4294      1.529     3.66     859.7258     55.08172     360.0084        18     1.285     0.824 -40.97   0
       101    558.5145    868.5817 307.6796080  +6.3335657     349433.1     516016.8     542599.7     77.95962     156.0437     312.4294      1.631     3.85     861.0043     55.08172     51801.19       176     1.722     1.267 -41.55   4
       102    402.8109    871.0876 307.7441628  +6.3273212     7930.376     11769.34     12311.57     77.95961     156.0437     312.3673      1.539     3.42     862.5984     55.08172     1212.582        32     1.479     0.992 -39.40   0
       103    646.6080    871.5291 307.6429372  +6.3352930     1028.825     1362.352     1438.185     77.83498     155.8569     312.3673      1.452     4.68     859.4744     55.08172     135.1748         9     0.981     0.695 -31.62   0
       104    345.9376    869.5375 307.7678251  +6.3260562     12992.22     19282.21     20306.28     78.33233     156.2924     312.5226      1.582     3.78     862.6315     55.08172     1778.966        38     1.519     0.987 -41.25   0
       105    664.2902    865.9303 307.6357844  +6.3381950      3581.38     5442.174     5962.991     78.33233     156.5407     312.4916      1.575     3.58     859.0643     55.08172     503.1407        23     1.367     0.906 -39.63   0
       106    896.4459    864.8283 307.5394400  +6.3463951     5056.184     8439.536     9615.484     77.83498     156.3545     312.3983      1.873     3.98     856.3895     55.08172     739.2666        37     1.857     1.102 -17.89   0
       107    736.2297    862.3247 307.6060393  +6.3420855      749.023     1258.525     1387.362     78.20829     156.3545     312.4916      1.739     4.40      858.822     55.08172     118.4092        10     1.210     0.769 -53.73   0
       108    639.1585    859.9461 307.6464188  +6.3398260     3525.906     5422.347     6386.002     78.20829     156.3545     312.5226      1.610     3.72     859.2391     55.08172     490.4376        24     1.423     0.901 -34.61   0
       109    827.5857    858.9432 307.5682254  +6.3465293     1703.515     2543.379     1980.462     77.71014     156.1681     312.1807      1.554     4.12     857.5983     55.08172      269.022        18     1.365     0.878 -48.88   0
       110    182.2143    859.8134 307.8361192  +6.3245806     561.9126     845.4086     1244.724     78.20829     155.9815     312.4294      1.508     3.97     861.4644     55.08172     90.04169         6     0.794     0.567 -34.38   0
       111    954.8459    858.1259 307.5154187  +6.3511077     889.5441     1423.817     1726.424     78.20829     156.3545     312.4916      1.627     5.41     854.5204     55.08172     130.7549         9     1.207     0.684 -31.33   0
       112    629.4434    858.7510 307.6504922  +6.3399948      924.335     1426.003     2299.637     78.33233     156.2303     312.4294      1.806     4.37     859.3416     55.08172     133.2253        10     1.078     0.806 -46.54   3
       113    632.2274    854.3397 307.6494846  +6.3419090     2218.098     3580.285      4350.65     77.95962     156.3545     312.3983      1.724     4.07     859.2231     55.08172     311.0321        22     1.626     0.846 -40.71   2
       114    915.6027    852.2985 307.5319064  +6.3522062     4148.746     6025.658     5952.633     78.08405     156.0437     312.1807      1.625     7.10     855.8319     55.08172     1026.605        25     1.279     1.104 -43.74   0
       115    325.6572    853.4131 307.7767873  +6.3320331     1116.329     1681.446     1536.258     77.71014     156.1681     312.2118      1.576     4.59     862.2972     55.08172     153.5178        11     1.205     0.693 -27.11   0
       116    373.9079    848.5334 307.7569209  +6.3356643     2746.707     3857.538     3687.609     78.20829     156.4786     312.5226      1.524     3.54     861.9582     55.08172     400.0849        20     1.386     0.810 -40.00   0
       117    510.1437    838.2764 307.7007080  +6.3444590     3169.052     4423.238     4701.535     78.33233     156.2303     312.4605      1.485     3.25     860.7825     55.08172     442.0613        21     1.273     0.855 -44.41   0
       118    855.1764    836.9326 307.5575084  +6.3565361     1026.951     1325.969     1719.898     77.95961     156.2303     312.4294      1.477     4.05     856.6836     55.08172     140.5761        11     1.136     0.679 -77.07   0
       119    556.9050    834.4476 307.6814236  +6.3476036     6370.421         9269     9246.264     78.20829     156.1681     312.6158      1.546     3.70     860.0127     55.08172     924.6376        27     1.455     0.874 -41.28   2
       120    563.4730    833.9507 307.6787135  +6.3480283     1222.738     2031.122     2903.345     78.33233     156.3545     312.5226      2.245     6.25     859.9167     55.08172     145.2159        15     1.430     0.815 -23.12   3
       121    268.1192    834.8322 307.8012997  +6.3377751      632.889     769.0692     703.0853     78.20829     156.2924     312.4605      1.303     3.93     862.0682     55.08172     101.0558         6     0.796     0.556 -43.49   0
       122    892.5477    832.6262 307.5421372  +6.3595595     1259.407     2169.682      2080.31     77.95962     156.4166     312.3983      1.793     5.31     855.7949     55.08172     158.9087        17     1.485     0.870 -40.04   0
       123    474.8060    833.2097 307.7155491  +6.3453684     1610.727     2063.145     2105.882     77.83498     156.1059     312.3362      1.464     4.42      860.938     55.08172     225.9305        15     1.266     0.760 -50.92   0
       124    116.1773    832.5548 307.8644530  +6.3336166     1503.253     2258.674     2383.685     77.95962     156.2924     312.3362      1.500     4.32     859.4857     55.08172     267.0491        14     1.441     0.673 -43.50   0
       125    692.7895    831.0437 307.6251239  +6.3535492      804.697     1142.256     1482.407     77.83498     156.1681     312.2118      1.479     3.69     858.3182     55.08172     142.9191         8     0.980     0.590 -29.90   0
       126    527.6213    828.2356 307.6937898  +6.3491888     20490.57     30321.35     31485.73     77.83498     156.0437     312.2429      1.593     3.53     860.1787     55.08172     3168.298        46     1.526     1.033 -40.70   0
       127    369.1768    829.9116 307.7595121  +6.3431934     774.5139     1076.197     840.5289     78.33233     156.1059     312.3673      1.406     3.90     861.3371     55.08172      109.275         9     0.978     0.660 -60.59   0
       128    941.2571    826.6119 307.5221156  +6.3636654     3666.411     5793.278     6160.573     77.71014     156.2303     312.2118      1.679     3.71     854.3787     55.08172     455.5582        27     1.498     0.965 -39.47   0
       129    173.6405    828.3385 307.8407404  +6.3372863     594.9796     725.4044     -119.993     78.33233     156.2924     312.5537      1.400     3.50     860.5842     55.08172     139.5433         5     0.917     0.386 -44.74   0
       130    642.6301    824.8885 307.6461550  +6.3544150     401.0012     501.3478      1298.02     78.45618     156.1059     312.4294      1.709     4.81     858.6033     55.08172     97.06244         5     1.213     0.540 -41.49   0
       131     61.9408    824.1353 307.8872524  +6.3352705      695.802     1107.432     1016.379     78.45618     156.2303     312.5226      1.564     5.58     858.4594     55.08172     96.20825         9     1.213     0.722 -43.85   0
       132    413.8302    823.6743 307.7411842  +6.3472638     618.6849     775.9319     622.0883     78.20829     156.2924     312.4916      1.182     3.57     860.9442     55.08172      104.604         5     0.989     0.371 -86.22   0
       133     38.3966    818.5565 307.8972148  +6.3367823     1560.544     2464.243     2330.884     77.71014     155.9192     312.1496      1.748     6.51     858.0369     55.08172     241.7061        21     1.897     0.925 -30.93   0
       134    320.1803    817.0397 307.7802865  +6.3468655     3334.518     5095.303     5384.077     77.95961     156.1059     312.2429      1.578     3.88     861.4278     55.08172     471.4088        24     1.521     0.867 -35.36   0
       135    785.7675    812.8327 307.5871332  +6.3641707     55900.01     84517.57     88603.12     77.83498     156.0437     312.2429      1.601     3.58     857.9248     55.08172     8338.515        70     1.599     1.129 -38.63   0
       136     20.1157    814.9647 307.9049251  +6.3376506     2214.342     3446.245     3410.562     78.33233     156.2303     312.4605      1.616     4.03     857.7125     55.08172     319.4763        18     1.334     0.875 -47.35   0
       137    724.0712    815.0833 307.6126724  +6.3611827     752.6412      990.892     1502.392     78.57983     156.6027     312.5226      1.508     4.11      858.036     55.08172     127.0275         7     0.938     0.514 -41.96   0
       138    243.0037    810.5838 307.8125438  +6.3469431      5382.15      8739.41     10875.95     77.95961     155.9192     312.3362      1.847     3.85     861.6459     55.08172     734.9844        34     1.577     1.025 -40.78   0
       139    714.0009    807.4496 307.6171095  +6.3639980     21860.44     33369.29     35806.55     77.71014     155.9192     312.0563      1.621     3.66     857.9014     55.08172     2976.615        53     1.647     1.075 -39.32   3
       140    707.7269    803.9236 307.6198327  +6.3652442     90495.78     134886.5     141861.1     78.57983     156.5407     312.5226      1.593     3.64     857.8505     55.08172     13701.36        91     1.660     1.153 -39.37   3
       141    911.0934    808.0240 307.5352615  +6.3703343     8619.464     13092.19     14118.31     78.45618     156.0437     312.3362      1.585     3.47     854.7806     55.08172     1243.757        33     1.456     1.012 -35.28   0
       142    530.3629    809.1250 307.6932941  +6.3571699     506.5312     671.9798     818.1652     78.20829     156.3545     312.5226      1.286     3.73     859.4569     55.08172     86.66803         6     0.750     0.629 -28.06   0
       143    352.6010    804.7640 307.7672406  +6.3530197     21267.46     32281.32     33475.28     77.45987     156.1059     312.3051      1.620     3.68     860.6097     55.08172     3121.667        48     1.565     1.056 -40.12   0
       144    414.4945    802.5801 307.7416185  +6.3559943     23194.08     34366.74     35966.75     78.20829     156.1059     312.3051      1.618     3.64      860.149     55.08172       3438.6        55     1.612     1.059 -42.90   0
       145    401.7722    804.8918 307.7468225  +6.3546139      1457.52     2059.976     1839.549     78.45618     156.0437     312.3673      1.418     3.37     860.3005     55.08172     238.7472        13     1.178     0.664 -50.49   0
       146    641.5094    804.2888 307.6473122  +6.3628819     928.0206     1245.126       1639.8     78.33233     156.7886     312.5848      1.544     3.99     858.2637     55.08172     138.4612        11     1.074     0.705 -42.94   0
       147    242.4826    789.1176 307.8134840  +6.3557874     758665.2      1722746      1919210     78.08405     156.5407     312.5848      2.279     5.57     860.8945     55.08172     64237.08       593     2.517     2.055 -48.94   4
       148    951.7287    801.4991 307.5186089  +6.3743818     1937.287     3029.612     3140.598     78.08405     156.4786     312.4916      1.673     3.93     853.3313     55.08172     279.9725        23     1.445     0.978 -42.12   0
       149    907.9355    799.5316 307.5368572  +6.3737351     6814.822     10366.34     10562.24     78.33233     156.3545     312.5226      1.647     3.52     854.6676     55.08172     943.1476        36     1.486     1.087 -32.87   0
       150    880.9812    800.3123 307.5480220  +6.3725146     611.0308     795.4163     563.1136     78.08405     156.0437     312.3983      1.211     2.29     855.5178     55.08172     147.6539         5     0.763     0.455 -66.64   0
       151    648.5664    798.5257 307.6445758  +6.3654968     6802.041     9932.177     10218.61     78.20829     156.2924     312.4916      1.567     3.63     858.0902     55.08172     1010.792        30     1.491     0.924 -40.59   0
       152    437.2851    796.4617 307.7323627  +6.3592832     1864.423     2709.259     2796.255     78.45618     156.4166     312.4916      1.566     3.22      859.675     55.08172     287.8491        15     1.232     0.696 -34.50   0
       153    162.6427    795.6879 307.8464078  +6.3503960     814.2201     1268.083      1744.85     78.33233     156.2303     312.5226      1.887     3.58       859.42     55.08172     127.0894         9     0.946     0.784 -51.27   0
       154    735.9792    793.6066 307.6084492  +6.3704466     554.1335     843.7104      798.249     77.95961     156.1059     312.3051      1.668     3.90     857.6054     55.08172     71.88812         5     1.294     0.337 -49.02   0
       155    601.7255    790.8522 307.6642808  +6.3670995     986.2233     1599.024     1871.041     78.33233     156.3545     312.4916      1.813     5.85      858.465     55.08172     121.2734        13     1.231     0.803 -52.29   0
       156    876.5969    790.5044 307.5501710  +6.3764175     685.2164     1092.741     523.5178     78.08405     155.9815     312.1807      1.676     4.08     855.3664     55.08172     112.3416         5     0.936     0.512 -39.34   0
       157    152.8251    789.3991 307.8506958  +6.3526626     1137.652     1431.014      1007.71     77.95961     155.9815      312.274      1.388     4.21     859.0402     55.08172     152.5771        12     1.119     0.723 -52.80   0
       158    127.7927    789.3240 307.8610904  +6.3518531     1180.118     1450.543     1470.818     77.95961     155.7946     312.3362      1.384     4.96     858.7426     55.08172     175.9313        10     1.212     0.575 -36.88   0
       159    683.7267    788.5155 307.6303142  +6.3708038     2649.099      3749.02     3761.446     78.45618     156.6027     312.5226      1.556     3.67     857.6438     55.08172     359.9164        20     1.350     0.812 -38.80   0
       160    417.4299    785.2804 307.7409822  +6.3632345     55565.95     82524.42     86643.52     78.20829     156.2303     312.4605      1.607     3.53     859.5286     55.08172     8865.128        67     1.613     1.093 -38.41   0
       161    960.9355    786.5032 307.5152885  +6.3808794      653.018     974.0883     985.7454     78.33233     156.4166     312.5226      1.548     4.19     852.6898     55.08172     101.0121         5     0.774     0.648 -79.51   0
       162    535.1826    784.3056 307.6921277  +6.3675774     7217.647     10548.91     10842.37     78.20829     156.1059     312.3362      1.539     3.63     858.6539     55.08172     1017.262        28     1.456     0.885 -41.41   0
       163     69.6852    786.4381 307.8853108  +6.3510927     539.9173     703.6325     605.9133     78.33233     156.2924     312.4916      1.208     3.46     857.9635     55.08172     90.03821         5     0.771     0.448 -19.91   0
       164    451.9792    782.9093 307.7267183  +6.3653700     4567.185     6959.678     7753.963     78.20829     156.1059     312.3362      1.629     3.65     859.1708     55.08172     672.7697        27     1.416     0.935 -38.26   0
       165    780.3411    780.9554 307.5904553  +6.3771498     11886.95     17850.83     18125.99     78.20829     156.2303     312.5848      1.580     3.52      856.989     55.08172     1631.076        38     1.506     1.032 -36.99   0
       166    675.1952    780.7449 307.6341173  +6.3737269     503.2906     919.5002     699.9351     77.71014     156.1059     312.1807      1.829     5.67     857.5912     55.08172     85.87097         7     1.532     0.591 -34.85   0
       167    448.6467    776.2830 307.7283248  +6.3679939     2254.113     3484.177     3915.896     78.33233     156.2924     312.4916      1.543     3.82      859.007     55.08172     411.0286        21     1.487     0.852 -45.86   0
       168      9.5117    777.2211 307.9106027  +6.3528753     1138.388     1624.705     1596.458     78.33233     156.0437     312.3673      1.577     4.57      857.126     55.08172     194.7042        13     1.426     0.696 -29.93  16
       169    802.0317    775.0301 307.5816484  +6.3803197     1323.348     1925.537     1423.738     77.83498     156.0437     312.2429      1.473     5.05     856.5656     55.08172     179.0146        14     1.533     0.672 -36.70   0
       170    138.1665    772.8450 307.8573401  +6.3590043        11854     17978.29      19891.8     77.95961     156.2303     312.3983      1.586     3.55     858.3969     55.08172     1711.756        41     1.568     1.005 -37.94   0
       171    146.2593    773.1454 307.8539702  +6.3591520     3138.009      4619.93     4904.612     78.45618     156.2303     312.4605      1.587     3.67     858.4749     55.08172     471.2598        20     1.342     0.851 -39.94   0
       172    925.8459    769.6194 307.5304229  +6.3866809     6522.191     9960.394     10643.79     77.95961     156.2303     312.3051      1.653     3.67      853.266     55.08172     905.9659        30     1.418     1.023 -39.18   0
       173    130.2434    770.2217 307.8607179  +6.3598212     2982.263      4909.45      5856.51     77.83498     156.1681     312.3051      1.791     3.88      858.235     55.08172      432.551        25     1.580     1.010 -35.20   1
       174    975.0439    769.6389 307.5099954  +6.3883115     1529.875     2208.274      2205.47     78.08405     156.2924     312.3362      1.565     3.77     851.8367     55.08172     229.9646        15     1.214     0.813 -45.33   0
       175    681.4911    766.9910 307.6319651  +6.3796153     1871.772     2648.231     2689.755     77.95961     155.9815     312.2429      1.438     3.58     857.3878     55.08172     295.5786        14     1.330     0.658 -42.16   0
       176    568.0861    766.4239 307.6790681  +6.3760599     2323.275     3419.362     3146.209     78.33233     156.1059     312.3362      1.599     3.67     857.9765     55.08172      370.214        18     1.378     0.783 -37.23   0
       177    416.3034    766.0479 307.7420973  +6.3711365     1216.795      1864.16     1981.035     78.33233     156.1681     312.6469      1.638     4.51     858.9088     55.08172     188.5472        13     1.376     0.723 -32.88   0
       178    699.7590    764.5870 307.6244612  +6.3812177     552.4875     689.7308     1107.903     77.71014     156.1059     312.2429      1.624     4.93     857.1697     55.08172     101.5888         7     1.129     0.610 -36.89   0
       179    130.3564    763.8914 307.8608847  +6.3624383     1924.728     2882.499     3249.036     78.33233     156.2303     312.6158      1.547     3.81     858.0673     55.08172     288.6735        16     1.352     0.734 -43.35   0
       180    949.5734    761.0229 307.5208592  +6.3910203     3010.323     4792.786     5319.744     77.83498     156.1681     312.4605      1.646     3.85      852.325     55.08172     427.0958        26     1.602     0.901 -44.67   0
       181    920.1093    761.5262 307.5330758  +6.3898309     3223.003     4799.005     4968.403     78.33233     156.5407     312.5226      1.589     3.49     853.2184     55.08172       420.08        23     1.360     0.939 -38.62   0
       182    980.4342    760.8035 307.5080531  +6.3921386     2027.877     3169.342     3387.095     77.58511     156.1681      312.274      1.680     4.23     851.4633     55.08172     288.6604        18     1.365     0.817 -37.74   0
       183    672.5048    760.6393 307.6359094  +6.3819373     1469.166     2058.967     2195.509     78.33233     156.1681     312.6158      1.464     3.31     857.4058     55.08172      249.817        14     1.193     0.737 -49.29   0
       184    819.7331    758.9977 307.5748365  +6.3875289     995.7246     1233.224     1367.746     77.83498     155.9815     312.3051      1.398     4.28     855.5103     55.08172     137.0629        11     1.157     0.705 -32.15   0
       185    895.2147    756.9850 307.5435642  +6.3908762     735.6104     1097.011     993.8005     78.08405     155.9815     312.4294      1.730     4.69      853.799     55.08172     101.1915         8     1.014     0.615 -23.80   0
       186    245.0316    755.6516 307.8135543  +6.3696884     1816.596     2952.936      3657.32     78.20829     156.4166     312.4294      1.898     4.20     859.1443     55.08172     262.1282        17     1.368     0.804 -46.44   0
       187    937.9846    751.0266 307.5260056  +6.3947612     945.7266     1421.809     1267.629     77.95961     156.1059     312.4294      1.518     4.78     852.3973     55.08172     134.7311        12     1.158     0.767 -55.57   0
       188    264.8817    751.1675 307.8054644  +6.3722053     677.9569     938.1638     793.3298     78.20829     156.2303     312.4605      1.499     5.55     858.8791     55.08172     100.1933         9     1.461     0.595 -36.78   0
       189    160.8853    750.6089 307.8486587  +6.3689465      755.942      984.649       594.15     77.95961     155.9815     312.3362      1.284     3.77     857.9136     55.08172     133.7134         8     0.996     0.570 -45.72   0
       190    964.3022    748.9145 307.5151492  +6.3965097     2576.131     3935.928     4601.683     78.33233     156.7266     312.5537      1.713     3.96     851.6103     55.08172     338.7208        24     1.504     0.930 -36.17   0
       191    911.4820    749.9990 307.5370440  +6.3943025     1135.788     1855.312     1915.682     77.58511     155.8569     312.2429      1.934     4.16      853.136     55.08172     212.4035        11     1.344     0.735 -23.18   0
       192    972.7458    748.4434 307.5116591  +6.3969854     406.8779     511.3426     843.7875     78.33233     156.2924     312.4916      1.448     5.21     851.3311     55.08172     71.59027         5     1.073     0.714 -75.97   0
       193    683.9431    747.9686 307.6315858  +6.3875503     1022.262     1495.172      2139.07     78.20829     156.2924     312.3983      1.788     4.40     857.1127     55.08172     149.9224        11     1.151     0.699 -38.78   0
       194   1006.1512    742.4161 307.4979908  +6.4005859     1630.513     2556.051     2733.584     77.83498     156.3545     312.2118      1.715     4.22     850.2579     55.08172     243.5149        19     1.411     0.876 -32.09   0
       195    405.0964    743.0707 307.7475238  +6.3802468     703.8792     962.1454     1027.039     78.20829     156.4166     312.5226      1.428     5.02     858.1594     55.08172     114.8153         8     1.168     0.611 -29.21   0
       196    632.7324    741.4089 307.6530684  +6.3885476     711.5231     1143.623     867.6425     77.83498     156.0437     312.3983      1.678     3.91     857.2425     55.08172     153.1141         6     1.209     0.393 -50.70   0
       197    807.4540    740.7404 307.5805470  +6.3946567     1299.748     1843.553     1888.168     78.45618     156.2303     312.4916      1.554     5.08     854.9224     55.08172     195.3787        14     1.326     0.741 -38.59   0
       198    893.9119    738.0907 307.5447382  +6.3986332     1588.142     2491.102     2751.155     78.20829     156.7266     312.5848      1.650     4.39     853.2621     55.08172     284.3284        20     1.490     0.987 -63.44   0
       199    868.3996    733.2456 307.5554934  +6.3997831     837.7441     1036.452      1046.25     77.58511     156.0437     312.0563      1.411     4.86     853.8261     55.08172     132.3177        10     1.080     0.767 -26.00   0
       200    850.6378    729.3653 307.5629983  +6.4007929      1608.24     2624.049     2667.584     78.08405     156.1059      312.274      1.692     4.33     853.9428     55.08172      227.068        15     1.296     0.803 -34.35   0
       201    114.0526    728.2801 307.8688557  +6.3765918     797.7701     1745.792      2046.46     78.33233     156.2924     312.4916      2.409     4.94     857.0393     55.08172     106.3533         9     1.043     0.863 -56.39   2
       202     49.8100    728.1741 307.8955303  +6.3744772     2512.366     3865.729     4026.576     77.95961     156.1059     312.3673      1.617     4.02      856.832     55.08172     388.6561        19     1.427     0.801 -43.67   0
       203    462.5179    727.3353 307.7242130  +6.3886653     609.8407     1206.931     1243.302     78.45618     156.4166     312.4916      2.252     4.89      857.625     55.08172     87.75165         6     0.953     0.710 -21.83   0
       204    567.6676    723.5818 307.6806820  +6.3937325     543.4429     762.7914     846.1309     77.95962     156.2303     312.4294      1.491     3.42     856.6988     55.08172     82.31061         5     1.021     0.331 -22.23   0
       205    705.1833    720.2644 307.6236970  +6.3996969     554.4849      726.354     173.3535     77.83498     156.2303     312.3673      1.288     4.15     856.0406     55.08172     85.96497         6     0.754     0.652 -72.94   0
       206    662.4865    716.8471 307.6415396  +6.3996817     6480.318     9607.438     9747.984     78.33233     156.1681     312.4916      1.587     3.75     856.4034     55.08172     985.5114        28     1.474     0.909 -40.11   0
       207    609.3684    716.0607 307.6636207  +6.3982315     1551.761     2478.755     3032.528     78.08405     156.3545     312.4294      1.653     3.42      856.409     55.08172     232.8531        15     1.149     0.833 -47.68   0
       208    531.2164    716.2047 307.6960644  +6.3955590     629.1606     965.4971     649.2589     77.95961     155.9815     312.3362      1.473     4.96     856.5812     55.08172      93.3609         7     1.109     0.627 -57.20   0
       209    520.1699    716.5053 307.7006407  +6.3950654     817.6724     1184.602     1196.732     78.45618     156.0437     312.3983      1.613     4.82     856.7527     55.08172     137.6403         9     1.201     0.612 -24.76   0
       210    636.2725    712.7072 307.6525628  +6.4005150     2139.522     3122.391     3224.164     78.20829     156.4166     312.5537      1.555     3.93     856.2747     55.08172      328.613        18     1.325     0.848 -45.65   0
       211    125.5009    712.6313 307.8646311  +6.3834364     3770.218     5695.249     6021.749     78.33233     156.1059     312.6158      1.606     3.79     856.6922     55.08172     553.8286        24     1.491     0.859 -44.33   0
       212    999.6321    712.0192 307.5017150  +6.4129181     2573.346     4008.824      4096.71     77.83498     156.1059     312.3362      1.729     3.91     850.2477     55.08172     360.5541        24     1.448     0.948 -37.82   0
       213    312.1430    712.6134 307.7871423  +6.3897060     826.2133     1154.771     1350.455     77.71014     156.1681     312.1807      1.542     4.69     857.1135     55.08172     122.0193        10     0.960     0.869 -39.32   0
       214    248.1571    712.1774 307.8137227  +6.3877404     657.4243     1031.118     769.5609     77.83498     156.1681     312.3362      1.710     3.40     856.9297     55.08172     117.9728         5     1.002     0.333 -46.18   0
       215    779.3634    708.9302 307.5932773  +6.4068520     20812.09     30762.42     32301.25     78.20829     156.3545     312.5848      1.553     3.49     854.2896     55.08172      3030.32        47     1.512     1.042 -35.58   0
       216    909.4022    708.7657 307.5392890  +6.4112559     3859.828     5881.521     6093.403     77.45987     156.1059     312.3051      1.586     3.49     852.0208     55.08172     552.6002        26     1.352     1.042 -42.38   0
       217    478.6507    709.1084 307.7181281  +6.3967299     1453.571     2143.834      2171.71     78.20829     156.1681     312.6779      1.532     4.04      856.953     55.08172     204.2789        13     1.232     0.750 -47.80   0
       218    461.6445    710.4479 307.7251439  +6.3956077      532.178     915.9214     833.5493     78.33233     156.2303     312.4605      1.882     4.18     857.0687     55.08172     89.11981         5     1.155     0.431 -37.10   0
       219    506.7658    709.1180 307.7064545  +6.3976667     890.1609      1322.03     1165.374     78.33233     156.2303     312.4605      1.460     5.03     856.6232     55.08172     140.0741         8     1.320     0.543 -30.84   0
       220    324.6502    708.7471 307.7820798  +6.3917213     789.7302     981.6534     721.3413     78.45618     156.1681     312.5226      1.476     4.94     857.0494     55.08172     126.8751         9     1.191     0.580 -49.18   0
       221    280.6936    708.3606 307.8003429  +6.3904073     629.6674     864.6312     536.8354     78.45618     156.2303     312.5848      1.438     4.38     856.7367     55.08172     106.1302         6     1.020     0.535 -52.24   0
       222    252.9039    702.5980 307.8120750  +6.3918543     6325.049     9585.463     10270.23     77.83498     155.9815     312.1807      1.606     3.70     856.4953     55.08172     906.2276        32     1.505     1.039 -43.86   0
       223    659.8952    701.7706 307.6431219  +6.4058192      7249.52     10788.03      11048.6     78.45618     156.0437     312.4605      1.578     3.64     855.8314     55.08172     1118.416        34     1.497     0.996 -39.21   0
       224    642.5763    702.7737 307.6502791  +6.4048265     941.2285     1432.527     1868.014     77.83498     156.1681     312.3983      1.634     5.35     855.8925     55.08172     153.6207        11     1.420     0.569 -49.71   0
       225    355.9380    701.0037 307.7693504  +6.3959665     665.5027     1100.851     1819.734     77.71014     156.1059     312.2118      1.796     2.55     857.0551     55.08172     131.0938         7     0.847     0.521 -43.69   0
       226    919.8020    694.3752 307.5354529  +6.4175434     1123.412     1725.549     1945.232     77.95962     155.9815     312.3051      1.612     5.28     851.3218     55.08172     180.6071        12     1.419     0.626 -41.55   0
       227    731.6906    690.1746 307.6137010  +6.4130040      3960.44     5695.801     6332.935     78.45618     156.0437     312.3362      1.549     3.59     854.8391     55.08172     550.1763        24     1.348     0.926 -47.08   0
       228    997.9236    686.7350 307.5032708  +6.4232995     8849.217     13433.11     13791.87     78.45618     156.2924     312.4916      1.594     3.48     850.2125     55.08172     1250.902        36     1.524     1.057 -33.31   0
       229    936.3860    687.2927 307.5288041  +6.4210199     2443.004     3699.246     3905.615     78.08405     156.0437     312.3362      1.582     3.75     850.8387     55.08172     376.7268        20     1.403     0.830 -32.98   0
       230     16.8685    686.6967 307.9106082  +6.3904924     1696.358     3224.697      3981.81     78.20829     156.4166     312.4916      1.981     5.40     856.3748     55.08172     262.7429        21     1.711     0.979 -10.67   0
       231    686.9550    690.8286 307.6322539  +6.4112403     1062.375     1625.339     1674.787     77.95961     156.3545     312.3983      1.629     3.23     855.2635     55.08172     181.9636        10     1.012     0.660 -12.26   0
       232    433.7639    684.8818 307.7375804  +6.4052288     547.2706     832.2514     864.7314     78.33233     156.2924     312.4605      1.618     3.47     856.5012     55.08172     94.72498         5     1.028     0.338 -45.80   0
       233    536.7866    682.4596 307.6948865  +6.4096764     2073.437     3434.628     3359.535     77.71014     156.2303     312.2118      1.690     4.12     855.2761     55.08172     317.2238        22     1.482     0.876 -42.88   0
       234     75.2941    681.5233 307.8865263  +6.3945918     25970.67     39413.75     41580.34     78.08405     156.4786     312.4916      1.662     3.69     856.2529     55.08172     3707.648        53     1.612     1.080 -42.04   0
       235    274.3806    682.0836 307.8038499  +6.4010434     505.5958     444.8564      318.466     77.95961     155.9815     312.4605      1.193     4.01     855.4816     55.08172      79.2514         6     1.090     0.423 -76.23   0
       236    505.2158    679.9107 307.7080806  +6.4096725     1484.381      2120.69     2286.729     78.08405     156.0437     312.3362      1.478     4.37     855.5989     55.08172      237.538        14     1.345     0.721 -36.17   0
       237    926.3475    678.8598 307.5332548  +6.4241669     1054.617     1570.517     2016.467     78.33233     156.2303     312.4916      1.831     4.58     850.7637     55.08172     163.0526        12     1.315     0.643 -40.47   0
       238    545.6805    676.5719 307.6913916  +6.4124045     1114.062      1849.87     1875.583     78.20829     156.1059     312.4605      1.748     4.55     854.9962     55.08172     154.3566        13     1.161     0.846 -32.58   0
       239    721.1320    673.8323 307.6186337  +6.4193982     3480.058     5107.052     5486.607     78.20829     156.2924     312.4605      1.566     3.71     854.4692     55.08172     507.5721        22     1.318     0.884 -37.61   0
       240    743.2722    672.1382 307.6094975  +6.4208367     4197.665      6150.35     6214.188     78.45618     156.2924     312.5537      1.537     3.73     854.1396     55.08172     603.7242        24     1.321     0.962 -36.36   0
       241    574.8500    669.9357 307.6795033  +6.4161195     3464.494     4966.282     5176.171     78.20829     156.2303     312.5226      1.517     3.70     854.7526     55.08172     489.2684        22     1.437     0.812 -43.17   0
       242    410.8499    670.4982 307.7475785  +6.4103995     1293.349     1878.328     1734.581     78.33233     156.2303     312.6469      1.521     4.90     856.1945     55.08172     191.6831        13     1.366     0.671 -36.87   0
       243    235.4877    669.2916 307.8204293  +6.4050197     1753.428     2643.604     3031.022     78.33233     156.7266     312.6158      1.689     4.47     854.9637     55.08172     228.4868        18     1.514     0.715 -45.04   0
       244   1016.3077    668.1722 307.4962585  +6.4315751     4995.858     7677.469     7336.846     78.45618     156.0437     312.3673      1.600     3.49     849.8291     55.08172     625.1426        30     1.425     1.075 -45.30  16
       245    318.8907    668.9626 307.7858118  +6.4079523     1500.529     2156.577     1992.326     78.45618     156.2303     312.5226      1.513     3.78     855.4976     55.08172     220.0488        14     1.122     0.850 -55.37   0
       246    981.5696    667.1385 307.5107175  +6.4308453     8055.172     12347.96     12820.09     78.08405     156.2924     312.4294      1.629     3.58     850.0206     55.08172      1148.08        35     1.468     1.062 -37.61   0
       247    535.7942    668.2162 307.6957775  +6.4155233      685.182     1007.536     649.9775     77.95961     155.9815     312.3362      1.505     4.09     854.7922     55.08172     100.8638         6     0.760     0.628  78.47   0
       248    701.4863    665.8875 307.6270577  +6.4220222     948.5541     1273.635     1321.921     78.08405     156.5407     312.6158      1.407     3.96     854.2928     55.08172     155.9581        12     1.253     0.632 -32.75   0
       249     93.0449    663.7430 307.8797571  +6.4025282     831.7743     1065.273     1067.862     78.33233     156.2924     312.5226      1.401     3.45     855.8615     55.08172     170.6205         9     1.101     0.688 -29.45   0
       250    140.0626    660.4443 307.8603474  +6.4054692     24828.99     37094.71     38775.23     78.33233     156.2303     312.5537      1.595     3.66     855.2615     55.08172     3411.056        50     1.588     1.053 -44.92   0
       251    808.4060    661.2816 307.5828166  +6.4274921      1209.96     1772.749     1731.105     77.95962     155.8569      312.274      1.501     3.81     852.0222     55.08172     218.0975        12     1.241     0.668 -40.34   0
       252    427.0952    661.2048 307.7411463  +6.4147801     2924.128     4420.529     5056.638     78.08405     155.9815      312.274      1.649     3.73     855.6343     55.08172     421.8083        20     1.524     0.783 -54.78   0
       253    359.5614    655.4496 307.7693806  +6.4148939     751.6819     1141.341     912.2824     78.20829     156.2924     312.3983      1.661     3.94     855.2405     55.08172     140.1096         9     1.196     0.645 -49.78   0
       254    976.4423    650.1165 307.5134165  +6.4377020     6936.765      11516.4     12207.35     78.33233     156.2924     312.4294      1.796     3.57     849.4322     55.08172     986.7744        39     1.524     1.253 -23.36   0
       255    570.0539    645.3350 307.6823217  +6.4261152     49395.83     73309.66     77796.79     78.33233     156.2303     312.4605      1.573     3.65       853.93     55.08172     6973.162        72     1.616     1.106 -39.20   0
       256    934.8237    647.1555 307.5307973  +6.4375382     725.0784     1069.691     1065.276     77.83498     156.2924     312.3362      1.404     3.63     849.8724     55.08172     148.2221         7     1.058     0.661 -32.79   0
       257    529.6229    645.4404 307.6991059  +6.4247195     765.4597     1162.586     1117.195     77.95962     156.1059      312.274      1.544     4.35     854.0604     55.08172     138.5338         9     1.253     0.557 -29.31   0
       258    214.2240    645.7621 307.8300516  +6.4140197     636.6152     1175.317     1242.109     77.95961     156.1059      312.274      2.223     5.15     854.5377     55.08172     98.87317         7     1.366     0.548 -44.25   0
       259    177.5720    641.9553 307.8453979  +6.4143611     2830.987     4341.438     4828.562     77.95961     156.3545     312.3983      1.659     3.96      854.644     55.08172     405.9067        23     1.425     0.878 -36.91   0
       260     20.8423    649.3559 307.9102205  +6.4060409     1221.084     1745.524     1771.411     78.08405     156.2924     312.3362      1.452     3.93     855.8578     55.08172     181.6342        16     1.183     0.908 -31.86   0
       261    500.2293    642.0109 307.7114260  +6.4251519     631.7417     971.4402     442.2926     77.83498     156.1059     312.3362      1.664     3.89     854.2029     55.08172     88.54718         6     0.938     0.462 -52.88   0
       262     70.4102    636.3327 307.8900807  +6.4130831     1427.361     1970.711     2210.001     77.83498     156.1059     312.3362      1.491     3.90       855.33     55.08172     215.7991        15     1.313     0.714 -41.67   0
       263    467.3145    629.1259 307.7255265  +6.4293697     63841.46     95243.85       100137     78.45618     156.6027     312.5226      1.596     3.61     853.8701     55.08172     9624.301        76     1.619     1.122 -41.73   0
       264     10.7825    630.4863 307.9150351  +6.4134923     1730.674     2441.128     2716.366     77.95962     156.0437     312.4294      1.600     4.52     855.6188     55.08172     237.2795        15     1.253     0.779 -47.52   0
       265    653.3309    626.4348 307.6483781  +6.4367012     918.2118     1135.264     1011.184     78.20829     156.3545     312.5848      1.265     3.89     853.1108     55.08172     174.4461         7     0.974     0.484 -55.93   0
       266    141.7010    624.2301 307.8608898  +6.4204741     1636.037     2265.434     1700.225     78.33233     156.0437     312.5537      1.437     3.96     854.5652     55.08172     239.6168        13     1.230     0.683 -41.13   0
       267    936.3399    622.1082 307.5310068  +6.4479293     627.5219     859.0977     536.4751     78.20829     156.2303     312.5848      1.696     6.57     849.2487     55.08172      96.6413         8     1.567     0.772 -43.61   0
       268    420.9757    621.7653 307.7450151  +6.4308570     844.9431     1303.346     1424.501     77.83498     156.1059      312.274      1.915     4.51     853.6674     55.08172     126.9818        12     1.287     0.703 -46.64   0
       269    613.1734    620.9022 307.6652386  +6.4376434     828.3795     1213.222     1346.222     78.45618     156.0437     312.4294      1.648     4.73     853.1198     55.08172       140.14        11     1.314     0.629 -18.07   0
       270     13.4983    619.8409 307.9142674  +6.4179782      662.967      1087.13     1327.657     78.33233     156.1681      312.709      1.763     4.87     855.4502     55.08172     113.4274         8     1.325     0.508 -57.62   0
       271    495.9605    619.8917 307.7139427  +6.4341406     567.4443     924.4239     1171.156     78.45618     156.2303     312.5537      1.718     3.74     853.3693     55.08172     104.6169         5     0.660     0.609 -86.15   0
       272    312.8030    618.4073 307.7900434  +6.4286188      2190.24     3250.326     3224.663     77.71014     155.9815     312.3362      1.593     3.33     853.5197     55.08172     344.3997        18     1.183     0.925 -51.26   0
       273    464.6379    617.4332 307.7270314  +6.4341072     1025.811     1461.109     2361.539     78.08405     156.1059      312.274      1.671     3.74      853.347     55.08172     196.6962        11     1.197     0.703 -34.89   0
       274    739.3760    612.6597 307.6131116  +6.4452616     5458.816     8031.854     8349.327     77.95962     156.2924     312.3362      1.573     3.52     852.1207     55.08172     885.0212        30     1.528     0.887 -41.05   0
       275    792.9006    607.8914 307.5910459  +6.4490164     14374.95     21064.19     22035.97     78.33233     156.6647     312.4605      1.546     3.69     850.6926     55.08172     2245.329        40     1.513     0.984 -36.74   0
       276   1010.4739    608.3868 307.5006822  +6.4560628      904.836     1298.545      1737.13     77.83498     155.9815     312.3051      1.574     3.13     847.0056     55.08172     150.4427         8     0.961     0.576 -46.51   0
       277    535.1593    607.7822 307.6980736  +6.4404512     1221.025     1859.965      2215.15     77.95961     156.1059      312.274      1.647     4.28     852.7443     55.08172      185.991        11     1.083     0.812 -59.10   0
       278    616.7759    605.9558 307.6642451  +6.4439341     3005.478     4442.329     4430.332     77.83498     156.2924     312.3673      1.541     3.37     852.5732     55.08172     464.8849        21     1.436     0.798 -36.65   0
       279     38.0609    607.0898 307.9045001  +6.4240678     619.3795     892.6203     708.9904     78.33233     156.4166     312.5537      1.624     5.64     855.0261     55.08172     90.41168         7     1.350     0.663 -48.19   0
       280    934.1741    601.9417 307.5325817  +6.4561826     1169.873     1847.603     1859.168     77.95961     156.2924     312.3362      1.576     4.87     848.8149     55.08172     161.2769        14     1.360     0.728 -39.41   0
       281    192.9760    600.7696 307.8403920  +6.4318805     661.9813     1145.062      1322.73     77.83498     156.1681     312.3051      2.011     5.29     853.7034     55.08172     110.3711         7     1.436     0.550 -52.28   0
       282    375.2142    599.7591 307.7647574  +6.4384089     954.3591      1214.46     1472.497     77.83498     156.1059     312.2429      1.400     5.34     852.3207     55.08172     132.8683        12     1.131     0.830 -42.90   0
       283    229.6360    599.3396 307.8252186  +6.4337011      1311.95     1993.208     2507.756     78.33233     156.2924     312.4605      1.840     4.30     853.3206     55.08172     204.5562        13     1.257     0.687 -46.96   0
       284    868.9166    591.2424 307.5600386  +6.4584249     2923.482     4401.862     4890.536     78.33233     156.2924     312.4294      1.636     4.27       849.72     55.08172     382.2189        23     1.467     0.866 -41.44   0
       285    164.6013    590.4918 307.8525205  +6.4351709     684.7742     927.1772     1588.031     77.71014     155.9192      312.274      1.609     4.81     853.6909     55.08172     108.3145         7     0.978     0.670  49.13   0
       286    827.8204    588.6437 307.5771911  +6.4581274     2561.282     3690.166     3782.431     77.83498     156.1681     312.3362      1.498     3.59     849.9598     55.08172     397.8815        19     1.376     0.793 -44.18   0
       287    798.6670    584.5235 307.5894353  +6.4588559     2571.921     4026.536     5186.939     78.45618     156.3545     312.4605      1.781     3.83     850.0566     55.08172     384.1042        23     1.536     0.828 -39.77   3
       288    808.3003    579.7952 307.5855937  +6.4611293       161454     238567.9     251069.5     78.08405     155.9192     312.1496      1.571     3.60     849.8862     55.08172     23971.54       123     1.675     1.215 -43.72   2
       289    255.7109    583.5333 307.8149249  +6.4411011     8162.925     11939.19     12433.67     78.45618     156.4786     312.4605      1.595     3.45     852.6833     55.08172     1189.666        32     1.452     0.986 -37.64   0
       290    189.8728    578.0780 307.8424464  +6.4411439     58931.43     89703.27     96517.48     78.57983     156.5407     312.4916      1.611     3.60     853.0233     55.08172     8759.422        92     1.734     1.204 -46.32   0
       291    615.4658    582.2135 307.6655870  +6.4536920     459.2343     702.4935     412.4257     77.83498     156.1059     312.3983      1.261     4.11       851.55     55.08172     98.98517         5     0.800     0.708 -19.43   0
       292    738.0153    580.2573 307.6147642  +6.4585931     759.1857     1145.806     2382.709     77.71014     156.2303     312.2118      2.224     3.11     850.7559     55.08172      153.565         7     1.010     0.754 -29.03   0
       293    113.8109    574.3463 307.8741545  +6.4401304     6215.532     9695.734     10085.55     77.71014     156.2303     312.1807      1.651     3.67     853.9562     55.08172     877.7374        35     1.533     1.014 -38.46   0
       294    979.3865    571.6104 307.5148228  +6.4702106      1504.19     2163.606     2077.872     78.08405     156.0437     312.4294      1.567     3.65      846.663     55.08172      235.699        12     1.072     0.737 -55.83   0
       295   1000.5165    570.2750 307.5060929  +6.4714655     794.7698      1024.03     677.5389     78.45618     156.6027     312.5537      1.185     2.08     845.8912     55.08172     146.5096         5     0.674     0.449 -64.18   0
       296    228.3476    569.7393 307.8267521  +6.4458775      736.912     1233.807     1686.554     78.33233     156.2303     312.4916      1.695     4.13     852.1913     55.08172     116.3284         7     1.073     0.453 -58.57   0
       297    844.7857    567.1397 307.5708673  +6.4675709     4583.166     6896.451     7199.891     77.83498     156.1681     312.2429      1.591     3.78     849.4566     55.08172     748.0982        26     1.470     0.937 -35.44   0
       298    363.2775    565.2587 307.7708762  +6.4522516     17395.72     26030.53     27299.73     78.45618     156.2924     312.4294      1.598     3.56     851.3871     55.08172     2498.422        44     1.583     1.033 -41.89   0
       299    453.9140    565.2700 307.7332401  +6.4552827     833.2648     1171.349     1370.494     78.45618     156.5407     312.5226      1.587     5.44     851.5323     55.08172     115.2955         7     1.144     0.729  -7.34   0
       300    165.3020    563.9149 307.8531267  +6.4461658     1926.552     3233.778     4056.924     78.33233     156.7266     312.5537      2.104     4.83     853.0381     55.08172     330.1646        22     1.652     0.997 -41.70   2
       301    798.7303    560.4777 307.5902157  +6.4687851     6004.861     8757.261     8995.442     78.57983     156.5407     312.4605      1.584     3.59      849.515     55.08172     896.6283        27     1.488     0.898 -38.20   0
       302    529.6565    560.1423 307.7019611  +6.4599344     6571.251     9782.173     10216.69     78.45618     156.3545     312.5226      1.574     3.73     850.7993     55.08172     935.3932        31     1.503     0.932 -42.21   0
       303    240.2794    561.8702 307.8220632  +6.4495264     896.7536     1663.976     2089.296     78.57983     156.5407     312.4605      1.926     5.41      851.836     55.08172     123.8508        11     1.231     0.688 -39.10   0
       304    102.6154    560.9960 307.8792540  +6.4452655     991.8709     1453.915     1569.536     77.95961     155.9192     312.3362      1.549     5.38     853.9626     55.08172     148.0711        10     1.258     0.707 -40.88   0
       305    387.9736    556.7644 307.7609077  +6.4565857     1503.317     1985.425     1953.032     77.83498     156.0437      312.274      1.454     3.95      851.248     55.08172     224.3116        13     1.215     0.706 -54.05   0
       306    176.6775    553.2765 307.8487625  +6.4509395     6775.748     10561.18     11078.05     78.57983     156.5407     312.5537      1.669     3.82     852.5178     55.08172     999.5923        37     1.573     1.052 -41.44   0
       307    574.3761    553.1843 307.6836253  +6.4643025      2397.85     4137.562     4277.348     78.08405     156.1059     312.4294      1.776     4.93     850.3315     55.08172     295.9349        21     1.537     0.862 -38.07   0
       308     48.2750    551.9216 307.9021237  +6.4471854      5152.49     8004.921     8164.288     78.57983     156.5407     312.5848      1.635     3.61     854.4196     55.08172     696.0464        33     1.542     1.045 -42.11   0
       309    858.3962    552.8655 307.5656940  +6.4739176     607.3193     1082.889     1515.101     77.58511     156.0437      312.274      1.943     5.28     849.1498     55.08172     96.10437         6     1.270     0.619 -50.19   0
       310    815.2579    552.6367 307.5836155  +6.4725735     1513.312     2298.371     2497.519     78.33233     156.2924     312.4916      1.542     3.82     849.3051     55.08172     218.9142        15     1.260     0.780 -36.75   0
       311    271.8953    549.7198 307.8093451  +6.4556029     87421.26     132829.3     139873.2     78.08405     156.5407     312.5848      1.624     3.71     851.2115     55.08172     12525.18        88     1.654     1.172 -41.69   0
       312    561.1829    546.8746 307.6893160  +6.4664662     974.4543     1639.425     2093.339     77.83498     156.0437     312.3673      1.743     4.13      850.073     55.08172     176.7549        10     1.185     0.706 -52.65   0
       313    255.7083    544.8264 307.8162316  +6.4570801     508.6253     632.7009     688.0014     78.45618     156.0437     312.3362      0.718     4.84     851.0785     55.08172     234.5548        14     1.530     0.594 -33.97   0
       314    795.0518    542.2132 307.5923561  +6.4762026     16529.84      24490.1     25323.66     77.71014     156.2303     312.2429      1.550     3.63     849.1506     55.08172     2357.459        46     1.554     1.027 -38.19   0
       315    498.6486    540.5991 307.7154946  +6.4669649     40468.08     66144.12     71033.26     77.71014     155.9192     312.0563      1.797     4.00     850.4154     55.08172     5319.672        77     1.755     1.285 -30.55   0
       316    971.4081    543.7368 307.5190695  +6.4814523     1656.361     2145.158     1616.454     77.71014     156.0437     312.3051      1.419     3.51     846.0728     55.08172     256.0172        13     1.139     0.733 -35.73   0
       317    649.3154    539.3262 307.6529720  +6.4725285     994.2963     1560.099     2122.231     78.45618     156.6027     312.5226      1.598     3.86     849.5881     55.08172     146.5557        10     1.081     0.665 -52.02   0
       318    211.1253    536.9425 307.8350099  +6.4588388     1953.276     2729.872      2605.81     78.33233     156.2924     312.4916      1.460     3.49     851.4167     55.08172     293.3484        16     1.264     0.766 -39.75   0
       319     46.6284    537.1966 307.9033051  +6.4532087     1271.107     2101.504     2038.521     77.83498     156.0437     312.3362      1.692     4.37     854.3257     55.08172     172.9662        13     1.138     0.791 -25.91   0
       320    658.4919    535.5840 307.6492871  +6.4743800     3042.514     4610.598      5270.71     78.08405     156.1059     312.3362      1.713     3.72     849.4539     55.08172     478.3477        18     1.322     0.804 -45.20   0
       321     97.5428    536.8667 307.8821754  +6.4550560      683.521     800.7468     468.4958     78.45618     156.2303     312.4605      1.252     4.95     853.7366     55.08172     117.0726         7     1.111     0.624 -52.40   0
       322    720.6272    534.8596 307.6235089  +6.4767544     1376.932     2231.954     2491.879     77.95961     156.3545     312.3673      1.695     4.85     849.1131     55.08172     213.4337        15     1.408     0.731 -38.93   0
       323    668.8900    535.6010 307.6449686  +6.4747204     1417.393      1917.07     1951.947     77.58511     155.7946     312.2429      1.488     3.50     849.4123     55.08172     205.9164        13     1.200     0.676 -37.79   0
       324     78.0037    532.7188 307.8904287  +6.4561118     739.6229      1224.68     1393.031     77.83498     155.8569     312.2118      1.545     3.60     853.9167     55.08172     119.6234         6     1.080     0.431 -74.03   0
       325    396.4145    531.2682 307.7582614  +6.4673940     1650.153     2441.976     2617.604     77.83498     156.1681     312.3983      1.603     4.40     850.4041     55.08172     200.3372        18     1.431     0.821 -39.70   0
       326    327.8123    529.4586 307.7868093  +6.4658422     3815.042     5959.539     6167.133     77.71014     156.2303     312.2118      1.671     3.74     850.3791     55.08172     549.4845        26     1.457     0.937 -44.29   0
       327    143.0089    528.0528 307.8635942  +6.4602218     25542.72      39098.4     40797.76     77.83498     156.1681     312.2118      1.586     3.62     852.6283     55.08172     3731.007        51     1.585     1.072 -42.05   0
       328    870.9078    528.3462 307.5613203  +6.4844573     1604.364     2626.268     2250.058     78.20829     156.1681     312.6469      1.654     4.90     848.4692     55.08172     215.3944        20     1.518     0.856 -48.17   0
       329    507.7999    528.9805 307.7120854  +6.4720676     2184.335     3229.901     3594.213     77.95961     155.8569     312.1807      1.529     3.72     849.7766     55.08172     331.3479        17     1.308     0.766 -47.70   0
       330    108.2631    526.2762 307.8780818  +6.4597881     2693.205     4225.478     4504.897     78.57983     156.2924     312.4605      1.661     3.82     853.3109     55.08172     362.0527        21     1.369     0.932 -48.35   0
       331    968.5701    522.7945 307.5209494  +6.4900036     5333.413     7834.096     7870.629     77.83498     156.1059      312.274      1.574     3.55     845.5535     55.08172     761.7738        32     1.448     1.002 -39.80   0
       332    345.2237    524.5113 307.7797460  +6.4684682     1059.427     1547.482     1571.484     78.33233     156.1059     312.3673      1.649     3.70      850.204     55.08172     143.2999        11     1.061     0.682 -43.95   0
       333    541.4974    515.1458 307.6985576  +6.4789064     1449.227     2386.611      2633.55     78.20829     156.2924      312.709      1.683     4.15     848.8649     55.08172     231.2299        15     1.331     0.792 -35.12   0
       334      7.2233    512.3948 307.9205056  +6.4621223     24885.29     38469.07      40426.7     77.83498     156.0437        306.5      1.659     3.70     854.9642     55.08172     3421.244        58     1.638     1.135 -38.29  24
       335    440.0157    509.2377 307.7408978  +6.4779491     43049.37     64914.35      68308.8     78.08405     156.1059     312.2429      1.594     3.59     849.4292     55.08172     6031.271        68     1.627     1.104 -43.89   0
       336    416.5497    511.7847 307.7505565  +6.4761118     650.1819     897.4362     1080.789     77.71014     156.3545     312.2429      1.869     4.11     849.7097     55.08172     127.3863         8     1.228     0.629 -39.04   0
       337    648.0403    508.9102 307.6545235  +6.4850426     12216.85      18178.9     18872.84     78.33233     156.2924     312.5226      1.544     3.60      848.587     55.08172     1774.525        39     1.527     0.994 -42.91   0
       338    288.2239    509.2052 307.8039310  +6.4728759     878.4375      1563.27     1511.513     77.83498     156.0437     312.3362      1.697     5.03     849.8907     55.08172      128.337         9     1.332     0.537 -49.61   0
       339    205.1333    506.7908 307.8385156  +6.4710849     18679.12     30935.57     32304.44     77.83498     156.1059     312.4294      1.760     3.74     851.0469     55.08172      2387.84        54     1.589     1.280 -38.00   0
       340    982.0887    507.4167 307.5158504  +6.4968024     1156.624      1732.62     1753.587     78.08405     156.0437     312.3673      1.732     3.98     844.7705     55.08172     146.2571        14     1.020     0.953 -76.13   0
       341    822.1825    506.8457 307.5822759  +6.4917087     970.6145     1646.213     1087.598     77.83498     156.1681     312.2429      1.640     5.11     848.5066     55.08172     177.8366        12     1.430     0.675 -47.52   0
       342    569.9055    505.6693 307.6870795  +6.4837687     2735.871     4177.699      4516.75     78.20829     156.3545     312.5226      1.584     3.89     848.4811     55.08172      429.199        22     1.373     0.941 -50.41   0
       343    170.7712    507.8178 307.8527495  +6.4695074     1610.919     2155.906     1585.463     77.95961     156.1059     312.4294      1.428     3.91     851.6276     55.08172     252.7603        14     1.307     0.689 -28.67   0
       344    910.5191    506.8424 307.5455914  +6.4946552     863.3413       1244.5     939.8839     78.33233     156.2924     312.4605      1.539     4.85     846.7032     55.08172     118.4119         9     1.112     0.600 -53.07   0
       345    943.7183    502.8788 307.5319371  +6.4973978     4917.837     7229.687     7384.499     78.45618     156.5407     312.6779      1.585     3.86     845.5999     55.08172     713.8588        29     1.467     0.952 -45.07   0
       346    616.9182    501.2737 307.6677043  +6.4871551     6610.477     9797.715     10803.93     78.57983     156.6027     312.5537      1.566     3.72     848.2944     55.08172     967.0666        29     1.521     0.893 -40.23   0
       347    104.2145    501.9373 307.8805851  +6.4696996     1123.268     1852.512     2042.807     77.83498     156.1681     312.3051      1.883     4.76     852.9106     55.08172     173.5876        14     1.404     0.711 -40.07   0
       348    216.7816    501.2318 307.8338663  +6.4737708      534.785     654.3669     803.6677     77.95961     156.1059     312.3673      1.375     4.34     850.7612     55.08172     80.74725         5     0.753     0.713  31.39   0
       349    517.1186    500.1949 307.7091842  +6.4842630     548.7107       1062.1     959.6149     77.95961     155.8569      312.274      1.772     3.73     848.4456     55.08172     96.12274         5     1.396     0.286  11.57   0
       350    966.3492    495.2222 307.5227953  +6.5013126     3400.517     5237.988     5665.084     77.83498     156.3545     312.3673      1.655     3.54     844.8308     55.08172     561.2556        26     1.444     0.927 -34.61   0
       351    375.0281    492.7216 307.7684408  +6.4825906     2706.685     4176.817     3978.673     78.20829     156.2303     312.4916      1.625     3.55     849.0152     55.08172     361.9139        23     1.442     0.909 -51.09   0
       352    529.0895    492.4801 307.7044727  +6.4878484     7493.497     11162.74     11851.86     78.08405     156.4786     312.5848      1.603     3.67      848.035     55.08172     1005.146        30     1.485     0.915 -39.26   0
       353    404.6503    494.1806 307.7560907  +6.4829806     693.3568     908.9653     1157.381     77.83498     156.3545     312.3362      1.556     4.92     849.0518     55.08172     112.2835         7     1.227     0.560 -33.50   0
       354    744.7936    493.1094 307.6148749  +6.4947972     656.8647      810.663     1078.478     77.95961     155.9815      312.274      1.366     4.65     848.1198     55.08172     124.3702         8     1.133     0.543 -31.80   0
       355     98.0153    492.3937 307.8834817  +6.4734311     554.7438      693.875     758.1137     77.95961     156.0437     312.3362      1.381     4.50     852.8446     55.08172     89.45953         7     0.958     0.612 -54.11   0
       356    885.6376    488.3221 307.5565452  +6.5014718     3229.172     4777.396     5152.138     78.20829     156.3545     312.4916      1.574     3.59     846.9897     55.08172     493.1913        22     1.330     0.903 -39.51   0
       357    538.7001    489.1789 307.7005927  +6.4895327     715.0474     1191.962     1568.128     78.33233     156.0437      312.274      2.022     5.10     847.8577     55.08172     105.3558         9     1.072     0.903  -7.69   0
       358    234.1723    487.1689 307.8271193  +6.4801598     592.8932     828.8315     392.3421     77.83498     156.0437     312.3051      1.412     3.92     850.2782     55.08172     74.50043         6     0.769     0.572  42.13   0
       359    893.0963    482.7944 307.5536329  +6.5040026     2256.131     3105.879     3306.198     78.08405     155.9815      312.274      1.513     3.82     846.5799     55.08172     349.7861        17     1.264     0.811 -35.14   0
       360    932.5185    482.1016 307.5372845  +6.5056023     1249.596     1619.709     1778.939     78.33233     156.7266     312.5848      1.326     3.32     845.0591     55.08172      197.058        10     1.066     0.605 -47.11   0
       361    112.1749    481.5460 307.8779684  +6.4783849     732.0511     1276.577      757.826     77.95962     156.3545     312.3362      1.804     5.62     852.3232     55.08172     105.5659         9     1.161     0.765 -57.87   0
       362    271.0285    480.7563 307.8120309  +6.4840435     613.4016     907.9518     897.3046     77.95961     156.3545     312.3983      1.470     3.60     849.4343     55.08172     95.52631         5     0.808     0.489 -55.85   0
       363    716.8527    478.7951 307.6269589  +6.4997737     3018.202      4441.03     4510.927     77.71014     156.0437     312.1185      1.520     3.50     847.6886     55.08172     463.3004        20     1.433     0.811 -32.89   0
       364     78.6851    477.7119 307.8920045  +6.4788424     1964.642     2942.041     3321.198     78.08405     156.4786     312.5848      1.703     3.63     853.0941     55.08172     284.9241        15     1.180     0.831 -46.80   0
       365    427.9966    476.9081 307.7469776  +6.4908931     996.4158     1653.902     1873.273     77.95961     155.9815      312.274      1.801     6.63     848.1536     55.08172     148.6607        12     1.339     0.920 -60.45   0
       366    387.7791    476.8770 307.7636796  +6.4895588     3682.241     5607.165      6025.39     77.95961     156.0437     312.4605      1.625     3.81     848.3016     55.08172     561.8623        26     1.461     0.917 -39.60   0
       367    615.5004    473.4866 307.6692271  +6.4985792     10321.02     15321.77     16438.92     78.33234     156.7886     312.5537      1.615     3.84     847.2524     55.08172      1494.29        39     1.565     0.981 -40.98   0
       368    778.2067    470.1003 307.6017712  +6.5054113     16356.32     24139.74     25291.87     78.08405     155.9192      312.274      1.548     3.52     847.5596     55.08172     2410.962        49     1.598     1.038 -41.82   2
       369    782.5731    465.1908 307.6001227  +6.5075839     1290.473     1705.966     1791.347     77.95962     156.1059     312.3673      1.380     3.12     847.3333     55.08172     176.7778        11     0.971     0.762 -72.24   3
       370    297.9214    470.3264 307.8012151  +6.4892512     2806.186     4251.219     4385.735     78.57983     156.5407     312.5226      1.639     4.04     848.5162     55.08172     403.7891        24     1.466     0.898 -44.26   0
       371    422.0432    469.3027 307.7497059  +6.4938335     714.1264     1038.654     868.5137     78.33233     156.2303      312.709      1.597     4.48     847.6355     55.08172     117.3441         8     1.205     0.489 -22.82   0
       372    807.2604    467.1996 307.5898029  +6.5075783     1264.089     1876.018     1611.933     77.58511     156.0437     312.1807      1.531     3.58     847.4903     55.08172     174.6389        12     1.166     0.666 -53.15   0
       373    380.8523    466.9485 307.7668906  +6.4934255     1615.413     2396.783      3079.45     78.45618     156.1681     312.5226      1.586     3.82     847.6328     55.08172     251.2382        16     1.293     0.769 -35.48   0
       374    908.3213    467.3956 307.5478262  +6.5108672     597.1532     875.5209     571.1507     77.95962     155.7946     312.2429      1.584     4.00     845.3951     55.08172     93.65454         6     0.881     0.520 -45.61   0
       375    963.4305    465.0480 307.5250182  +6.5136725     1961.864     2895.552     2653.936     77.95961     156.3545     312.3983      1.523     3.76     843.9061     55.08172     324.7062        17     1.302     0.779 -43.06   0
       376    712.4131    463.7492 307.6293079  +6.5058370     524.3125     863.3422     857.1448     77.71014     156.2924     312.2429      1.753     3.39     847.0373     55.08172     79.79529         5     0.741     0.449 -70.02   0
       377    115.5431    461.9390 307.8772321  +6.4865922     4428.361     6795.711     6798.753     78.45618     156.2303     312.5226      1.673     3.76     851.8303     55.08172     616.3032        27     1.481     0.948 -43.99   0
       378    369.5453    462.7434 307.7717278  +6.4947826     779.8604     1145.473     1327.803     78.45618     156.3545     312.5226      1.439     3.37     847.4011     55.08172      133.902         7     1.134     0.433 -49.53   0
       379   1017.3706    459.8261 307.5027916  +6.5176245      3986.77     6697.352     6911.169     77.83498     156.1059     309.0865      1.777     4.23     842.6094     55.08172     430.2006        28     1.443     1.140  -9.76  16
       380    753.8208    461.0313 307.6122029  +6.5083415      2375.93      3381.43     3368.681     77.83498     156.1059     312.3673      1.469     3.42     846.9662     55.08172     398.9767        19     1.283     0.830 -36.90   0
       381    273.6772    458.8509 307.8116698  +6.4931754     1546.791     2430.238     2534.176     78.33233     156.3545     312.4605      1.637     3.94     848.5206     55.08172     235.0139        17     1.349     0.792 -39.34   0
       382    351.6848    456.6413 307.7793503  +6.4967031     3271.852     4903.645     4911.867     78.33233     156.2303     312.4605      1.620     3.95     847.1028     55.08172      434.916        24     1.437     0.907 -40.55   0
       383    707.6401    454.5908 307.6315976  +6.5094585     1691.173     2323.284     2437.515     77.71014     156.1059     312.2429      1.555     3.48     846.6571     55.08172     237.5359        15     1.116     0.840 -47.04   0
       384    981.7385    453.2048 307.5178115  +6.5191716     652.0587     1033.484     1651.053     77.83498     156.0437      312.274      1.615     4.47     843.0669     55.08172     97.36792         8     1.102     0.516 -33.80   0
       385    239.4943    452.5463 307.8260775  +6.4946313     874.4429     1194.041     1248.651     78.20829     156.2303      312.709      1.536     4.32     849.1458     55.08172     135.8185        11     1.127     0.853 -28.87   0
       386    549.0789    447.3831 307.6976886  +6.5071345     1064.097      1630.75     1938.197     77.95961     156.0437     312.3983      1.802     4.38     846.3057     55.08172     150.1397        11     1.143     0.667 -49.85   0
       387    450.1085    448.2832 307.7387589  +6.5034507     559.2104     774.6251      545.822     78.08405     156.6027     312.6158      1.550     3.42     845.9298     55.08172      88.1402         5     0.985     0.344 -43.45   0
       388    471.2880    445.1881 307.7300677  +6.5054375     1498.534      2175.33     2189.464     77.95961     155.9815     312.3673      1.551     3.81     845.6137     55.08172     202.6514        14     1.223     0.739 -58.47   0
       389    833.9583    444.6684 307.5794712  +6.5177706     1393.261     1871.275     1550.457     78.20829     156.2303     312.5848      1.478     4.32     846.0674     55.08172     208.8156        14     1.383     0.748 -32.83   0
       390    819.2864    443.7842 307.5855941  +6.5176462      1967.54     2966.589     2931.935     77.95961     156.0437     312.3983      1.562     3.99     846.1465     55.08172      331.142        16     1.482     0.655 -27.58   0
       391    716.6734    441.8069 307.6282754  +6.5150377     15291.57     22233.61      23661.4     77.95961     155.8569     312.3983      1.553     3.65      846.069     55.08172      2315.19        42     1.514     1.008 -38.56   0
       392    619.2244    443.5936 307.6686854  +6.5110444     744.2108     979.5189     1093.523     77.83498     156.1059     312.3362      1.252     4.25     846.2158     55.08172     135.5971         7     1.061     0.485 -47.08   0
       393    637.7944    437.7081 307.6611712  +6.5140948     2685.535     3938.837     4334.208     77.95961     155.9815      312.274      1.567     3.73     846.0261     55.08172     398.6465        19     1.402     0.803 -34.77   0
       394    612.9767    434.8491 307.6715739  +6.5144456     5572.238     8534.318     9281.501     77.95961     156.3545     312.3983      1.575     3.91     845.8836     55.08172     817.4445        28     1.498     0.904 -38.96   3
       395    609.2646    432.2448 307.6732031  +6.5153966     14824.44     22222.99     23738.05     78.33233     156.2303     312.4916      1.583     3.60     845.7718     55.08172     2041.671        41     1.539     1.024 -39.19   3
       396    941.9936    431.6520 307.5350399  +6.5267456     3940.479     5605.905     5788.578     77.83498     156.1059     312.1496      1.503     3.69     843.2341     55.08172     609.2864        21     1.310     0.853 -42.95   0
       397    381.0719    427.6140 307.7681247  +6.5096711     28959.27     44686.29      46998.3     77.83498     156.1681     312.3983      1.632     3.73     845.0037     55.08172     4006.493        56     1.607     1.105 -41.65   0
       398    418.3810    429.0252 307.7525834  +6.5103384     551.7097      869.343     726.1253     77.83498     156.0437     312.4294      1.435     3.84     844.7108     55.08172     79.84357         5     0.881     0.481 -84.63   0
       399    897.9718    427.1133 307.5534747  +6.5271524     1460.936     2352.992     2664.918     78.45618     156.0437     312.3673      1.441     3.95     844.1097     55.08172     254.9023        15     1.428     0.717 -34.62   0
       400    127.0662    427.0465 307.8736257  +6.5013835     2299.009     3652.408     3364.609     78.33233     156.2303     312.5226      1.575     3.55     850.9745     55.08172      353.748        20     1.274     0.954 -43.88   0
       401    894.0586    424.3229 307.5551934  +6.5281739     516.6456     1049.483     1686.764     78.45618     156.2924     312.4605      2.309     4.09     844.0759     55.08172     101.7684         5     1.044     0.458 -62.71   0
       402     60.7279    422.7185 307.9013198  +6.5009409     1399.311     2172.596     2719.806     78.57983     156.6027     312.5226      1.629     3.94     852.5339     55.08172      195.222        15     1.167     0.898 -53.08   0
       403    910.7516    422.0880 307.5483355  +6.5296529     5228.811     7523.557     7668.075     78.33233     156.1681     312.5537      1.546     3.64     843.6234     55.08172     792.9331        24     1.373     0.879 -39.13   0
       404    592.9738    423.0764 307.6802769  +6.5186370     641.3023     1037.944     1081.399     78.08405     156.2303     312.4605      1.556     4.09     845.4514     55.08172     118.7343         7     1.103     0.631 -34.93   0
       405    238.6309    418.1374 307.8275970  +6.5088070     13913.36     21020.38     21586.09     78.08405     156.3545     312.4605      1.612     3.69     847.9744     55.08172     2012.969        40     1.532     1.034 -43.52   0
       406    966.8275    419.8127 307.5251227  +6.5324606     511.1162      675.381     374.8612     77.83498     156.1059     312.3983      1.096     3.34     842.1936     55.08172     111.6844         5     0.955     0.338 -43.36   0
       407     74.0406    412.4315 307.8961392  +6.5056350     860.2451     1205.527     1264.885     77.95961     156.1059     312.3673      1.473     4.98     851.8674     55.08172     109.7767         9     1.051     0.721 -47.12   0
       408    733.5955    411.8428 307.6222539  +6.5279730     680.3635      961.395     1102.061     77.71014     155.9815     312.2118      1.487     3.71      844.645     55.08172     166.4473         6     1.133     0.349 -43.34   0
       409   1011.2859    410.7921 307.5069605  +6.5376651     471.7433     634.1064     712.3028     77.95961     155.9815     312.3362      1.487     3.69     840.6172     55.08172     93.53967         5     0.875     0.446 -43.00   0
       410    962.2263    410.3169 307.5273518  +6.5362276     1108.687     1366.736     1440.225     78.20829     156.0437     312.4294      1.263     4.34     841.8735     55.08172     168.2963         8     0.996     0.575 -64.83   0
       411    701.6406    411.1707 307.6355475  +6.5271834     780.2912     1136.344     771.8721     77.95961     156.1059     312.3673      1.374     3.41     844.7863     55.08172      133.386         5     0.765     0.439 -71.98   0
       412    351.3338    408.0227 307.7811347  +6.5167623     1323.079      2429.21     2076.986     77.95961     156.2924     312.3983      1.891     5.36       844.34     55.08172     173.2239        18     1.465     0.893 -47.74   0
       413    184.3661    408.2156 307.8504667  +6.5110815     760.0788     1264.722     962.8932     77.95962     156.0437     312.3673      1.690     4.52     849.4141     55.08172     128.3387         8     1.020     0.569 -66.59   0
       414    138.8535    406.6519 307.8694197  +6.5101987     5022.964      7769.39     8133.956     78.45618     156.1681     312.5226      1.654     3.84     850.4461     55.08172     688.2738        30     1.559     0.967 -47.87   0
       415    436.5896    405.4308 307.7458162  +6.5206886     809.6409      1107.75     790.0121     77.83498     156.0437     312.3673      1.489     4.43     843.3843     55.08172     120.4952        10     1.044     0.758 -60.46   0
       416    243.8386    405.6211 307.8258567  +6.5141487     1324.593     1952.502     1211.972     77.95961     156.0437     312.2429      1.521     4.66     847.4656     55.08172     205.1399        16     1.408     0.797 -39.91   0
       417    161.1173    402.4781 307.8603151  +6.5126694     2362.175     3818.804     4206.135     78.45618     156.5407     312.5848      1.777     4.60     850.0164     55.08172     302.7687        24     1.596     0.981 -52.94   0
       418    825.1465    403.3438 307.5845170  +6.5345370     801.5311     1028.149     1310.622     78.45618     156.2924     312.4916      1.405     4.29     844.0957     55.08172     136.2067         7     1.077     0.508 -32.39   0
       419    556.4396    401.6425 307.6961703  +6.5262638     1084.389     1600.621     1087.959     78.08405     156.2924     312.3673      1.610     4.79     844.1276     55.08172     152.9214         9     1.157     0.562 -42.49   0
       420    972.7589    396.6668 307.5234347  +6.5422137     967.2775     1700.821     2130.011     78.33233     156.2303     312.5537      2.088     6.11     840.9319     55.08172     116.7598        14     1.279     0.976 -63.40   2
       421    384.2937    397.4565 307.7678029  +6.5222288     2119.256     3403.703     3653.817     78.20829     156.2924     312.6779      1.723     4.27     843.5164     55.08172     322.8326        24     1.636     0.952 -42.23   0
       422    272.6455    397.6583 307.8141623  +6.5184024     817.2373     1236.344     1191.475     78.33233     156.2924     312.5848      1.683     5.78     846.3709     55.08172     123.9536         9     1.297     0.725 -52.21   0
       423      2.9539    397.6171 307.9261599  +6.5093604     551.3748     912.3851     995.7878     77.83498     145.1484      259.799      1.590     4.19     853.6291     55.08172     103.6193         6     1.432     0.350 -44.73  24
       424    438.2639    390.9864 307.7456073  +6.5267077     7230.695     11318.92     12018.94     77.83498     156.1059     312.3362      1.645     3.62     842.8722     55.08172     970.8308        39     1.578     1.063 -46.82   0
       425     34.6795    391.7028 307.9131853  +6.5128688     2982.687     5041.773     5266.101     78.08405     156.5407     312.5226      1.804     4.43     852.5186     55.08172     411.0374        29     1.729     0.922 -42.80   0
       426    778.8455    388.3747 307.6042489  +6.5391719     13304.13      19311.6     20301.52     77.83498     156.3545     312.3673      1.541     3.49     843.5928     55.08172     1970.462        38     1.479     0.976 -38.80   0
       427    770.9969    389.7543 307.6074622  +6.5383404     2062.275     3176.848     3940.886     77.71014     155.9815     312.1496      1.612     3.61     843.6791     55.08172     311.5005        17     1.268     0.792 -40.74   0
       428    198.5384    390.7385 307.8451713  +6.5187722     473.0799     666.8679     617.4873     78.33233     156.2924     312.5226      1.216     3.43     848.4663     55.08172     92.09448         5     0.757     0.450  69.42   0
       429    342.4243    386.6221 307.7855561  +6.5252983     1137.139     1791.093     2156.002     77.95962     156.1059     312.4916      1.684     4.21     843.8773     55.08172     163.7363        14     1.301     0.753 -59.32   0
       430   1022.6151    383.6049 307.5031656  +6.5492662       3654.9     4968.154     5299.643     77.58511     138.3681     251.4045      1.493     3.58     838.8295     55.08172     561.1015        20     1.283     0.862 -45.21  24
       431    953.9857    379.4814 307.5318074  +6.5486831     566.7424     788.6415     864.9496     77.95961     156.0437     312.3051      1.336     3.64     840.5966     55.08172     112.7678         5     1.012     0.409 -64.87   0
       432    187.3986    379.7009 307.8501701  +6.5229547     738.2488     1030.149     690.6816     77.83498     156.0437     312.2118      1.450     4.26     848.5883     55.08172     113.7997         7     0.950     0.545 -28.60   0
       433    392.6926    377.7035 307.7649804  +6.5306648     517.2166     1047.972     1046.497     78.33233     156.7886     312.4605      1.970     4.01     842.7392     55.08172     93.93787         5     1.474     0.312 -39.04   0
       434    486.3958    374.5925 307.7261700  +6.5350871     3179.461     4819.695     5432.848     77.71014     155.9815     312.3362      1.705     3.86      842.142     55.08172     449.0969        23     1.509     0.847 -36.91   0
       435    458.5300    375.1675 307.7377235  +6.5339168     2235.919     3322.327     3109.918     78.20829     156.2924     312.5226      1.600     4.15     842.2172     55.08172     356.2476        21     1.508     0.836 -37.48   0
       436    915.7080    374.3880 307.5478759  +6.5495105       824.03     921.3605     1225.283     78.08405     156.0437      312.274      1.161     3.49     841.4514     55.08172     161.1705         6     0.713     0.648 -70.34   0
       437    844.2721    371.2561 307.5776502  +6.5484219     33495.41     51378.78     54005.42     78.20829     156.2303     312.4605      1.642     3.62     842.7501     55.08172      4811.09        60     1.606     1.132 -50.08   0
       438     61.4191    367.9344 307.9028846  +6.5235797     613.8578     996.8396     348.0714     77.95961     156.2924     312.3983      1.699     6.34     851.2494     55.08172     100.0479         8     1.355     0.833 -53.89   0
       439    336.6389    366.6706 307.7886314  +6.5333408     898.1973     1280.753     1192.881     78.20829     156.2924     312.5537      1.540     4.00     843.3538     55.08172      140.378        10     1.070     0.822 -67.51   0
       440    616.1002    363.6813 307.6726693  +6.5439303     2794.024     4152.248     4768.974     78.33233     156.7886     312.5848      1.548     3.71     841.4459     55.08172     415.0172        22     1.365     0.967 -30.54   0
       441     24.4092    364.1799 307.9183809  +6.5238852     1025.169     1684.114       2096.2     77.95961     156.0437     312.3051      1.821     5.30     851.8218     55.08172     143.3371        13     1.375     0.764 -42.39   0
       442    147.7260    361.6137 307.8672563  +6.5290891     649.7854     1009.572     1100.035     77.83498     156.0437     312.3362      1.739     4.60     849.3661     55.08172     94.34808         7     0.878     0.685 -70.06   0
       443    700.7088    357.2272 307.6377465  +6.5494219     82109.34     119608.5     125424.7     78.45618     156.0437     312.3673      1.570     3.41      842.197     55.08172     12711.53        84     1.600     1.142 -39.15   0
       444    858.9138    358.7798 307.5719876  +6.5540608     1292.032     1881.979     1919.183     78.08405     156.0437     312.4294      1.556     3.84      842.269     55.08172     218.4222        14     1.280     0.759 -28.95   0
       445     79.9241    356.3985 307.8955897  +6.5289639     1403.711     1978.516     2096.447     77.71014     155.7323     312.3362      1.632     4.28     850.6683     55.08172      218.959        12     1.175     0.725 -52.00   0
       446    942.1251    354.3857 307.5375744  +6.5586484     911.2526      1282.19     1417.339     77.83498     156.0437     312.3362      1.600     4.78     839.7763     55.08172     126.4058        10     1.194     0.661 -38.28   0
       447    563.0762    353.9508 307.6950183  +6.5461743     2676.979     4097.609     4580.722     78.20829     156.3545     312.4916      1.658     3.56     840.5745     55.08172     370.3041        22     1.364     0.906 -42.81   0
       448    100.3804    352.7518 307.8872178  +6.5311568     5970.144     9458.579      9730.75     77.83498     156.2924     312.3051      1.707     3.89     850.2966     55.08172     802.5778        34     1.533     1.056 -42.70   0
       449    761.4325    351.3724 307.6127230  +6.5538666     546.3032     950.7213     1368.585     77.83498     156.0437     312.3051      1.765     3.40     842.0215     55.08172     83.90607         5     1.077     0.310 -68.00   0
       450    546.4808    350.0353 307.7020424  +6.5472356     7170.251     10465.51     11068.82     78.20829     156.3545     312.4916      1.537     3.53     840.3863     55.08172     1020.762        29     1.447     0.925 -42.77   0
       451    275.4760    347.6438 307.8146740  +6.5391443     2582.907     4093.899     4207.791     78.20829     156.3545     312.5226      1.697     4.08      844.847     55.08172     360.8834        21     1.417     0.873 -47.16   0
       452    409.3309    345.3005 307.7591622  +6.5445989     25928.79     39480.08     41750.95     78.33233     156.4166     312.4916      1.664     3.69     841.5005     55.08172     3711.382        56     1.619     1.098 -39.29   0
       453    587.8096    344.7260 307.6850563  +6.5508098       770.73     1061.815     791.1971     77.95961     155.9192     312.3673      1.411     5.29     840.0623     55.08172     114.4133         9     1.206     0.655 -38.41   0
       454    516.9730    344.0232 307.7144998  +6.5487303     1348.605     1936.601     1806.284     77.83498     156.1681     312.3983      1.533     3.52     840.4485     55.08172     205.2943        16     1.162     0.917 -53.34   0
       455    389.0132    343.5497 307.7676593  +6.5446410     1162.075     2143.918     2623.681     77.71014     156.2303     312.2118      1.846     6.80     841.6777     55.08172     165.2435        17     1.576     0.836 -39.10   0
       456    676.9295    343.0945 307.6480975  +6.5544620     523.3008      950.166     1068.966     78.20829     156.3545     312.4916      1.495     3.76     841.3948     55.08172     93.70618         5     1.030     0.393 -31.40   0
       457    488.7955    340.3684 307.7263255  +6.5492960     1297.797     2104.474     2202.629     77.71014     156.1681      312.274      1.640     4.53      840.543     55.08172     175.3071        13     1.258     0.716 -56.65   0
       458    386.3077    338.0502 307.7689683  +6.5468207     721.4388     1329.633     1281.311     78.20829     156.1681     312.6779      2.004     4.29     841.5565     55.08172     115.8389         7     1.152     0.599 -44.04   0
       459    804.4968    337.6883 307.5952963  +6.5609530     887.9052     1456.887     777.8834     78.33233     156.7266     312.5226      1.612     4.20      841.601     55.08172     133.6056         6     1.008     0.499  88.02   0
       460    498.3947    335.7176 307.7224953  +6.5515373     8680.431     13207.22     13520.15     77.95962     155.9192      312.274      1.635     3.60     840.2718     55.08172     1192.635        37     1.543     1.019 -42.56   0
       461    923.0684    334.4976 307.5461560  +6.5662240     1044.979     1738.403     1786.593     78.33233     156.4166     312.4605      1.802     4.38     839.6922     55.08172     163.3877        12     1.264     0.703 -45.17   0
       462    767.3998    334.4878 307.6108114  +6.5610363     3344.543     4937.037     5301.543     77.58511     155.7946     312.1496      1.600     3.71     841.4868     55.08172       488.96        23     1.441     0.889 -40.84   0
       463    715.3116    334.2515 307.6324533  +6.5593948     863.0889     1166.077     1044.939     78.33233     156.1059     312.5848      1.428     4.37     841.2693     55.08172     139.4641         8     1.000     0.545 -65.53   0
       464    324.9763    332.4579 307.7946284  +6.5470735     1063.575     1508.807     1463.748     77.95961     156.2924     312.3362      1.544     4.56     842.6337     55.08172      163.511        12     1.215     0.736 -32.67   0
       465    160.3368    326.4686 307.8632062  +6.5440212     1043.349     1713.827     1603.705     78.33233     156.2924     312.5537      1.748     4.90     848.4701     55.08172     178.4814        13     1.321     0.778 -51.05   0
       466    261.5869    326.1257 307.8211681  +6.5475615     654.5038     961.2046        995.1     77.83498     155.9815     312.3051      1.348     2.58     844.6174     55.08172     112.1641         5     0.721     0.445 -68.19   0
       467    388.2884    319.9347 307.7687561  +6.5543655     7427.091     11458.96     11726.47     78.33233     156.4786     312.5226      1.627     3.66     841.0887     55.08172     1005.873        34     1.529     1.019 -43.80   0
       468    244.1824    320.3671 307.8285907  +6.5493548     2126.831     3195.333     3276.595     77.95961     156.1059     312.3673      1.501     3.85     845.1362     55.08172     297.5444        16     1.312     0.747 -44.34   0
       469    742.0834    319.5668 307.6218273  +6.5663510      962.285     1363.666     1509.997     78.33233     156.1059     312.4605      1.492     4.68     841.0464     55.08172     154.3934        11     1.198     0.678 -44.22   0
       470    756.1840    315.8003 307.6160972  +6.5683767     54876.25      80910.3     84698.07     77.95961     155.8569     312.2429      1.539     3.56     840.9207     55.08172      7876.49        64     1.558     1.067 -40.88   0
       471    427.9211    315.1588 307.7524568  +6.5576649     2215.751     3417.447      3421.42     78.20829     156.2924     312.4916      1.649     3.66     840.5321     55.08172     291.3289        18     1.302     0.803 -43.67   0
       472    991.0849    312.8939 307.5186295  +6.5774087     1723.459     2461.311     2587.026     78.20829     156.7266     312.5848      1.463     4.20     837.3398     55.08172     266.5912        17     1.425     0.751 -32.41   0
       473    932.1439    312.0209 307.5431399  +6.5758056     2379.459     3556.718     3768.757     77.95961     156.2924     312.3051      1.535     3.61     838.7622     55.08172     340.1927        19     1.371     0.784 -36.43   0
       474    574.1379    312.4097 307.6918214  +6.5636936     1314.398     1864.012     1712.015     77.71014     156.1059     312.3051      1.417     4.07     838.4829     55.08172     229.9553        14     1.391     0.653 -44.95   0
       475    465.0256    311.4632 307.7371708  +6.5604331     1085.981     1800.055     1674.155     77.95961     156.2924     312.4294      1.660     4.51     839.5568     55.08172     145.0502        16     1.469     0.785 -49.89   0
       476    414.3660    310.5576 307.7582415  +6.5591103     2037.197       3013.9     2931.019     78.08405     156.2924     312.3051      1.602     4.00     840.7035     55.08172     275.0488        17     1.262     0.844 -43.52   0
       477    294.4198    310.2063 307.8080693  +6.5552348      693.456     1167.022     711.5635     77.95962     156.0437     312.3051      1.670     5.45     842.8985     55.08172     103.2747         8     1.404     0.597 -50.31   0
       478    835.5163    305.4903 307.5834930  +6.5752803     1257.301     1948.836     2129.812     78.08405     156.5407     312.5848      1.733     3.86     840.1914     55.08172     188.5422        12     1.275     0.790 -32.10   0
       479    464.9488    305.8908 307.7373904  +6.5627309      839.818     1036.876     516.6452     78.33233     156.1059     312.6469      1.451     3.46     839.3438     55.08172     115.8322         9     0.809     0.764  70.30   0
       480    967.4581    303.6141 307.5287538  +6.5804528      636.681     1053.073     916.5247     77.71014     156.1681     312.1807      1.465     4.77     837.7062     55.08172     103.6978         8     1.379     0.467 -48.99   0
       481    445.0707    302.5691 307.7457581  +6.5634366     1152.331     1680.323     1810.579     78.20829     156.2924     312.4605      1.611     3.52      839.756     55.08172     169.0206        12     1.043     0.808 -43.81   0
       482    190.7806    302.2234 307.8513814  +6.5550523     2264.121     3436.225     3547.622     78.08405     156.1681     312.4294      1.609     4.11     846.8894     55.08172     308.7169        21     1.445     0.845 -36.55   0
       483    754.6388    300.3740 307.6172569  +6.5746936      6329.46     9333.966     9450.275     77.95962     156.1059     312.3362      1.571     3.63     840.4174     55.08172     949.4822        30     1.476     0.945 -43.60   0
       484    345.0496    299.9993 307.7873860  +6.5611461     578.7299     993.7865     967.6667     77.71014     155.9192     312.0563      1.641     3.74     841.0031     55.08172     95.47095         5     0.699     0.575   0.01   0
       485    226.5419    300.0030 307.8366043  +6.5571694     577.6409     852.4556     875.8883     77.71014     156.1059     312.2429      1.332     3.73     845.4229     55.08172     93.26648         6     1.160     0.344 -41.03   0
       486     87.2076    299.3726 307.8944923  +6.5527497     901.4252     1343.428      1415.54     77.95962     156.1059     312.3051      1.653     4.91     849.1638     55.08172     142.8751        13     1.372     0.760 -30.01   0
       487    771.0633    298.2481 307.6105065  +6.5761195     2632.606     3709.552     4041.104     78.20829     156.1681     312.5537      1.398     3.30     840.3545     55.08172     400.3889        18     1.209     0.789 -50.95   0
       488     74.0691    293.6260 307.9001431  +6.5546804     1316.281     2153.347      1701.95     77.95961     156.1681     312.4294      1.687     5.96     849.1037     55.08172     183.7516        18     1.568     0.946 -50.85   0
       489    360.6175    292.8011 307.7811629  +6.5646395     1797.954     3390.977     3821.817     77.95962     155.8569     312.2118      2.016     6.28     840.5257     55.08172     221.0134        28     1.897     0.978 -10.47   0
       490   1009.3201    289.2385 307.5118478  +6.5877817     6166.067      9031.23     8967.225     78.20829     156.3545     312.4605      1.557     3.63     836.4797     55.08172     923.4583        31     1.473     0.975 -41.42   0
       491    487.4047    289.0443 307.7286309  +6.5704374     2123.185     3133.796     2951.307     77.71014     155.9192     312.1807      1.566     3.66     838.0897     55.08172     288.4862        19     1.290     0.861 -50.45   0
       492    249.8948    284.5757 307.8274261  +6.5643218     5999.641     9013.721     10026.92     78.45618     156.0437     312.3673      1.643     3.60     844.0701     55.08172     844.4423        30     1.527     0.943 -42.77   0
       493    917.5352    284.2045 307.5501401  +6.5868024     555.8223     806.1069     470.5868     77.58511     155.9815      312.274      1.108     3.43     838.0127     55.08172     102.8435         5     0.749     0.454 -69.71   0
       494    814.7616    283.1629 307.5928627  +6.5838054     623.6054     1037.464     1120.376     78.08405     156.1681     312.3673      1.630     2.61     839.5991     55.08172     120.2208         6     0.745     0.540 -40.80   0
       495    769.5024    277.8597 307.6118393  +6.5844844     776.9873     1272.718     1698.242     78.08405     156.2924     312.6158      1.906     5.16     839.5021     55.08172     126.3426         9     1.371     0.611 -30.23   0
       496    226.1880    277.4751 307.8375116  +6.5664574     789.3618     1227.478      1035.06     77.95962     155.9815      312.274      1.546     5.00     844.9608     55.08172     110.9975        10     1.268     0.619 -40.88   0
       497    384.1237    275.1769 307.7719942  +6.5727030     1763.059     2994.402     2974.689     77.95961     156.1681     312.3983      1.753     4.51     840.0072     55.08172     249.4357        19     1.415     0.898 -54.48   0
       498    970.8625    274.4737 307.5283162  +6.5925964     1066.961      1434.32     1461.453     78.57983     156.2924     312.4916      1.487     4.04     836.3802     55.08172     176.7021        11     1.230     0.629 -48.17   0
       499    306.5132    271.2669 307.8043600  +6.5717153     1202.609     1823.398      1586.75     78.33233     156.4786     312.5226      1.703     3.93     841.7233     55.08172     177.3339        14     1.232     0.717 -42.59   0
       500    153.7567    271.1353 307.8678078  +6.5666426     1870.603     2796.055     2212.602     78.33233     156.2303     312.4916      1.588     3.68     847.3117     55.08172     266.0063        17     1.231     0.891 -39.25   0
       501    563.5128    266.7551 307.6977703  +6.5821857     2253.915     3376.746     3697.443     78.33233     156.1681     312.4916      1.609     3.51     836.8386     55.08172     319.6725        18     1.197     0.900 -51.30   0
       502    907.2132    266.3734 307.5550253  +6.5938197     1803.751     2969.194     3147.179     78.08405     156.1059     312.4294      1.761     4.24     837.2708     55.08172      266.926        18     1.342     0.874 -41.13   2
       503    727.0663    264.4287 307.6299163  +6.5886124     5232.385     7661.358     7868.928     78.08405     156.2303     312.4294      1.536     3.76     838.3826     55.08172     739.4246        29     1.445     0.950 -46.23   0
       504    668.1040    264.2148 307.6544138  +6.5867311     2168.902     3077.604     3269.479     78.08405     156.0437      312.274      1.520     3.89     837.0712     55.08172      307.713        17     1.345     0.751 -44.38   0
       505    964.4964    264.1105 307.5313077  +6.5966627     571.1714     857.3821     593.2669     78.33233     156.7266     312.4916      1.866     4.84     835.9512     55.08172     109.5668         7     1.481     0.448 -28.85   0
       506    923.0057    256.6398 307.5487919  +6.5983644     1157.075     1638.392     1541.644     77.58511     155.9815     312.2118      1.458     4.18     836.4484     55.08172     170.1093        15     1.375     0.703 -43.49   0
       507    226.6298    249.5959 307.8382692  +6.5779812     2385.276     3802.276     3322.698     77.83498     156.1059     312.3362      1.718     3.39      844.232     55.08172     349.8879        23     1.370     0.979 -55.00   0
       508    869.4201    248.7062 307.5713157  +6.5998534      1796.22     2600.336     2570.571     78.20829     156.1059     312.3362      1.492     3.14     837.2921     55.08172     279.8564        14     1.176     0.702 -38.44   0
       509    759.7479    248.2790 307.6168841  +6.5963706     1605.908     2399.809     2619.722     78.33233     156.2924     312.4916      1.593     3.89     837.8658     55.08172     272.8666        15     1.296     0.749 -54.89   0
       510    460.4898    239.6251 307.7414739  +6.5899377     23544.77     35309.63     37362.39     78.45618     156.1059     312.3362      1.663     3.62     836.6779     55.08172     3195.339        56     1.637     1.090 -43.49   2
       511    466.3891    234.0980 307.7392098  +6.5924170     1406.009     2214.187     2358.826     78.08405     155.9192     312.3362      1.630     4.33     836.2263     55.08172      223.287        15     1.375     0.781 -41.77   3
       512    786.5058    238.8254 307.6060872  +6.6011665     13751.05      20313.2     21493.48     78.45618     156.0437     312.3362      1.590     3.69     837.6566     55.08172     1975.549        45     1.621     1.001 -35.56   0
       513    725.3479    234.5452 307.6316339  +6.6008918     707.8383     1072.563     1429.407     78.45618     156.2924     312.4605      1.724     6.29     836.7164     55.08172     119.3453         9     1.353     0.822 -38.09   0
       514    148.6794    232.9415 307.8712068  +6.5822389     2373.811     3540.812     4034.886     78.45618     156.2924     312.4605      1.586     4.02     846.0866     55.08172     376.0022        17     1.386     0.758 -40.48   0
       515    779.3799    231.3199 307.6092990  +6.6040272     811.0274      1178.28     1226.125     78.08405     155.9815     312.4916      1.655     5.61     837.1758     55.08172     112.0351        11     1.288     0.687 -31.49   0
       516    123.5129    231.8238 307.8816969  +6.5818548     1040.587     1664.028     1609.024     78.33233     156.1059     312.3673      1.754     3.97     846.9987     55.08172     143.5723        11     1.061     0.713 -44.87   0
       517    175.8251    230.6885 307.8600084  +6.5840808     719.6758     964.8754     995.0762     78.45618     156.1059     312.3362      1.439     4.63     845.1453     55.08172      95.0636         7     0.984     0.619 -48.09   0
       518    922.7706    229.3297 307.5498052  +6.6096311     1383.833     1837.536      2275.97     78.20829     156.2924     312.4294      1.397     3.34      834.916     55.08172     260.8871        13     1.217     0.670 -31.20   0
       519    584.5732    225.4306 307.6904130  +6.5999500     4791.212     7249.721     6598.098     77.83498     156.0437     312.3362      1.638     3.64     835.3915     55.08172     695.9324        27     1.415     0.972 -42.87   0
       520    547.1191    225.4012 307.7059709  +6.5987093     1991.136     3017.563     2748.386     77.58511     155.7946     312.2429      1.608     4.39       835.36     55.08172     308.5406        17     1.459     0.720 -44.73   0
       521    388.8849    224.7360 307.7717166  +6.5936856     1620.535     2423.255     1786.774     78.45618     156.4166     312.4916      1.620     4.97      838.637     55.08172     230.8901        16     1.302     0.867 -33.19   0
       522    305.0879    225.8946 307.8064824  +6.5903980     1214.099     1644.037     913.5533     78.33233     156.6647     312.5537      1.463     3.52     841.6511     55.08172     159.9307        12     1.047     0.772 -33.11   0
       523    945.5061    222.5842 307.5405874  +6.6131735     2765.766     3800.452     4230.584     78.08405     156.1059     312.3362      1.526     3.69     834.0634     55.08172     388.9801        18     1.262     0.839 -50.43   0
       524    891.5541    221.9604 307.5630189  +6.6116329     11439.79     16559.35     17200.16     78.20829     156.2924     312.3673      1.544     3.68     835.4133     55.08172     1773.622        34     1.447     0.965 -42.26   0
       525    318.8100    222.5459 307.8008959  +6.5922406     937.6191     1393.401     1818.829     77.71014     156.2303     312.2118      1.618     5.85     841.1827     55.08172     139.8392        12     1.228     0.785 -34.72   0
       526    566.9994    221.9529 307.6978294  +6.6007979     907.8179      1173.14      860.172     77.71014     155.9815     312.0563      1.449     4.00     835.3083     55.08172     150.9117         7     0.927     0.495 -44.32   0
       527    211.0437    222.0199 307.8456736  +6.5888419     751.1738      1035.94     1217.242     77.83498     156.1681     312.3362      1.464     3.02     843.9842     55.08172     125.1508         7     0.868     0.522 -37.80   0
       528    978.2764    219.7881 307.5270690  +6.6154195     9971.768     14643.58     15432.47     77.95961     155.9192     312.3362      1.536     3.51     833.2465     55.08172     1387.962        33     1.468     0.964 -44.49   0
       529    689.6090    219.6884 307.6469778  +6.6058314     2979.521      4520.75     4869.847     77.95962     155.9815      312.274      1.635     3.79     835.5121     55.08172     443.9153        20     1.428     0.798 -46.81   0
       530    263.8035    219.5804 307.8238426  +6.5916197     1072.241     1674.302     1500.938     77.95962     155.8569     312.3051      1.597     4.99     842.6668     55.08172     142.1216        15     1.325     0.816 -49.84   0
       531     17.7361    218.4823 307.9260799  +6.5838061     26487.47     39965.23        41991     78.45618     156.4166     312.4916      1.671     3.57     848.7626     55.08172     3595.696        57     1.609     1.117 -41.75   0
       532    498.3091    214.5169 307.7266110  +6.6015691      2042.92     3092.701     3054.545     78.08405     156.5407     312.5848      1.657     3.39     835.0987     55.08172     294.6194        18     1.245     0.848 -42.52   0
       533    510.1922    210.6204 307.7218064  +6.6035755     2721.484     4100.925     4039.113     77.95962     156.0437     312.3051      1.551     3.49     835.0072     55.08172      386.807        21     1.458     0.837 -49.28   0
       534    830.1678    211.3186 307.5888744  +6.6139790     2214.331     3102.829     3321.168     78.20829     156.2303     312.4605      1.434     3.45     835.9427     55.08172     305.9517        19     1.271     0.861 -42.41   0
       535    882.5516    210.5043 307.5671425  +6.6160622     2111.355     3113.282     3946.005     78.20829     156.1681     312.6469      1.738     3.96     835.0394     55.08172     290.6495        18     1.310     0.851 -42.32   0
       536    741.7695    207.9261 307.6257069  +6.6124293     40943.51     60105.55     63106.84     78.20829     156.2924     312.4916      1.566     3.60     835.6128     55.08172     6359.427        65     1.573     1.096 -42.85   0
       537    344.8486    207.2619 307.7905962  +6.5994232     5918.922     11871.57     13324.78     78.33233     156.2303     312.5537      2.148     6.16     839.9141     55.08172     721.7537        45     2.037     1.131 -63.91   0
       538    975.5834    206.8042 307.5286227  +6.6206900     2950.855     4205.298     4151.225     77.95962     155.9815     312.3362      1.513     3.71     832.9544     55.08172     429.0952        21     1.350     0.845 -43.02   0
       539    909.6234    205.0173 307.5560814  +6.6192299     7724.861     11355.17     11942.47     78.08405     156.1681     312.3983      1.564     3.55     834.1815     55.08172     1246.267        32     1.464     0.962 -39.21   0
       540   1013.7554    205.3383 307.5128156  +6.6225665     1853.003     2456.832     1997.696     78.20829     156.2303     312.5848      1.451     4.43     832.1657     55.08172     239.7305        14     1.143     0.763 -42.14   0
       541    453.2560    204.0527 307.7456766  +6.6043806       5064.5      7692.84     7952.727     78.45618     156.2924     312.4605      1.577     3.65      835.641     55.08172     702.1243        28     1.404     0.997 -36.27   0
       542    228.1021    200.6939 307.8393085  +6.5982182     695.4296     1188.854     891.2002     78.33233     156.8505     312.3983      1.573     5.96     843.4703     55.08172     80.76306        12     1.459     0.685 -55.81   0
       543    110.5680    195.4409 307.8883029  +6.5964391     4910.947     7455.156     7812.795     77.95962     156.1681     312.3673      1.639     3.69      846.341     55.08172     665.3843        27     1.500     0.888 -43.05   0
       544    930.3708    194.1091 307.5478289  +6.6244247     901.5407     1334.564      2271.62     78.45618     156.0437     312.4294      1.736     4.17     833.4041     55.08172     128.7741         9     1.104     0.619 -87.59   0
       545    280.8556    192.0592 307.8176887  +6.6035530     34616.88     52763.41     55981.64     78.45618     156.2924     312.5226      1.606     3.59     841.8665     55.08172     4906.783        56     1.597     1.102 -40.97   0
       546    256.2105    193.0797 307.8278906  +6.6023048     6534.564     10155.61      10923.6     77.95961     156.0437     312.3362      1.639     3.54     842.6141     55.08172     885.2047        34     1.524     1.029 -47.84   0
       547    607.1583    193.9774 307.6820898  +6.6136899     505.7827     903.0659     1072.942     77.95961     156.1059      312.274      1.860     3.92     834.6876     55.08172     73.16663         6     0.926     0.475 -54.68   0
       548     79.9335    192.6549 307.9011208  +6.5965595     1195.955     1487.869     1666.715     78.33233     156.2303     312.4916      0.868     3.29     847.2454     55.08172     353.0072         6     1.043     0.302  39.40   0
       549    710.0433    191.1954 307.6394473  +6.6182767     1038.919     1506.027     1912.782     77.71014     155.9815     312.2118      1.526     3.73     834.7233     55.08172     159.3768        10     0.980     0.708 -57.85   0
       550    404.9133    187.5540 307.7663122  +6.6095722     50916.66     77168.89     80662.15     78.33233     156.1681     312.4916      1.635     3.79     836.7517     55.08172     6914.852        67     1.623     1.130 -40.79   0
       551    160.8663    188.8128 307.8676358  +6.6008652     3951.348     6211.591     6524.247     77.83498     156.1059     312.3983      1.612     3.82     844.3762     55.08172     577.9551        27     1.499     0.928 -44.66   0
       552    422.5759    188.2118 307.7589536  +6.6098924     1419.577     2032.855     1701.193     77.95962     156.1059     312.4294      1.564     3.74     836.0497     55.08172     204.0545        16     1.185     0.845 -46.08   0
       553    308.9728    185.2663 307.8062392  +6.6073004     18636.59     28591.98     30240.73     77.95961     156.1681     312.4294      1.625     3.58     840.7159     55.08172     2542.518        46     1.582     1.060 -40.42   2
       554    316.3502    184.6942 307.8031943  +6.6077840     2081.718     3663.371     4862.079     78.20829     156.1681     312.6158      2.242     6.67     840.4328     55.08172     317.9285        27     2.034     0.984 -67.00   2
       555    744.2432    183.8272 307.6254888  +6.6224606     33886.23     49995.39     52450.85     77.95961     156.3545     312.3983      1.562     3.59     834.5205     55.08172     4802.941        58     1.587     1.038 -39.88   0
       556    692.3570    185.8430 307.6469737  +6.6198956     1079.827     1553.796     1407.352     78.08405     156.2924     312.3051      1.405     3.22     834.5241     55.08172     169.5612        10     1.045     0.610 -43.63   0
       557    792.6366    184.3973 307.6053678  +6.6238407      1238.99     1832.394     1788.737     77.45987     156.1059     312.3051      1.639     4.48      834.779     55.08172     194.1362        13     1.376     0.683 -42.10   0
       558     31.4206    184.3415 307.9215512  +6.5983600     641.2405     983.4931      1217.08     77.95962     156.1681     312.3051      1.450     3.98     848.6044     55.08172     106.8454         6     0.868     0.523 -45.03   0
       559     60.9551    181.0193 307.9093967  +6.6007247     9148.774     14199.25     14635.38     77.95961     156.1681     312.3362      1.624     3.64     847.5797     55.08172     1326.338        37     1.556     1.032 -40.22   0
       560     94.9736    179.0117 307.8953352  +6.6026971     1564.789     2296.546     2089.077     77.95961     156.1059     312.4294      1.473     3.88     846.3471     55.08172     243.2272        16     1.294     0.827 -39.24   0
       561   1002.8550    178.2550 307.5182509  +6.6333844     1003.213     1580.545     1471.406     78.57983     156.2924     312.4916      1.776     5.04     831.8306     55.08172     145.7675        10     1.219     0.590 -39.68   0
       562    728.7469    171.8130 307.6323293  +6.6269030     689.2892     1118.458      1371.41     77.71014     156.2303     312.2429      1.573     4.02     833.9725     55.08172     102.2235         6     0.759     0.610  -4.85   0
       563    578.1042    168.1597 307.6950266  +6.6233765     798.0276     1171.599     949.1573     78.33233     156.1681     312.6469      1.518     4.88     834.0792     55.08172     114.0148         8     1.033     0.653 -42.66   0
       564   1003.6086    164.3509 307.5184036  +6.6391496     2159.017     3295.727       4020.4     77.83498     156.1059     312.1807      1.639     4.03     831.5354     55.08172     336.8829        18     1.358     0.822 -41.17   0
       565    587.0596    161.6303 307.6915264  +6.6263715     992.0706     1671.323     1809.956     78.08405     156.2924     312.4605      1.731     4.49     833.9418     55.08172     194.8757        11     1.410     0.571 -47.72   0
       566    279.6990    158.3442 307.8193067  +6.6174323     31477.35     48077.62     51247.98     78.08405     156.2924      312.709      1.670     3.56     841.4882     55.08172     4386.715        71     1.767     1.176 -35.49   0
       567    594.9913    160.0971 307.6882832  +6.6272697     2019.808     2959.595     2365.901     78.08405     155.9192     312.3051      1.454     3.70     833.8809     55.08172     295.2366        16     1.372     0.670 -37.97   0
       568    339.2367    160.1780 307.7945149  +6.6186722     976.1016     1516.631     1503.279     77.95961     156.0437      312.274      1.648     4.44     838.8324     55.08172     167.9274        13     1.267     0.731 -22.11   0
       569     24.9652    157.0759 307.9251546  +6.6093983      4398.99     7114.918     7881.982     78.20829     156.3545     312.4605      1.734     4.26     848.8612     55.08172     657.1581        38     1.730     1.068 -52.72   0
       570    711.4176    155.0149 307.6400921  +6.6332590     8471.613      12478.6     13129.18     78.08405     155.9815     312.4294      1.553     3.51     833.4565     55.08172     1287.725        33     1.464     0.968 -37.63   0
       571    188.9628    155.8085 307.8570806  +6.6154334     998.5393     1524.546     1321.239     77.58511     156.0437     312.2429      1.465     3.92     843.4579     55.08172      182.261        10     1.183     0.610 -53.40   0
       572    265.6529    153.2353 307.8253134  +6.6190700     764.2613     934.0563     967.3481     78.20829     156.2924     312.4916      1.377     4.08     841.9746     55.08172     126.2403         9     1.021     0.634 -59.73   0
       573    122.1931    152.0448 307.8849411  +6.6147441     4980.895     7909.585      8207.01     77.83498     156.1059     312.1807      1.666     3.61     844.6243     55.08172     719.4795        31     1.543     0.980 -38.16   0
       574    584.3425    150.0799 307.6930436  +6.6310490     755.5218     1001.938     765.5648     78.33233     156.2924     312.4605      1.516     5.17     833.4756     55.08172     120.6979         9     1.078     0.700 -27.97   0
       575    461.4375    149.4385 307.7441178  +6.6272005     1353.347     1918.233     1378.501     78.08405     156.1681     312.3673      1.550     4.38      833.754     55.08172     204.1259        14     1.232     0.800 -37.01   0
       576    392.9352    148.0717 307.7726182  +6.6254699     3785.606     6495.236      6916.31     78.33233     156.2924     312.5226      1.903     4.12     836.1328     55.08172     449.5862        30     1.525     1.128 -53.71   0
       577    357.3356    147.1973 307.7874348  +6.6246377     3249.394     4965.692     4855.169     77.71014     156.1059      312.274      1.581     3.81     838.0408     55.08172     472.7108        24     1.503     0.877 -51.87   0
       578    650.0515    148.9180 307.6657879  +6.6337255     948.6346     1138.068     1022.335     78.33233     156.2924     312.5537      1.335     4.06     833.5001     55.08172     136.6638         8     0.965     0.589 -62.71   0
       579    569.2741    147.0502 307.6994047  +6.6317957       583.34     823.2361     783.3005     78.33233     156.3545     312.5226      1.501     5.10     833.3097     55.08172     95.26245         8     1.274     0.576 -46.56   0
       580    111.8110    146.7546 307.8894321  +6.6165790     1796.954     2556.591     2281.703     77.83498     156.1681     312.2118      1.509     3.96     844.7979     55.08172     231.2273        16     1.364     0.735 -45.01   0
       581    673.2285    144.6626 307.6563034  +6.6362568     843.3641     1190.555     1570.705     77.95962     156.2924     312.4294      1.492     4.22     833.3608     55.08172     132.2561        10     1.307     0.704 -51.79   0
       582   1003.9981    141.2961 307.5190142  +6.6486804     1558.169     2205.665     2162.782     77.83498     156.0437     312.1496      1.490     3.65     830.3785     55.08172     253.2375        15     1.291     0.743 -43.35   0
       583    209.2183    135.8382 307.8493417  +6.6243576     5607.716     8543.007     8441.724     77.95961     156.1681     312.2429      1.591     3.64     843.1888     55.08172     755.6682        26     1.436     0.924 -44.95   0
       584     91.9050    135.6896 307.8980742  +6.6204777     2172.769     3308.934     3260.862     78.33233     156.7266     312.5537      1.646     3.69     845.2125     55.08172     312.1508        23     1.518     0.875 -50.63   0
       585    670.9883    134.7511 307.6575672  +6.6402737     6462.542     9455.293     9422.043     77.71014     156.2303     312.1807      1.542     3.71     833.0121     55.08172     963.2533        28     1.377     0.961 -40.49   0
       586    819.3386    134.3200 307.5959569  +6.6454052     1085.682     1400.042     1189.673     78.45618     156.2924     312.4916      1.448     3.57     831.9089     55.08172     169.9501        10     0.961     0.714 -48.30   0
       587    623.1486    132.0324 307.6775309  +6.6397970     9608.442     14495.78     16327.51     78.20829     156.3545     312.4294      1.587     3.50     832.9066     55.08172     1326.949        40     1.622     0.990 -41.60   3
       588    626.6818    123.5079 307.6763499  +6.6434343     55042.73     81392.03     85287.43     78.08405     156.6027     312.5537      1.622     3.67     832.6275     55.08172     7921.074        68     1.596     1.107 -40.49   2
       589    561.4662    130.9336 307.7031903  +6.6381878     689.4951     1088.838     1194.116     78.33233     156.2924     312.5226      1.738     4.95     832.5621     55.08172     124.6819         7     1.284     0.540 -54.96   0
       590    258.0105    131.9790 307.8292052  +6.6275885      758.437     1095.538     1031.547     77.95961     155.9815     312.3362      1.667     5.54      842.228     55.08172      117.973         8     1.099     0.786 -49.10   0
       591     22.0148    130.8818 307.9272662  +6.6201121     897.3837     1552.778     1503.362     77.95961     156.0437     312.3362      1.850     6.45     848.8312     55.08172     118.4095        14     1.718     0.681 -48.58   0
       592    350.3815    127.7539 307.7909790  +6.6324310     3866.709     6149.758     6831.079     77.95962     156.1681     312.2429      1.716     3.96     838.5062     55.08172     548.3722        30     1.680     0.926 -48.82   0
       593    532.0666    126.8045 307.7155417  +6.6389087     1866.328     2896.269     3300.488     77.83498     156.0437     312.3051      1.658     4.41     832.3182     55.08172     274.4396        20     1.543     0.795 -41.25   0
       594    997.0887    126.0916 307.5223939  +6.6547272     891.0849     1204.708     1091.862     78.33233     156.7886     312.5848      1.468     4.84     829.6125     55.08172     146.1395        13     1.175     0.921 -26.47   0
       595    305.7208    117.2672 307.8098839  +6.6352624     3719.686     5689.977     6070.219     78.45618     156.4786     312.4916      1.658     3.76     840.6005     55.08172     483.3356        25     1.427     0.928 -35.56   0
       596    705.8950    111.5686 307.6438460  +6.6510103     1061.601     1590.742     1782.697     78.45618     156.1059     312.5537      1.595     5.36     832.1533     55.08172     139.9405        11     1.335     0.608 -33.97   0
       597    677.0341    110.8221 307.6558601  +6.6503542     1464.307     2219.283     2092.959     77.83498     156.1059     312.2429      1.606     3.65     832.1688     55.08172     216.5857        14     1.255     0.737 -46.22   0
       598      3.5086    100.1489 307.9359927  +6.6321762     734876.3      1527521      1625205     78.20829     150.4689     267.7493      2.113     5.57     849.7483     55.08172     64276.18       329     2.174     1.665 -57.43  28
       599    691.0711    107.4133 307.6501436  +6.6522305     3365.278     4957.833     4982.436     77.83498     156.0437     312.3673      1.541     3.60     832.0151     55.08172     518.0728        21     1.360     0.843 -39.82   0
       600    432.7595     98.4581 307.7577478  +6.6472857     4409.774     6806.969     6948.704     78.33233     156.2924     312.5537      1.641     3.90     832.6186     55.08172     570.9382        29     1.523     0.944 -42.75   0
       601    887.4001     94.8698 307.5690071  +6.6639615      2177.13     3310.167     2949.004     77.83498     155.7946      312.274      1.591     3.82     828.7247     55.08172     310.5709        20     1.279     1.022 -43.25   0
       602    905.3630     93.9874 307.5615745  +6.6649246      3940.88     5857.704     5878.047     77.83498     156.1059     312.2118      1.571     3.77     828.5519     55.08172     586.4398        24     1.433     0.868 -35.01   0
       603    585.3920     94.1438 307.6944895  +6.6541758      661.079     996.8271     1228.206     77.71014     156.1681     312.2429      1.770     5.14     831.2563     55.08172     111.1729         9     1.236     0.803  -3.38   0
       604    597.4242     92.3871 307.6895504  +6.6553034     1818.714      2492.85     2668.277     78.08405     156.1059     312.4294      1.467     3.22     831.3429     55.08172     323.1283        16     1.224     0.810 -37.66   0
       605     85.2199     92.5809 307.9023085  +6.6380485     380.1098      604.248     212.0114     78.08405     156.2303     312.4294      1.664     3.67     844.4377     55.08172     85.86389         5     1.495     0.260 -40.67   0
       606    396.1780     90.2759 307.7732193  +6.6494377     2072.584     2895.555     2720.467     77.95961     156.1059     312.4294      1.528     3.38     834.7678     55.08172     310.1455        22     1.399     0.887 -46.07   0
       607    243.4241     91.5761 307.8366278  +6.6437778     874.7412     1249.243     1642.307     77.83498     156.1059     312.3673      1.677     4.55     842.4672     55.08172     125.6627         8     1.150     0.512 -52.28   0
       608    144.1783     87.0777 307.8780046  +6.6423019     3347.125     5126.288     4852.909     77.95961     156.0437     312.4916      1.611     3.72     842.3166     55.08172     447.5679        23     1.393     0.935 -46.26   0
       609     26.0033     84.8893 307.9271654  +6.6392322     12577.34     19348.45     20577.15     77.83498     155.9815     312.1807      1.637     3.61     847.5836     55.08172     1741.888        43     1.568     1.054 -39.93   0
       610    292.5692     85.5095 307.8164183  +6.6479313     1477.345     2253.524     2781.721     78.45618     156.1059     312.4605      1.745     4.51     841.3024     55.08172      186.278        15     1.260     0.793 -39.68   0
       611    760.7386     84.1820 307.6219834  +6.6641477     664.3851     1141.401     1523.876     77.95961     156.2303     312.3051      1.810     5.30     830.7086     55.08172     117.4652         7     1.414     0.560 -51.50   0
       612    565.3124     84.8946 307.7031419  +6.6573224     654.5311     829.5715     617.2606     78.33233     156.6647     312.5537      1.358     4.37     830.7382     55.08172     95.54059         7     0.899     0.604 -15.74   0
       613    553.1862     84.5430 307.7081911  +6.6570618     719.3179      877.616     425.3396     77.71014     156.1681     312.1807      1.401     5.34     830.6041     55.08172     108.9548         9     1.012     0.795 -56.39   0
       614    827.8141     79.6720 307.5942703  +6.6682482     6353.192     9258.153      10070.4     77.83498     156.1681     312.3983      1.561     3.80     829.4044     55.08172      948.808        32     1.523     0.944 -38.20   0
       615    772.8388     80.1293 307.6170928  +6.6662248     3331.153     4788.984     4996.029     78.20829     156.2924     312.5537      1.504     3.85     830.3607     55.08172     533.7124        21     1.472     0.767 -44.56   0
       616    895.0292     80.9380 307.5663051  +6.6699673     549.6072     643.6754     686.5971     78.08405     156.2924     312.4605      1.092     3.66     828.3295     55.08172     95.24908         5     1.000     0.386 -58.61   0
       617    417.6969     80.5980 307.7646066  +6.6541540     1060.074     1763.027     1574.965     77.83498     156.0437     312.1807      1.704     5.34     832.8922     55.08172     141.8425        11     1.296     0.620 -40.80   0
       618    919.3703     79.4150 307.5562443  +6.6714075     465.6552     612.3525     895.3102     77.95962     156.0437     312.4294      1.478     3.83     828.0374     55.08172     76.89282         5     1.019     0.413  74.41   0
       619    759.7308     79.0360 307.6225749  +6.6662385     668.0119     959.4111     1246.922     78.20829     156.3545     312.5848      1.508     4.38      830.488     55.08172     121.0825         6     0.825     0.663 -73.72   0
       620    535.1572     78.0905 307.7158976  +6.6591223     1025.757     1602.957     1835.793     78.33233     156.2924     312.5537      1.528     4.21     830.4692     55.08172      174.519        10     1.157     0.581 -58.89   0
       621     97.6952     79.3149 307.8975751  +6.6439442     511.7931     869.5901     583.2915     78.33233     156.6647     312.5848      1.389     3.78      842.994     55.08172     97.37646         5     0.907     0.453 -45.18   0
       622     66.1867     76.8779 307.9107453  +6.6438909     3394.656     5242.721     5479.115     77.95961     155.9815     312.3051      1.642     3.93     844.7288     55.08172     454.2721        23     1.381     0.938 -38.89   0
       623     50.6093     77.5956 307.9171915  +6.6430707     1073.153     1541.015     1076.765     77.71014     155.9815     312.3362      1.616     4.30     845.6646     55.08172     143.0972        11     0.979     0.882 -41.24   0
       624    427.7373     76.3561 307.7605788  +6.6562415     993.6891     1555.902     1556.724     78.33233     156.2303     312.5537      1.558     4.04     832.6049     55.08172     135.8529        11     1.140     0.772 -61.05   0
       625    590.2516     73.5517 307.6931636  +6.6628392     1408.535     2064.772     2295.414     78.45618     156.1681     312.4916      1.593     4.12     830.6454     55.08172     207.8879        17     1.263     1.021 -50.70   0
       626      8.7834     72.1496 307.9347491  +6.6439119     2582.058     4029.631     4940.389     77.83498     156.3545     312.2118      1.650     3.63     847.7189     55.08172     350.9745        23     1.379     0.942 -41.12  16
       627    767.3711     67.4361 307.6197905  +6.6712823     2071.264     2998.418     3178.705     77.95962     156.0437     312.3051      1.644     4.01     829.8425     55.08172     290.0759        19     1.381     0.858 -36.80   0
       628    408.2536     67.5503 307.7689691  +6.6592239     873.2145     1174.516     1069.329     78.45618     156.2924     312.5226      1.646     4.10     833.7126     55.08172     145.8724         9     1.186     0.509 -47.56   0
       629     81.2421     67.9994 307.9047919  +6.6480622     778.7912      1043.33     1132.071     77.71014     155.9815     312.1185      1.558     5.58     843.3828     55.08172     119.8392        10     1.218     0.721 -41.45   0
       630    105.3959     66.1190 307.8948224  +6.6496504     843.2724     1240.334     1125.752     77.83498     155.8569     312.2118      1.529     4.61     842.2701     55.08172     120.5889         9     0.956     0.656 -31.39   0
       631     94.0326     61.0981 307.8997123  +6.6513411     9306.029     14549.72     14961.44     78.33233     156.1681     312.6158      1.645     3.72     842.3049     55.08172     1228.833        36     1.539     1.038 -41.00   0
       632    423.1666     60.8767 307.7629991  +6.6624785     2645.481     4170.326      4356.27     78.20829     156.2924     312.4605      1.627     3.79     832.7155     55.08172     367.0145        20     1.408     0.807 -49.02   0
       633    636.8170     53.2213 307.6745034  +6.6727891     18855.48     28086.05     29950.67     78.08405     156.0437     312.3983      1.588     3.49     829.9924     55.08172     2856.235        50     1.559     1.063 -40.89   0
       634    261.0222     55.3583 307.8305403  +6.6593196     1547.674      2385.64     3196.991     77.95961     156.1059      312.274      1.720     5.19     841.7084     55.08172     202.3987        19     1.533     1.071 -13.80   0
       635    945.9740     53.6719 307.5460554  +6.6829216     583.2233     956.7852     1644.761     77.95961     156.1681     312.3983      2.201     5.20     826.7084     55.08172     105.6425         7     1.237     0.644 -70.95   0
       636    666.8692     54.6401 307.6619713  +6.6732079     487.0435     335.8571     485.5609     78.20829     156.2924     312.5848      1.069     3.82     830.0446     55.08172      101.482         6     0.935     0.576 -67.28   0
       637    536.6362     49.2719 307.7162534  +6.6710687     5457.442     8062.686     8607.012     78.20829     156.2924     312.5226      1.583     3.54     829.7488     55.08172     799.5397        30     1.485     0.925 -43.90   0
       638    624.7216     46.7280 307.6797465  +6.6750653     933.5705     1632.932      2195.94     78.57983     156.5407     312.4605      1.826     4.73     829.7734     55.08172     178.4461         7     1.382     0.481 -41.82   3
       639    623.0660     42.9118 307.6805626  +6.6765854     3115.809     5002.324     6013.533     78.33233     156.4786     312.4605      1.722     3.69     829.6227     55.08172     462.4981        24     1.403     0.996 -53.04   2
       640    442.1727     44.8536 307.7556437  +6.6697299     23339.76     35504.24     37316.77     78.08405     156.4166     312.3983      1.608     3.64     831.9283     55.08172      3142.35        54     1.579     1.110 -45.38   0
       641      4.0333     47.3953 307.9375599  +6.6539707     1180.629     1948.892     1904.917     77.58511     154.4176     274.2694      1.758     4.96     846.2672     55.08172     155.0752        13     1.143     0.903 -40.59  16
       642    262.7624     45.2157 307.8301598  +6.6635649     9326.586      14828.3     15761.66     78.08405     156.1059     312.2429      1.697     3.72     841.5984     55.08172     1333.904        42     1.574     1.107 -40.25   0
       643    920.1232     44.9481 307.5570873  +6.6856615     1992.074     2980.231     2837.339     78.45618     156.3545     312.4916      1.531     4.06     827.1219     55.08172     280.4766        19     1.339     0.864 -41.05   0
       644    554.7856     45.0130 307.7088571  +6.6734342     755.9084     1217.427     1343.446     78.20829     155.9815     312.4294      1.735     5.85     829.5743     55.08172     111.3334        12     1.309     0.736 -35.80   0
       645    508.6599     46.2253 307.7279777  +6.6713901     477.7538     589.0543     739.4285     77.95962     156.2924     312.3673      1.220     4.37     830.0412     55.08172     93.14343         5     0.755     0.719 -53.37   0
       646    322.6573     45.5082 307.8052694  +6.6654536     1120.592      1486.12      1800.02     78.20829     156.2303     312.5848      1.524     4.25     839.9373     55.08172     158.3483        13     1.140     0.840 -38.76   0
       647     28.1759     44.8541 307.9276175  +6.6558320     2403.494     3672.141     3846.747     77.83498     156.2924     312.3051      1.566     3.70     844.8987     55.08172      360.063        20     1.350     0.840 -43.36   0
       648    255.0517     49.5784 307.8332156  +6.6615052      1918.31     3162.167     4339.128     77.83498     156.2924     312.3051      1.859     4.07     841.6946     55.08172     241.7036        19     1.277     1.007 -57.33   0
       649    250.8206     41.8734 307.8352332  +6.6645439     3179.774     5063.242     5540.126     77.95961     156.2303     312.4294      1.663     3.81     841.6093     55.08172     461.7548        24     1.445     0.930 -43.59   0
       650    304.0394     39.9333 307.8131915  +6.6671306     1048.147     1587.927     1662.837     78.20829     156.2303     312.5848      1.597     4.80     840.8031     55.08172     136.6002        10     1.051     0.761 -38.88   0
       651    940.7643     35.0251 307.5488449  +6.6904459     1144.009     1587.016     1570.845     77.95961     156.1059     312.2429      1.544     4.47      826.205     55.08172     191.8704        14     1.181     0.954  89.30   0
       652    691.9601     34.4431 307.6522268  +6.6823841     1890.725     2689.004      2805.01     78.08405     156.2924     312.3673      1.521     3.70     829.0212     55.08172     258.7844        17     1.205     0.950 -50.14   0
       653     96.3145     35.2195 307.8996394  +6.6621007     597.0709     940.9333      1016.69     77.95962     156.0437     312.4294      1.670     4.64      840.928     55.08172     89.24292         6     0.951     0.642 -58.92   0
       654    257.3869     29.3390 307.8329287  +6.6699386     680.8927     1286.137     1581.182     77.83498     156.1059     312.1807      2.047     5.68     841.4393     55.08172     117.1942         9     1.221     0.743 -50.13   0
       655    203.3947     29.9291 307.8553374  +6.6678824     896.9457     1245.704     613.6665     77.83498     155.9192     312.3673      1.576     4.52     841.1764     55.08172     138.8373         9     1.122     0.698 -46.83   0
       656    180.2578     27.3270 307.8650364  +6.6681795     10932.14     16861.68     17522.75     78.45618     156.2924     312.4605      1.654     3.73     840.8605     55.08172     1538.734        41     1.561     1.053 -45.74   0
       657    524.5480     25.5406 307.7220740  +6.6804609     2999.261     4556.465     4279.185     78.33233     156.2303     312.4916      1.636     3.59      829.358     55.08172     454.3115        23     1.452     0.886 -35.80   0
       658    925.8100     25.1440 307.5553889  +6.6940267     4224.466     6402.301     6497.677     77.71014     156.2303     312.1807      1.577     3.59      826.488     55.08172     662.7836        26     1.397     0.945 -38.80   0
       659    462.7422     23.9802 307.7478021  +6.6790358     1867.425     2786.016     2649.506     77.95961     156.1681     312.3051      1.592     4.03     830.7511     55.08172     291.3937        17     1.358     0.766 -50.61   0
       660    726.5729     23.7128 307.6382082  +6.6879701     1968.712     2844.739     2615.415     78.45618     156.0437     312.3673      1.510     3.63     828.1825     55.08172     305.3517        17     1.354     0.785 -39.35   0
       661    990.5809     21.4337 307.5286045  +6.6977165     2022.706     3144.112     3057.999     77.83498     156.1059     312.3051      1.647     4.20     823.1852     55.08172     299.7039        21     1.590     0.865 -44.48   0
       662    733.5820   1020.7704 307.6018228  +6.2765848      1024.52     1683.859     1786.672     77.95962     155.4203     276.8765      1.885     5.34     861.4837     55.08172     151.0125        11     1.072     0.750 -49.61  24
       663    364.4895   1019.1052 307.7550873  +6.2649321     1923.072      2804.19     3236.581     78.33233     156.7266     295.5667      1.620     3.79     865.3436     55.08172     286.5901        21     1.437     0.907 -37.97  16
       664    332.1635     16.7181 307.8022916  +6.6776574     951.3797     1466.291     1799.609     78.33233     156.2924     312.4605      1.545     4.19     839.5354     55.08172     136.2949        12     1.221     0.697 -46.88   0
       665    974.9889   1017.3270 307.5017276  +6.2860535     490.4234     600.6853     1092.115     77.83498     155.9192     309.2435      1.318     3.33     857.8482     55.08172     99.15521         5     0.785     0.579 -88.47  16
       666    386.4773     15.1776 307.7797807  +6.6801144     628.9761     620.5319     194.5924     77.95962     156.1059     312.4294      1.320     4.76     835.6629     55.08172     94.61322         7     1.059     0.606 -40.26   0
       667    517.0950   1010.6304 307.6920272  +6.2735383     1175.409     1900.003     1789.505     78.45618     156.0437     312.5226      1.714     4.71     865.3782     55.08172      185.509        12     1.376     0.723 -49.32   0
       668    751.3832   1008.7896 307.5948352  +6.2821250     7689.001     12225.63     12889.51     78.08405     156.0437     312.3673      1.706     3.60     861.3239     55.08172     960.3309        36     1.547     1.066 -36.88   0
       669    546.8276   1009.3234 307.6797292  +6.2750722     4101.903     6593.441     6928.734     78.20829     156.2924     312.4605      1.716     3.76     865.2816     55.08172     561.6399        26     1.483     0.963 -47.04   0
       670    297.1721   1007.9453 307.7834055  +6.2672837      14824.3     23377.94     24995.17     78.08405     156.3545     312.3673      1.693     3.77     865.1407     55.08172     2173.346        58     1.979     1.061 -36.54   0
       671    421.5699   1008.4623 307.7317521  +6.2712371     863.1555      1303.79     914.0491     78.08405     156.2924     312.4605      1.625     5.63     865.2286     55.08172     136.7642         9     1.261     0.708 -49.06   0
       672    812.5251   1008.0186 307.5694804  +6.2844829     1032.557     1565.984     1410.823     77.83498     156.0437     312.4294      1.516     5.38     861.0807     55.08172     136.1266        11     1.354     0.614 -31.64   0
       673    268.2487   1005.8400 307.7954821  +6.2671833     841.8458      1315.87      1423.86     78.20829     156.2924     312.3983      1.628     3.97     865.1254     55.08172     151.3003         9     1.082     0.796 -58.87   0
       674    912.7504   1002.3145 307.5280665  +6.2901784     8210.503     13802.43     14541.65     78.33233     156.2303     312.5537      1.805     3.84     858.6763     55.08172     1005.725        39     1.574     1.183 -38.57   0
       675    544.0594   1001.6045 307.6811377  +6.2781662     8247.236     13081.17     13881.97     77.71014     156.1681      312.274      1.675     3.74     865.1407     55.08172     1153.422        38     1.566     1.068 -41.41   0
       676    886.3978    998.4274 307.5391361  +6.2909051     11569.42     19759.22      21171.5     77.83498     156.0437     312.3051      1.859     3.81     859.2753     55.08172     1349.451        56     1.728     1.287 -31.51   0
       677   1008.0947    997.7588 307.4886395  +6.2952341     4353.839     7541.449     7522.703     78.33233     156.2303     312.6158      1.864     3.95     856.5028     55.08172      497.662        39     1.722     1.244 -47.94   0
       678    598.9427    998.7634 307.6584509  +6.2811737     1476.228     1897.868     2344.218     78.33233     156.2924     312.4916      1.420     3.37     863.4329     55.08172     233.8155        13     1.122     0.746 -33.63   0
       679    530.5415    997.3210 307.6868930  +6.2794826     4197.575     6459.424     6883.743     78.45618     156.2924     312.4605      1.657     3.60     864.9931     55.08172     599.0748        28     1.454     1.012 -23.75   0
       680    640.2637    996.6068 307.6413707  +6.2834447     1334.434     2247.106     2162.668     77.71014     155.9815     312.3051      1.764     4.97     863.1113     55.08172     190.5963        13     1.183     0.777 -34.66   0
