#   1 NUMBER                 Running object number                                     
#   2 X_IMAGE                Object position along x                                    [pixel]
#   3 Y_IMAGE                Object position along y                                    [pixel]
#   4 ALPHA_J2000            Right ascension of barycenter (J2000)                      [deg]
#   5 DELTA_J2000            Declination of barycenter (J2000)                          [deg]
#   6 FLUX_APER              Flux vector within fixed circular aperture(s)              [count]
#   9 FLUXERR_APER           RMS error vector for aperture flux(es)                     [count]
#  12 FLUX_RADIUS            Fraction-of-light radii                                    [pixel]
#  13 FWHM_IMAGE             FWHM assuming a gaussian core                              [pixel]
#  14 BACKGROUND             Background at centroid position                            [count]
#  15 THRESHOLD              Detection threshold above background                       [count]
#  16 FLUX_MAX               Peak flux above background                                 [count]
#  17 ISOAREA_IMAGE          Isophotal area above Analysis threshold                    [pixel**2]
#  18 A_IMAGE                Profile RMS along major axis                               [pixel]
#  19 B_IMAGE                Profile RMS along minor axis                               [pixel]
#  20 THETA_IMAGE            Position angle (CCW/x)                                     [deg]
#  21 FLAGS                  Extraction flags                                          
         1    713.7775     25.5564 307.6453781  +6.6897184     4625.022     10020.48     10949.61     89.83888     180.2527     360.4696      2.189     4.86     1124.568     63.57656     485.5526        47     1.768     1.490 -65.85   0
         2    634.0706     24.9199 307.6785473  +6.6873216     2235.751     4722.399     5318.198      90.6986     180.6828     360.7206      2.252     6.19     1126.678     63.57656     247.7419        34     1.818     1.351 -62.52   0
         3    434.2050     21.1618 307.7617907  +6.6821945     3449.028     8514.618     9765.178     89.40591     180.1091     360.3978      2.406     5.98     1134.537     63.57656     346.9828        42     1.839     1.494 -64.15   0
         4     35.4443     20.8461 307.9276236  +6.6689583     5301.914     11790.84      13238.8     90.41293     180.3962     360.6131      2.300     5.20     1158.308     63.57656     577.7072        51     1.877     1.511 -73.44   0
         5    104.7741     16.5152 307.8989408  +6.6730744     1584.654     3521.875     4530.282     90.55588     180.1091     360.5413      2.544     7.94     1155.182     63.57656     193.5577        29     1.890     1.244  85.97   0
         6    330.8475     16.1578 307.8049415  +6.6808014      7299.15     17837.63     21058.98     90.41293     180.3245     360.5772      2.496     5.61     1146.019     63.57656      753.521        64     2.041     1.697 -62.90   0
         7     96.0859     15.5870 307.9025851  +6.6731660     833.2088     1863.381      2453.14     89.98273     180.2527     360.5413      2.361     6.34     1155.303     63.57656     125.2024        10     1.564     0.723 -42.02   0
         8    397.2463     13.9260 307.7774047  +6.6839456      1326.51     3036.193      2965.46     90.26976     180.4679     360.6848      2.259     5.84     1138.407     63.57656      166.001        22     1.429     1.327 -41.13   0
         9    657.7491      9.4266 307.6692221  +6.6945091     6424.838     14732.15     16518.64     89.98273     180.5395     360.6131      2.356     5.34     1125.893     63.57656     623.1859        54     1.911     1.555 -62.00  19
        10    658.6844      2.0103 307.6690830  +6.6976024      1595.37     2739.468     3675.082     87.06043     154.5211     283.9133      2.029     7.03     1125.676     63.57656     241.2455        18     1.424     0.973 -19.35  27
        11    535.6002      9.9742 307.7200018  +6.6902038     781.2405     1545.934     1627.982     89.83887     180.0373     360.4696      2.080     4.82     1128.758     63.57656     130.2467         7     1.392     0.667 -37.08   0
        12    821.9412      8.8990 307.6009558  +6.7002018     1048.918     2332.039     2432.211     90.12637     180.3962     360.8282      2.186     7.98     1119.449     63.57656     122.6851        19     1.568     1.137 -54.06  16
        13    258.0134      6.4716 307.8355572  +6.6823607     3621.689     8984.455     11094.32     89.83887      180.181     346.9766      2.600     6.26     1151.453     63.57656     361.5969        55     2.107     1.598 -45.00  16
        14    892.2380      6.8738 307.5717885  +6.7033791     1071.998     2102.133     2056.067     90.26976     180.4679     351.0163      2.051     4.34     1117.547     63.57656     154.7678        12     1.205     0.911 -76.59  16
        15    649.4142      4.7757 307.6728450  +6.6961512     5836.192      12822.6     14260.82     90.12637      180.181     327.1766      2.274     5.07      1125.91     63.57656     639.2334        53     1.874     1.558 -60.81  25
        16    419.2533      5.0118 307.7685539  +6.6883626     4408.275     10955.35     12150.07     89.69479     180.3245     330.1674      2.429     5.67     1136.175     63.57656     431.7166        55     1.886     1.687 -51.03  24
        17    681.0517      3.2186 307.6597402  +6.6978499      8403.15     20712.64     25231.05     89.83887     171.0481     304.2336      2.553     8.41       1125.1     63.57656     890.0084        63     2.487     1.444 -28.06  24
        18    735.2195      3.5754 307.6372009  +6.6995094     1169.897     2539.945     2452.706     89.98273     174.1951     309.9199      2.166     7.37     1122.467     63.57656     145.1079        20     1.636     1.070 -47.49  24
        19    229.7807    991.8008 307.8139896  +6.2745758     1430.564     2759.322     2974.304     89.98273     179.8936     360.3619      2.058     4.93     1189.471     63.57656      186.569        19     1.394     1.025 -60.38   0
        20    820.0449    987.0515 307.5688709  +6.2962469     2144.621     3446.062     3208.558     90.55588     180.3245     360.7206      1.636     3.84     1181.826     63.57656     289.2659        20     1.368     0.900 -47.57   0
        21    628.4260    988.9415 307.6484349  +6.2890804     641.9316     1102.028     1014.701     89.98273     180.3962     360.5054      1.705     4.09     1185.062     63.57656     107.9916         5     1.048     0.456  26.53   0
        22    768.2776    984.9411 307.5904539  +6.2953942     6339.147      10402.9     11620.66     90.55588     180.3962     360.6131      1.836     3.71      1182.44     63.57656     803.6578        39     1.638     1.172 -57.58   0
        23    555.2206    984.3844 307.6790085  +6.2885192     844.7969     1112.843     1255.218     89.98273      180.181     360.5772      1.510     5.07     1186.319     63.57656     100.3668         9     0.922     0.790  81.73   0
        24    238.0347    984.2046 307.8108165  +6.2779887     1214.831     1936.101     1903.908     89.55047     180.2527     360.4337      1.606     4.47      1189.35     63.57656     161.0988        12     1.126     0.863  52.46   0
        25    202.0923    984.3840 307.8257453  +6.2767108     750.0056     1270.075     1913.622     90.12637      180.181     360.5054      1.939     4.93     1189.536     63.57656     117.4348         7     1.119     0.614 -41.76   0
        26     62.8179    982.2573 307.8836882  +6.2729204     2376.209     4123.071     3788.146     89.83887     180.3245     360.3978      1.815     3.95     1189.537     63.57656     306.9672        23     1.330     1.074 -62.65   0
        27    956.3765    979.9836 307.5124540  +6.3037014     6933.763     10368.97     10644.38     90.12637     180.2527     360.5772      1.584     3.38     1178.084     63.57656      983.832        33     1.424     1.042 -71.30   0
        28    213.1594    976.5296 307.8214120  +6.2803246     739.9119      1249.06     1360.195     90.26976     180.3962     360.7565      1.624     4.18      1189.35     63.57656     106.4663         5     0.913     0.546  48.60   0
        29    930.2005    971.5011 307.5236164  +6.3063336     2015.413      3273.34     3033.782     89.83888     179.9655     360.2542      1.726     4.47     1178.781     63.57656     273.0759        17     1.423     0.847 -71.75   0
        30    263.2680    968.0436 307.8008771  +6.2855064      3605.11     6622.154     7243.316     90.41293     180.3245     360.7206      1.974     4.21     1189.058     63.57656     440.6833        34     1.550     1.258 -82.44   0
        31    789.5721    968.0599 307.5821720  +6.3030740      1409.95     2121.789     2550.312     89.98273     180.4679     360.5772      1.599     4.81     1181.209     63.57656     188.1564        14     1.311     0.787 -74.17   0
        32    651.0645    967.5903 307.6397458  +6.2986517     4153.895     7022.536       7008.4     89.83887      180.181     360.5054      1.748     3.71     1183.918     63.57656     544.2307        29     1.474     1.098 -58.84   0
        33   1000.0690    967.9015 307.4947020  +6.3101429     896.2325     1510.402     1835.068     90.41293     180.5395     360.7206      1.649     4.11     1175.564     63.57656     128.6685         7     0.941     0.513 -47.97   0
        34    472.9950    966.6939 307.7137728  +6.2930778     845.0507     1596.909      1577.44     90.12637     180.0373     360.3978      1.977     4.91      1187.29     63.57656     162.6232         8     1.030     0.817  52.06   0
        35     32.0170    965.4526 307.8970551  +6.2788256     1921.389     3182.174     3499.529     89.83887     180.4679     360.3619      1.794     4.45     1189.261     63.57656     207.4335        19     1.245     1.052 -42.48   0
        36    882.6089    964.1060 307.5436420  +6.3078039     730.6465     935.0248     744.0361     89.98273     179.9655     360.4696      1.308     3.51     1179.329     63.57656     141.0297         5     0.841     0.424 -70.55   0
        37    974.9979    961.9605 307.5053199  +6.3117626     789.7261     1170.321    -1.665691     89.40591     180.1091     360.3619      1.479     5.43     1176.315     63.57656      112.766         9     1.146     0.725 -23.54   0
        38   1006.7642    960.4217 307.4921704  +6.3134539     840.3911     1362.698     1732.119     89.83888     180.1092     360.3978      2.170     4.85     1174.726     63.57656     106.0013         8     1.243     0.535 -48.38   0
        39    954.0734    961.0582 307.5140458  +6.3114395     714.1038     945.5433     516.5729     90.55588     180.3962     360.6489      1.353     3.65      1177.22     63.57656     114.5725         5     0.638     0.602  -5.53   0
        40    575.7915    959.9565 307.6712827  +6.2992924     1478.719     2382.271     1982.926     89.83887      180.181     360.3978      1.681     4.75     1185.146     63.57656     184.0551        14     1.175     0.925 -46.22   0
        41    614.7379    956.7829 307.6552052  +6.3019025     1128.027     2060.168     1734.846     89.83887     180.3245     360.5054      1.870     5.04      1184.01     63.57656     167.2053        12     1.295     0.920 -85.00   0
        42     63.7547    957.1507 307.8841484  +6.2833181     699.1882     1551.749     1827.374     90.41293     180.2527     360.7206      2.374     8.07     1189.282     63.57656     116.6464        14     2.221     0.820   3.02   0
        43    294.8666    954.8541 307.7881921  +6.2920101     1151.243     2061.401     3076.912     90.41293     180.3245     360.6489      1.957     5.21     1188.729     63.57656     181.4963        13     1.413     0.868 -76.82   0
        44    563.0099    952.6342 307.6768407  +6.3018893     504.0483     892.7327     655.5363     89.83887      180.181     360.5054      1.525     4.76     1185.335     63.57656     89.51648         5     1.438     0.447   7.56   0
        45    899.0896    946.9736 307.5373681  +6.3154265     7006.974     10546.04     11198.97     90.55588     180.1091     360.5413      1.571     3.34     1178.231     63.57656     1027.947        33     1.467     1.054 -65.73   0
        46    435.0900    943.9968 307.7302892  +6.3011829      1741.18     3280.998     3183.856     89.83887     180.0373      360.326      1.963     4.92     1187.128     63.57656     195.6237        21     1.340     1.146 -31.61   0
        47    336.8550    942.6315 307.7711566  +6.2984618     7675.855     14256.81     15038.66     90.26976     180.4679     360.6489      1.953     3.96     1188.219     63.57656     912.1321        44     1.625     1.352 -70.92   0
        48    256.9161    941.6706 307.8044071  +6.2961832     5927.006     10577.49     11409.28      90.6986     180.6828     360.7206      1.902     4.09     1188.704     63.57656     718.9299        38     1.636     1.222 -61.91   0
        49    584.7839    935.9954 307.6683524  +6.3094863     969.6149     1745.139     1563.892     89.98273     180.0373     360.5054      1.685     5.86     1184.182     63.57656     131.6187        10     1.270     0.760 -57.71   0
        50    768.8298    935.6688 307.5918801  +6.3157579     579.2933     965.9551     979.3161     90.12637     180.3962     360.6131      1.659     3.72     1179.721     63.57656     101.5144         5     1.070     0.372 -86.79   0
        51    914.8503    931.8153 307.5313269  +6.3222100     1063.948     1549.667     1242.536     89.69479     180.3962     360.3978      1.552     2.70     1177.326     63.57656     184.5801         8     0.776     0.676 -49.47   0
        52    871.5974    930.8044 307.5493358  +6.3211883      664.696     1106.879     1350.712     89.69479     179.8936     360.4696      1.492     2.46     1177.793     63.57656     121.9253         5     0.721     0.437  67.24   0
        53    982.0865    927.8981 307.5035162  +6.3260633     883.0731      1217.67     1332.967     90.41293     180.8974     360.7565      1.424     4.83     1174.024     63.57656     132.4821         8     1.223     0.542 -67.55   0
        54    751.0792    925.2611 307.5996065  +6.3194640     1460.008     2572.227     2821.781     90.55588     180.4679     360.6848      2.001     4.80     1179.488     63.57656     209.9121        16     1.239     0.958 -79.29   0
        55      2.5560    922.9048 307.9107371  +6.2954045     832.7836     1318.689     1333.876     90.41293      162.597     293.4125      1.832     6.87     1189.226     63.57656     144.1448        10     1.489     0.888 -75.54  24
        56    615.4816    921.0226 307.6560995  +6.3166931      730.631     1199.945     828.5247     90.12637     180.0373     360.6131      1.702     5.20      1182.62     63.57656     105.4875         9     1.622     0.472  72.61   0
        57    982.7158    920.6124 307.5034990  +6.3290926     1385.533     2188.682     2099.477     89.98273      180.181     360.5054      1.715     4.71     1173.696     63.57656     201.4774        17     1.410     0.858 -51.74   0
        58    538.0000    919.9950 307.6883329  +6.3145313      721.634     1391.919     1772.413     89.55047     179.9655     360.3619      2.079     4.55      1185.07     63.57656     154.9928         6     1.103     0.533 -89.98   2
        59    669.9282    918.4121 307.6335609  +6.3195871     2206.747     3734.612      4588.07     89.83887     179.9655     360.4696      2.020     4.12     1181.234     63.57656     283.8207        24     1.455     1.061 -49.04   0
        60     66.5880    914.9681 307.8843983  +6.3008301     2487.966     4402.358     4453.504     89.83887     180.1091     360.5772      1.899     4.71     1188.385     63.57656     308.4263        23     1.486     1.039 -67.68   0
        61    959.8885    916.1196 307.5131363  +6.3301889     664.7586     1134.083      909.083     90.12637     180.6828     360.7924      1.717     2.62     1174.615     63.57656      109.775         5     0.872     0.746 -79.33   0
        62    830.7491    915.1016 307.5668387  +6.3263125     858.3519     1442.616     1738.812     90.41293     180.3962     360.8999      1.709     5.84     1177.465     63.57656     109.2462        11     1.299     0.740 -43.29   0
        63     84.2045    914.1099 307.8771071  +6.3017753     1627.234     2885.919     3276.865     89.83887     180.0373     360.3978      1.930     4.25     1188.232     63.57656     207.5258        16     1.232     0.906  74.68   0
        64    210.3300    913.7530 307.8247087  +6.3061502     1906.858     3146.144     2781.389     90.41293     180.3245     360.6848      1.713     3.90     1188.459     63.57656     238.5378        19     1.303     0.953 -38.79   0
        65    947.9882    913.7565 307.5181612  +6.3307689     747.9142     846.4111     463.3793     89.83887     180.2527     360.3619      1.356     4.21     1175.078     63.57656      127.585         6     0.884     0.593 -89.61   0
        66    664.4757    907.6119 307.6361901  +6.3238648     5918.367     10203.05     10661.83     89.98273     180.0373     360.5054      1.860     3.85     1181.005     63.57656     721.4016        35     1.520     1.238 -60.45   0
        67    801.3149    909.2175 307.5792686  +6.3277621     668.7359     1130.996     937.0165     89.98273     180.1091     360.6131      1.397     3.29     1177.701     63.57656     132.1694         5     0.940     0.353 -44.66   0
        68     24.3786    905.8624 307.9022460  +6.3031736     1010.284     1875.641     2208.974     89.98273     180.3962     360.5413      1.960     5.20     1188.243     63.57656     128.8009        10     1.185     0.652 -56.82   0
        69    902.1731    903.9889 307.5375291  +6.3332783     2531.833     4001.576     4537.503     89.98273      180.181     360.5413      1.675     3.80     1175.642     63.57656     314.4851        20     1.262     0.995 -50.50   0
        70     37.6847    904.6635 307.8967574  +6.3041151     942.6643     1850.549     1296.246     90.55588     180.5395     360.6489      1.794     5.95     1188.123     63.57656     126.5466         9     1.259     0.791 -60.08   0
        71    347.4869    900.8672 307.7681478  +6.3160621     13113.69     24268.76     27245.81     90.55588     180.6828     360.7206      2.025     4.16     1187.598     63.57656     1443.548        59     1.703     1.462 -63.40   0
        72     82.7235    902.0278 307.8781312  +6.3067143     1153.651     1854.616     2143.345     90.26976     180.3962     360.6489      1.780     4.65     1187.778     63.57656     161.4135        14     1.131     1.033  67.35   0
        73    218.8448    900.1810 307.8216289  +6.3120393     1178.523     1980.137     1315.732     89.98273     180.2527     360.3978      1.747     5.07     1188.412     63.57656     141.8044        13     1.087     0.990  -8.55   0
        74    111.1860    891.4025 307.8666632  +6.3120559     1268.212     2538.698     2259.339     89.98273     180.0373     360.5054      2.035     5.37      1187.48     63.57656      159.765        18     1.444     1.059  60.73   0
        75    425.4133    891.4601 307.7360817  +6.3225522     849.7968     1570.919     816.9617     89.69479     180.3245     360.3619      1.653     4.89     1186.272     63.57656     127.8691         8     1.086     0.627 -11.85   0
        76    678.6827    887.8184 307.6309517  +6.3325116     770.7043     1440.822     1602.366     89.98273     180.0373     360.6489      2.068     5.58     1179.922     63.57656      92.7876        10     1.362     0.644 -60.02   0
        77    892.5127    885.4838 307.5421649  +6.3405980     1954.514     2846.538     2893.216     90.12637     180.6111     360.7206      1.614     3.66     1174.487     63.57656      261.662        17     1.207     0.903 -71.00   0
        78     94.3507    884.9420 307.8738776  +6.3141589     1964.079     3548.618     3812.025     90.41293     180.3962     360.7565      1.959     4.91     1187.105     63.57656     240.7188        22     1.431     1.100 -68.76   0
        79    864.1063    885.1133 307.5539828  +6.3398056     4174.291     5382.586     5053.722     90.41293     180.8974     360.7924      1.147     0.00      1174.94     63.57656     2656.109        18     1.216     0.738 -13.54   0
        80    826.4877    884.5776 307.5696348  +6.3387745     2716.329     4514.925     4750.094     90.41293      180.181     360.5772      1.819     4.23     1175.889     63.57656     340.4473        24     1.464     1.036 -42.21   0
        81    562.5151    876.0121 307.6796262  +6.3335108     262921.6     487530.7     525324.2     89.98273      180.181     360.5054      1.987     4.12     1182.211     63.57656      30245.2       167     1.865     1.590 -65.07   0
        82    406.8302    878.7413 307.7442332  +6.3271827      5663.53      11029.3     11519.94     90.12637     180.3962     360.6131      2.026     4.52     1186.296     63.57656     601.2264        41     1.708     1.310 -57.47   0
        83    650.6941    879.0969 307.6428767  +6.3351794      1067.26     2003.751     2018.791     90.41293     181.0403     360.5772      2.014     5.60     1180.114     63.57656     163.0105        16     1.270     0.986 -78.99   0
        84    350.0196    877.1505 307.7678956  +6.3259396     9518.526     18587.92     20105.32     89.83887     180.4679     360.5054      2.040     4.34      1187.35     63.57656     1110.821        48     1.699     1.392 -66.33   0
        85    668.2358    873.3896 307.6357787  +6.3381210     2951.287     5388.887     4927.425     89.83888      180.181     360.4337      1.912     4.17     1179.684     63.57656     358.6356        33     1.633     1.211 -54.65   0
        86    900.7527    872.0063 307.5391927  +6.3464372     4867.336     7965.882     8619.521     89.83887      180.181     360.2901      1.745     3.50     1173.481     63.57656     656.8978        31     1.489     1.085 -63.65   0
        87    831.6853    866.4055 307.5680850  +6.3464512     1362.386     2237.496     2019.225     89.83888     180.0373     360.3619      1.855     5.22     1174.658     63.57656     180.6877        16     1.441     0.922 -85.13   0
        88    740.7847    869.6157 307.6057550  +6.3420978     594.0415     915.9863     848.5222     90.12637     180.0373     360.6131      1.359     3.41     1176.779     63.57656     90.32202         5     0.731     0.461  15.77   0
        89    643.1595    867.2786 307.6464056  +6.3398080     2797.415     5038.966     6111.239     90.26976     180.3962     360.7206      2.031     3.95     1179.717     63.57656     317.7991        25     1.299     1.184 -37.94   0
        90    636.1897    861.8093 307.6494862  +6.3418338     1798.086     3435.944     5187.708     89.98273      180.181     360.5772      2.515     5.63     1179.483     63.57656     214.8356        26     1.648     1.167 -66.87   2
        91    958.4871    864.8439 307.5154386  +6.3513150     766.8573      849.802     950.9183     90.41293     180.2527     360.6848      1.372     5.08     1171.984     63.57656     127.7698         7     1.040     0.701 -47.54   0
        92    329.4783    861.8973 307.7769467  +6.3315504     769.5043     1482.602     1737.875     90.12637     180.6111     360.7206      1.928     4.79     1187.455     63.57656     121.4718         5     1.028     0.631 -10.17   0
        93    919.6696    859.7521 307.5317421  +6.3521265     3037.563     4896.281     5164.176     90.41293     180.3245     360.7206      1.741     3.90     1172.347     63.57656     380.0459        24     1.360     1.046 -52.21   0
        94    377.8774    856.1725 307.7570264  +6.3355333     1871.233     3881.682     4326.603     90.26976     180.3245     360.6131      2.080     5.74     1186.318     63.57656     196.9508        29     1.630     1.209 -64.91   0
        95    514.2462    845.7433 307.7007056  +6.3443973      2229.58     4210.665     4873.701     90.41293     180.3962     360.7924      2.135     4.31     1182.353     63.57656     314.9763        27     1.409     1.261 -71.78   0
        96    858.6353    844.5676 307.5576179  +6.3563656     1045.451      1439.98     1535.645     89.98273     180.1092     360.3978      1.540     4.78     1172.689     63.57656     140.4301        10     0.979     0.872  82.06   0
        97    560.9284    841.7875 307.6814381  +6.3475895     4540.415      8777.32     10124.56     89.83887     179.9655     360.4696      2.081     4.41     1180.146     63.57656     528.4175        38     1.594     1.347 -48.89   2
        98    567.7328    840.8091 307.6786432  +6.3482206     881.8765     1657.078     1652.121     89.83887      180.181     360.5772      2.117     5.45     1179.831     63.57656     118.7639         9     1.504     0.557 -51.21   2
        99    478.9340    841.4109 307.7155269  +6.3450065     1024.031     2115.415     2005.736     89.83887      180.181     360.5413      2.102     4.30     1183.455     63.57656     145.6379        10     1.215     0.654  18.08   2
       100    120.0225    840.6260 307.8647085  +6.3333177     962.4105      2244.71     1917.393     89.83887      180.181     360.6131      2.085     8.70      1186.31     63.57656     134.7068        20     1.831     1.155 -33.97   0
       101    896.8124    839.6786 307.5419153  +6.3596548     1246.533     2299.843     1953.604     89.98273     180.0373     360.5054      1.840     4.93     1171.506     63.57656     155.1129        16     1.457     0.959 -66.16   0
       102    531.6286    835.6787 307.6938207  +6.3491336     15050.55     28398.13      29871.9     90.26976     180.3245     360.6848      1.994     4.23      1180.83     63.57656     1583.591        53     1.683     1.409 -59.05   0
       103    945.1245    833.8788 307.5220309  +6.3636567     3456.814       5436.7      5389.35      90.6986     180.6828     360.7924      1.635     3.49     1170.249     63.57656     496.1549        25     1.392     0.984 -71.75   0
       104     42.1910    826.2958 307.8975373  +6.3366238     1265.652     2039.851      2087.68     90.12637     179.9655     360.4696      1.736     6.29     1185.475     63.57656      158.283        14     1.207     0.921 -21.48   0
       105    324.2770    824.5911 307.7803674  +6.3467803      2495.27     4714.964     4820.606     89.98273     179.8217     360.5054      1.952     4.73     1186.366     63.57656     276.1737        27     1.341     1.314 -73.10   0
       106     24.1934    822.6699 307.9051392  +6.3375169     1755.198     2998.617     3201.607     89.83887     179.8936     360.5413      1.812     5.24     1185.403     63.57656     218.0009        20     1.432     1.032 -70.28   0
       107    789.7324    820.2034 307.5870728  +6.3641317     45640.81     80227.91     85301.01     89.69479     179.9655     360.4337      1.864     3.92     1173.744     63.57656     5393.891        75     1.732     1.367 -59.34   0
       108    247.0476    818.2085 307.8126781  +6.3468303     3743.579     8131.729     10538.72     89.83887     180.2527     360.2901      2.546     4.89     1186.711     63.57656     481.6501        45     1.804     1.487 -66.90   1
       109    915.0321    815.4125 307.5351573  +6.3702809     7750.464     12816.67     13717.27     89.83887     180.1091     360.5772      1.750     3.59     1169.467     63.57656     963.2325        36     1.518     1.150 -59.02   0
       110    717.9567    814.8525 307.6170834  +6.3639495     16971.66     32258.71     35098.42     90.41293     180.3962     360.7206      2.031     4.22     1174.308     63.57656     1946.836        58     1.708     1.474 -63.24   3
       111    711.7270    811.2940 307.6197922  +6.3652112     69631.63     127690.8     137194.1     90.26976     180.5395     360.7206      1.958     4.15     1174.183     63.57656     7869.562        89     1.792     1.456 -59.96   3
       112    356.7024    812.3154 307.7673062  +6.3529338     15051.84     29857.38     32263.21     90.41293     180.8259     360.7565      2.078     4.41     1184.822     63.57656     1630.563        60     1.756     1.508 -63.34   0
       113    418.4890    810.1820 307.7417001  +6.3558810     16027.95     31883.45        35095     90.12637     180.1091     360.5772      2.100     4.49     1184.166     63.57656     1671.982        63     1.832     1.482 -64.79   0
       114    405.4879    812.3997 307.7470285  +6.3545307     1076.271     1978.834     1844.102     89.55047     179.8217     360.2901      1.841     5.51     1184.384     63.57656     152.2319        13     1.220     0.916  63.50   0
       115    246.5341    796.7780 307.8136155  +6.3556618     773208.4      2313329      2656234     89.98273     180.3962     360.6131      2.632     4.99     1186.027     63.57656     63845.82       567     2.493     2.161 -80.41   4
       116    911.9043    806.8603 307.5367443  +6.3737082     6137.975     10218.86     11178.18     90.26976     180.3962     360.7924      1.773     3.66     1169.022     63.57656     844.6234        35     1.516     1.148 -56.37   0
       117    652.5051    806.0412 307.6445820  +6.3654054     4949.763     9230.216     9947.241     90.41293     180.3245     360.8282      1.959     4.39     1175.063     63.57656     541.6334        36     1.568     1.295 -66.85   0
       118    884.7772    807.7230 307.5479899  +6.3724494     580.1301       891.12     442.3678     89.98273     180.2527     360.6131      1.230     3.88     1169.829     63.57656     108.3759         5     0.880     0.491  46.46   0
       119    441.2646    804.0742 307.7324406  +6.3591643     1298.919      2423.47     1341.003     90.55588     180.3962     360.6848      1.843     7.42     1182.709     63.57656     179.3311        19     1.539     1.173 -37.09   0
       120    605.2114    797.7758 307.6645159  +6.3672404     918.9539     1385.327     1745.285     89.98273      180.181     360.6131      1.747     6.66     1175.737     63.57656     128.3585        11     1.307     0.953 -73.23   0
       121    421.4489    792.8051 307.7410560  +6.3631550     37800.88     76606.87     84120.95     89.69479      180.181      360.326      2.123     4.55     1183.207     63.57656     3910.273        87     1.858     1.603 -60.11   0
       122    880.9765    796.8153 307.5499358  +6.3768269     617.7309     967.8107     1691.114     90.12637      180.181     360.5772      1.931     4.61     1169.297     63.57656     93.05408         5     1.226     0.491 -72.71   0
       123    687.7415    795.8887 307.6302789  +6.3707726     1815.017     3363.215       3536.8     90.26976     180.3962     360.8282      1.941     4.91     1173.651     63.57656     206.0487        21     1.484     0.994 -48.64   0
       124    963.9116    794.3486 307.5155487  +6.3806043     738.5752     1280.577     1309.134     90.41293      180.181     360.7924      1.739     5.13     1167.643     63.57656     123.0256         7     1.307     0.569 -64.64   0
       125    539.1843    791.8157 307.6921580  +6.3674973     5260.364     10285.42      10693.8     90.12637     180.0373     360.6131      2.023     4.48     1177.327     63.57656     566.0895        42     1.655     1.372 -53.39   0
       126    456.0954    790.3272 307.7267404  +6.3653362     3204.965     6311.308      8253.74     90.26976     180.5395     360.6848      2.345     4.54     1181.074     63.57656     357.9932        34     1.477     1.384 -69.07   2
       127    452.4710    783.7873 307.7284672  +6.3679155     1543.684     3218.539     3225.164     89.83888     180.1091     360.5054      2.135     6.40      1180.95     63.57656     178.0024        22     1.529     1.177 -67.27   2
       128    784.2713    788.3655 307.5904124  +6.3770962     9363.767     16615.98     17667.56     90.26976     180.3245     360.6848      1.888     4.08     1172.061     63.57656      1106.52        46     1.675     1.281 -65.07   0
       129    955.4938    809.0073 307.5185556  +6.3742715     1885.303     2949.543     2599.927     89.98273     180.0373     360.4337      1.702     3.76     1168.628     63.57656     272.4252        20     1.306     0.944 -53.94   0
       130     14.4483    784.2823 307.9104887  +6.3530398     889.0604     1699.787     1591.402     90.41293     180.3962     360.7206      2.032     2.91     1184.474     63.57656     157.5707         7     0.994     0.862 -84.25   0
       131    142.2847    780.5232 307.8574896  +6.3588803     8136.582     16635.81     19422.61     90.55588     180.7543     360.7924      2.188     4.57     1184.879     63.57656      873.564        55     1.783     1.536 -68.40   3
       132    134.5391    777.5533 307.8608090  +6.3598468     2068.802     4438.832     5206.175     90.26977     180.3245     360.7565      2.362     5.99     1184.713     63.57656     266.9252        32     1.686     1.439  76.00   3
       133    135.1750    771.1647 307.8607608  +6.3625060     1433.235       2721.2     3288.169     89.83887      180.181     360.3978      2.102     5.48     1184.504     63.57656     185.3302        20     1.366     1.187 -21.81   3
       134    805.5197    782.5189 307.5817775  +6.3802181     1084.298     1785.872     1493.378     90.55589     180.6828      360.864      1.814     6.07      1171.45     63.57656     134.0658        13     1.213     0.854 -64.45   0
       135    150.4104    780.8465 307.8541017  +6.3590192     2238.246     4364.823     4697.762     89.83887      180.181     360.2901      2.076     4.39     1184.965     63.57656     269.4659        27     1.424     1.211 -66.95   0
       136    929.8276    776.8954 307.5303005  +6.3866775     5772.312     9784.295     10494.97     90.55588     180.1091     360.5772      1.804     3.88     1166.558     63.57656     720.8575        36     1.553     1.150 -68.58   0
       137    978.8763    777.0782 307.5099082  +6.3882331     1347.205     2191.788     3323.376      90.6986     180.6828     360.7924      2.187     4.79     1166.378     63.57656      193.734        15     1.375     0.826 -65.09   0
       138    685.5851    774.8146 307.6318840  +6.3794025     1302.086     2760.033     3240.142     90.12637     180.0373     360.6131      2.322     5.45      1172.53     63.57656     184.2456        21     1.371     1.301   8.36   0
       139    572.2491    773.9308 307.6790183  +6.3759862     1778.066     3564.275     3458.916     90.41293     180.3245     360.7206      2.042     5.17     1175.044     63.57656     204.2086        25     1.480     1.181 -19.86   0
       140    420.4689    772.8930 307.7421348  +6.3713441     789.3915     1503.704      1480.39     90.26976     180.5395     360.6848      2.132     4.77     1181.973     63.57656     95.21631         8     0.928     0.695  36.02   0
       141    953.3952    768.2501 307.5207951  +6.3910312     2779.157     4845.835     5014.582     89.69479      180.181     360.2542      1.810     3.99     1165.848     63.57656     345.4584        27     1.472     1.105 -60.29   0
       142    924.0598    768.8693 307.5329671  +6.3897998     2858.692     4665.317     4897.166     90.55588     180.3962     360.6848      1.719     3.99     1166.211     63.57656     329.4998        26     1.426     1.114 -54.93   0
       143    984.2924    767.9893 307.5079619  +6.3921662     1594.108      2395.95     2886.913     90.12637     180.0373     360.4696      1.561     4.37     1165.692     63.57656     191.8334        13     1.162     0.797 -75.12   0
       144    676.5966    767.6326 307.6358614  +6.3820683     1232.604     2252.031     3701.983     89.55047      180.181     360.3619      2.639     5.94     1172.366     63.57656     146.7605        13     1.064     0.932  45.94   0
       145    249.1325    763.2805 307.8136672  +6.3695800     1152.046     2806.523     3709.618     90.55588     180.6828     360.6848      3.211     7.41     1184.663     63.57656     147.9794        24     1.679     1.258 -54.40   0
       146    898.9467    763.7831 307.5435757  +6.3910645     665.0312     1007.872     1201.563     89.83887     180.4679     360.3619      1.426     3.89     1166.795     63.57656     94.22461         5     0.854     0.507  60.43   0
       147    941.9905    758.5316 307.5258614  +6.3946649     1003.612     1775.494     2205.278     89.83887      180.181     360.5413      2.051     5.55     1165.293     63.57656     132.7469        12     1.124     0.964 -50.08   0
       148    968.0886    756.2988 307.5150889  +6.3964547     2214.263     3883.039     4300.817     90.41293     180.8974     360.6848      1.849     4.71     1164.911     63.57656      283.686        22     1.521     0.924 -47.11   0
       149    915.4235    757.4174 307.5369410  +6.3942412     1047.794     1789.755     1808.744     89.98273     180.2527     360.5772      1.840     3.32     1165.773     63.57656     161.2761        10     0.917     0.862 -17.17   0
       150    823.8143    765.9160 307.5747316  +6.3876829     764.1839     1081.519     1341.261     89.98273     180.1091     360.5054      1.527     4.46     1169.655     63.57656     110.2889         7     1.086     0.521 -25.69   0
       151   1010.1002    749.3965 307.4978586  +6.4007014     1661.563     2610.765     1967.992     90.12637     180.1091     360.2901      1.619     4.11     1164.074     63.57656     242.9855        17     1.271     0.911 -85.37   0
       152    897.9778    745.0469 307.5446073  +6.3987687     1230.202     2201.131     2578.899     89.98273     180.3962     360.5413      1.881     4.81       1165.7     63.57656      161.303        12     1.109     0.845 -45.65   0
       153    871.9177    740.5168 307.5555911  +6.3997721     838.2605     1277.485      1654.32     90.12637     180.6828     360.7924      1.672     5.22     1166.527     63.57656     137.6891         8     1.033     0.744 -43.73   0
       154    854.4695    737.1035 307.5629579  +6.4006007     1119.614     1950.806     2308.252     90.26976     180.5395     360.6848      2.147     4.59     1166.938     63.57656     156.1168        12     1.142     0.873 -74.91   0
       155     54.0889    735.8422 307.8956546  +6.3743707     1729.838     3523.073      4081.28     90.41293     180.3245     360.7206      2.237     5.90     1183.145     63.57656      202.869        25     1.475     1.271  81.73   0
       156    117.8027    734.1985 307.8692310  +6.3771867     903.9301     1679.364     2074.892     89.69479     179.8936     360.3978      2.312     6.79     1183.235     63.57656     124.6072        10     1.248     1.036  53.18   0
       157    666.4276    724.2729 307.6415468  +6.3996330     4517.945     8976.604     9417.586     90.12637     180.3245     360.6131      2.058     4.71      1169.88     63.57656     499.4175        42     1.707     1.397 -55.82   0
       158    612.3500    723.8521 307.6640375  +6.3980027     1127.653     2746.758     3748.768     90.55588     180.2527     360.6489      2.891     6.40     1170.633     63.57656     145.9349        18     1.516     1.196  43.31   0
       159    129.5216    720.5291 307.8648230  +6.3832237     2492.781     5271.423     5497.986      90.6986     180.6828     360.6489      2.116     5.52      1182.77     63.57656     293.5281        36     1.653     1.472 -78.38   0
       160   1003.4037    719.3391 307.5016499  +6.4128901       2114.8     3616.241     3427.802     89.69479     180.1092     360.3619      1.858     4.63     1162.773     63.57656     283.6804        23     1.458     1.066 -67.84   0
       161    640.1278    719.9379 307.6526238  +6.4005457     1569.411     2943.723     3172.686     90.55588     180.3962     360.7565      2.069     5.07     1169.905     63.57656     200.6863        17     1.278     1.015 -71.62   0
       162    783.2903    716.3581 307.5932400  +6.4067965     15492.94     29269.93      31650.5     90.41293     180.3962     360.7206      2.007     4.28     1167.195     63.57656     1770.484        56     1.761     1.386 -60.28   0
       163    913.2816    715.9276 307.5392238  +6.4113018     3072.141     5282.647     5621.653      90.6986     180.7543     360.7206      1.908     4.23     1163.702     63.57656     355.7217        28     1.553     1.098 -67.28   0
       164    482.3457    716.8242 307.7183082  +6.3965634     879.7811     1891.688     1851.709     89.98273     180.3962     360.4696      2.148     7.07     1175.331     63.57656     109.5416        12     1.282     1.093 -32.35   0
       165    256.9409    710.2653 307.8122131  +6.3917315     3935.666     8844.396     10024.11     90.55588     180.3245     360.7206      2.294     5.34     1181.425     63.57656     396.8849        43     1.724     1.497 -69.16   0
       166    663.8995    709.1419 307.6431067  +6.4057965     4939.484     9938.932     10736.66     90.12637     180.3962      360.864      2.092     4.62     1168.658     63.57656     530.7173        42     1.662     1.397 -59.47   0
       167    923.5664    702.0012 307.5354163  +6.4173945     1026.943     1636.322     1480.893     89.40591      180.181     360.3978      1.670     5.87     1162.823     63.57656      135.434        12     1.277     0.760 -56.78   0
       168    735.5697    697.7164 307.6137016  +6.4129038      2771.31     5331.269     6164.061     90.41293      180.181     360.5413      2.089     5.08     1166.644     63.57656     354.2798        32     1.671     1.227 -64.11   0
       169    690.8220    698.5992 307.6322712  +6.4110475     839.1246     1641.014       1906.5     89.98273     180.0373     360.3619      2.138     6.01     1167.421     63.57656     113.0723         8     1.311     0.775   4.96   0
       170    940.1551    694.6288 307.5287685  +6.4209905     2080.248     3315.394     2938.207     89.98273     180.4679     360.5772      1.650     4.38     1162.411     63.57656     266.1914        19     1.408     0.869 -61.29   0
       171   1001.8542    694.0401 307.5031424  +6.4232851     7778.548     12835.52     12984.18     90.26976     180.3962     360.6848      1.741     3.73     1162.178     63.57656     987.1315        35     1.518     1.126 -60.90   0
       172     21.3150    694.3167 307.9106813  +6.3904164     1260.666     3024.091     3767.726     90.12637     180.5395     360.7565      2.574     6.95     1181.956     63.57656     192.9526        21     1.544     1.267  50.20   0
       173     79.4195    689.2175 307.8867052  +6.3944717     17465.97     36264.38     39870.59     90.12637      180.181     360.6131      2.170     4.62     1181.815     63.57656     1995.192        65     1.824     1.578 -74.32   0
       174    540.4202    690.0024 307.6950743  +6.4095783     1332.196     2862.186     3261.113     89.98273     179.9655     360.3978      2.278     7.16     1171.559     63.57656     154.4232        19     1.298     1.127 -49.87   0
       175    510.1858    688.4854 307.7076920  +6.4091949     808.7682     1913.232     2271.649     89.98273     180.1091     360.5413      2.563     3.96     1172.298     63.57656     164.3304         7     1.290     0.579  88.10   2
       176    929.8715    686.5460 307.5333143  +6.4239859     820.1843     1297.345     1229.801     90.26976     180.2527     360.5772      1.753     5.06     1162.164     63.57656     122.8411         7     1.305     0.556 -23.20   0
       177    725.0764    681.2711 307.6186162  +6.4193445     2464.566     5040.888     5655.832      90.6986     180.6828     360.6848      2.139     5.32     1165.788     63.57656     280.7771        34     1.764     1.284 -73.90   0
       178    747.1100    679.5392 307.6095160  +6.4207941     2814.454     5626.203       6576.1     90.26976     180.5395     360.7565      2.157     4.87     1165.443     63.57656     314.6985        34     1.694     1.236 -54.69   0
       179    578.7010    677.4642 307.6795854  +6.4160336     2392.556     4849.929     5121.198     90.41293     180.4679     360.7206      2.079     5.09     1168.679     63.57656     315.8434        31     1.615     1.297 -50.77   0
       180    414.6233    678.3021 307.7477549  +6.4102058     770.8203     1653.172     1324.112     90.55588     180.1092     360.5054      2.064     5.52     1176.811     63.57656     105.5807         9     1.338     0.642  85.13   2
       181    239.7793    677.3091 307.8204593  +6.4047643     953.5776     2248.771     2388.396     90.26976      180.181     360.5054      2.274     7.45      1178.78     63.57656     118.9236        14     1.403     1.106 -86.55   0
       182   1020.1006    675.4615 307.4961810  +6.4315630     4503.944     7092.691     6781.997     90.12637     180.2527     328.9901      1.690     3.93     1161.715     63.57656     539.1124        31     1.487     1.140 -65.59  16
       183    985.4384    674.3713 307.5106256  +6.4308610     6991.813     11745.88      12684.5     89.83888     180.0373     360.5054      1.828     3.91     1161.699     63.57656     850.1371        36     1.540     1.167 -58.40   0
       184    323.4287    676.3854 307.7857233  +6.4079465     996.4272     2018.725     2341.245     89.98273      180.181     360.5772      2.252     6.06     1177.944     63.57656     111.5931        13     1.078     1.034 -54.92   0
       185    705.4113    672.4054 307.6270883  +6.4223497     632.5193     966.4067     773.2339     89.98273     180.1092     360.5772      1.703     3.97     1165.358     63.57656     115.1035         6     0.917     0.491   0.28   0
       186    144.1223    668.1512 307.8605263  +6.4053399     15512.25     34003.85     37262.79     90.41293     180.4679     360.6489      2.259     4.86     1180.306     63.57656     1738.867        66     1.836     1.628 -68.05   0
       187    431.0160    669.0980 307.7412519  +6.4145543     1923.286     4061.206     4508.466     90.41293     180.1091     360.4337      2.249     5.64     1175.211     63.57656      227.027        28     1.587     1.214 -55.65   0
       188    812.4496    668.5364 307.5827268  +6.4275141     959.8758     1822.442     2124.578     90.26977     180.3245     360.7565      2.208     6.61     1163.474     63.57656     111.5168        11     1.199     1.023 -28.64   0
       189    980.3881    657.4098 307.5132938  +6.4376969     5913.081     10622.71      11683.4     90.12637      180.181     360.6489      1.979     3.71     1159.776     63.57656     691.4867        44     1.598     1.409 -78.16   0
       190    574.0016    652.8307 307.6823684  +6.4260482     30336.33     66387.38      73786.6     89.69479      180.181     360.4696      2.252     4.90      1167.69     63.57656     2953.823        83     1.929     1.623 -61.96   0
       191    937.9971    654.4996 307.5310122  +6.4374888     660.6911     951.0958     289.1196     90.12637     180.1091      360.326      1.408     5.39      1160.44     63.57656     102.4666         7     1.646     0.499 -51.57   0
       192    181.8629    649.5516 307.8454693  +6.4142848     1731.805     3719.478     3518.439     90.26976     180.3245     360.7565      2.169     6.19     1178.971     63.57656     184.4109        27     1.609     1.211 -79.05   0
       193     74.6935    644.0589 307.8901978  +6.4129589     935.9139     1757.167     1425.072     90.26976     180.3962     360.8282      1.808     6.01     1180.259     63.57656     135.1624        11     1.410     0.721  66.26   0
       194    471.2901    636.6517 307.7256062  +6.4292978      38957.7     87390.73     98194.56     90.41293      180.181     360.8282      2.320     5.14      1171.04     63.57656     3651.283        99     2.017     1.709 -63.42   0
       195     15.4911    638.0010 307.9150089  +6.4134732     1163.138     2677.658      3297.89     89.55047     179.8217     360.4696      2.819     8.46     1181.124     63.57656     160.3252        19     1.890     1.058 -65.99   0
       196    146.3850    632.2925 307.8607988  +6.4202217     824.2817     1724.398     896.7065     90.12637      180.181     360.4696      1.973     6.69     1179.004     63.57656     121.0868        12     1.472     0.853  66.71   0
       197    316.8768    626.0766 307.7901453  +6.4284998     1348.135     2994.543     3710.116      90.6986     180.6828     360.7924      2.477     6.40     1174.073     63.57656     148.1975        22     1.442     1.310   4.50   0
       198    743.2748    620.1288 307.6131078  +6.4451976     3643.469     7261.947     7231.921      90.6986     180.5395     360.6848      2.026     4.91     1162.854     63.57656     397.0782        38     1.647     1.376 -62.12   0
       199    796.7821    615.3560 307.5910265  +6.4489513     10074.34     19882.43     21429.81     89.83888     180.2527     360.3978      2.090     4.41      1161.46     63.57656     1124.079        55     1.783     1.429 -61.62   0
       200   1014.1499    615.7488 307.5006570  +6.4560218     921.1118     1699.591     1512.161     90.41293     180.2527     360.6131      1.966     6.72     1152.444     63.57656     141.9542        12     1.284     0.988 -74.14   0
       201    539.3907    615.9427 307.6979974  +6.4401239     715.2985     1493.522     2082.767     89.69479     180.3245     360.3619      2.590     6.16     1166.729     63.57656     90.31982         8     1.113     0.959 -71.35   0
       202    620.7193    613.4790 307.6642747  +6.4438562     1890.283     3973.669      4870.91      90.6986     180.6828      360.864      2.323     6.25     1164.347     63.57656     207.2422        26     1.576     1.264 -61.23   0
       203    938.1896    609.5466 307.5324408  +6.4560571     858.9808     1568.115     1689.312     89.69479     180.3245     360.3619      2.037     6.43     1157.585     63.57656     110.0033         9     1.217     0.952 -63.36   0
       204    233.9183    606.7987 307.8252782  +6.4336817     852.5116      1856.22     2372.115     89.55047     179.8936     360.3978      2.375     5.78     1176.356     63.57656     110.7842        10     1.315     0.715  76.30   0
       205    298.1960    606.6970 307.7985645  +6.4358764     4703.496     5020.243     4791.361     90.12637     180.0373      360.326      0.743     1.61     1172.789     63.57656     1901.625         8     0.695     0.428  34.24   0
       206    379.1117    605.8131 307.7649611  +6.4389492       622.02     1195.097     1641.427     90.12637     180.1091     360.5413      2.342     5.33     1171.447     63.57656     103.9814         5     1.172     0.684  -9.77   0
       207    872.9198    598.5406 307.5599422  +6.4584299     2196.692     3891.243     4430.087     90.55588     180.3962     360.6489      1.901     4.76     1158.135     63.57656     267.6962        26     1.458     1.241 -63.35   0
       208    831.6223    595.9460 307.5771963  +6.4581263     2018.574     3757.339     3619.328     89.83887     180.3962     360.4696      1.944     4.61     1159.209     63.57656     266.0914        23     1.480     1.113 -52.60   0
       209    812.0806    587.2784 307.5856108  +6.4610545     112957.3     223856.2     245288.2      90.6986     180.6828      360.864      2.134     4.49     1159.359     63.57656     12426.04       152     2.205     1.677 -41.63   0
       210    259.7617    591.1352 307.8150656  +6.4410148      4700.77     10969.74     12445.77     90.41293     180.3245     360.7565      2.373     5.27     1173.666     63.57656     487.8087        53     1.874     1.605 -68.66   0
       211    193.9617    585.7509 307.8425977  +6.4410335     34817.94     81943.86     94669.09     90.41293     180.4679     360.5413      2.404     5.28     1175.805     63.57656     3614.052       102     2.060     1.792 -64.01   0
       212    118.0947    581.9734 307.8742597  +6.4400496     3754.949     8381.148     9332.417     90.55588     180.1091     360.5413      2.326     5.27     1177.073     63.57656     427.3097        43     1.691     1.585  89.67   0
       213    982.7745    578.7473 307.5149407  +6.4702574     1063.465     1772.522     1702.016     89.98273     180.4679     360.5772      1.653     4.47     1152.503     63.57656     150.6455        12     1.285     0.682 -79.52   0
       214    848.6874    574.5492 307.5708213  +6.4675296     3369.149     6523.139     7053.406     90.41293     180.2527     360.8282      2.068     4.70     1157.237     63.57656      381.823        35     1.644     1.282 -63.20   0
       215    367.2997    572.7984 307.7709852  +6.4521859     9775.208     23074.36     26411.61     89.83887     180.1091     360.3619      2.379     5.45       1168.9     63.57656     931.8904        70     1.991     1.688 -60.15   0
       216    169.4410    571.7281 307.8532641  +6.4460015     1176.106     2930.975     4203.378     90.26976     180.3962     360.7565      2.933     8.48     1175.435     63.57656     121.9031        22     1.727     1.162 -39.84   0
       217    106.7893    570.3337 307.8793527  +6.4444763     516.7752     1079.323     1252.331     89.83888      180.181     360.5054      2.725     6.60      1176.84     63.57656     102.6099         6     1.736     0.704  86.52   0
       218    802.6039    567.7330 307.5902070  +6.4688095     4049.208     8108.688     9318.507     89.69479     180.0373     360.4337      2.125     4.85     1158.513     63.57656     439.1583        43     1.827     1.365 -65.06   0
       219    533.6320    567.7316 307.7020158  +6.4598383     3627.415     8495.897     9685.772     90.26976     180.3962     360.6489      2.372     5.57     1164.073     63.57656     359.1279        48     1.850     1.564 -65.00   0
       220    180.6550    560.9690 307.8489667  +6.4508199     3956.625     9285.282     11026.26     90.26976     180.4679     360.6489      2.540     5.69     1174.255     63.57656     421.9517        54     1.984     1.611 -66.08   0
       221    578.5045    560.3788 307.6836107  +6.4643728     1572.847     3310.223     3805.549     90.26977      180.181     360.4696      2.227     5.91     1161.912     63.57656     182.3383        27     1.597     1.177 -39.11   0
       222     52.3910    559.6216 307.9023261  +6.4470740     3084.552     6936.033     7534.618     89.98273     180.1092     360.4696      2.284     5.34     1177.704     63.57656     361.0613        40     1.642     1.560  86.74   0
       223    819.4049    559.9034 307.5834861  +6.4726020     962.2452     2103.366     2198.007     90.12637     180.0373     360.3978      2.163     7.89     1157.408     63.57656     136.8386        18     1.348     1.292  69.74   0
       224    275.9104    557.4031 307.8094929  +6.4554837     48074.04     118109.7     134725.1     89.83887     180.0373      360.326      2.427     5.50     1170.978     63.57656     4914.667       105     2.069     1.804 -68.48   0
       225    260.2995    552.7460 307.8161392  +6.4568837     865.0537     1921.446     1311.784     90.26976     180.3962     360.9716      1.941     7.24      1171.17     63.57656     131.1516        10     1.724     0.852  54.14   0
       226    798.8891    549.6255 307.5923599  +6.4761626      10978.2     22062.94     24509.86     90.55588      180.181     360.5054      2.140     4.51     1157.523     63.57656     1148.825        56     1.824     1.440 -58.20   0
       227    975.1892    550.8978 307.5190283  +6.4815048     1226.794     2206.167      2142.42     90.12637     179.9655     360.5054      1.888     4.70     1151.588     63.57656     178.5848        15     1.238     0.954 -53.29   0
       228    502.6246    548.1351 307.7155656  +6.4668940     23921.23     58336.91     68954.52     89.98273     180.3962     360.6131      2.504     5.45     1164.056     63.57656     2382.075        98     2.085     1.874 -51.19   0
       229    215.4588    544.6724 307.8350510  +6.4587151     1127.191     2705.552     3430.915     90.55588     180.3962     360.6489      2.617     7.91     1171.735     63.57656       138.88        19     1.530     1.144  56.14   0
       230     51.3731    544.1387 307.9032734  +6.4534326     732.2029     1172.205     902.4585     89.98273     180.4679     360.5772      1.535     4.14     1177.057     63.57656     121.5947         6     1.148     0.427  58.05   0
       231    662.5895    542.7922 307.6492494  +6.4744406     1841.349      3842.39     4152.362     89.83888      180.181     360.6131      2.180     5.60     1159.217     63.57656     212.4978        26     1.545     1.194 -56.64   0
       232    724.9337    541.7617 307.6233677  +6.4769451     918.3488     2071.909     2167.758     90.26976     180.3245     360.7924      2.411     6.40     1158.511     63.57656        114.9        11     1.283     0.898 -87.33   0
       233    673.0840    542.7191 307.6448893  +6.4748209     1035.494     1750.013     2046.323     90.12637     180.6828     360.7565      1.877     6.75     1159.148     63.57656      135.193        13     1.285     0.994   4.30   0
       234    400.1503    538.6578 307.7584822  +6.4673816     968.9261     2384.485     2283.057     90.41293     180.3962     360.7206      2.285     8.06      1165.06     63.57656     132.8479        16     1.461     1.244  35.25   0
       235    331.7435    537.0495 307.7869720  +6.4657569      2224.99     5431.465     5913.297     90.41293     180.3962     360.7565      2.410     6.02     1167.275     63.57656     238.7977        42     1.826     1.570 -63.55   0
       236    147.0382    535.8292 307.8637903  +6.4600729     15073.12      35465.1      40014.1     89.83887     180.1091     360.5413      2.381     5.24     1173.856     63.57656      1658.04        77     1.992     1.722 -72.73   0
       237    511.7106    536.7210 307.7121734  +6.4719106     1229.323     2986.622     3508.912     90.12637     180.6828     360.7924      2.348     8.88     1162.948     63.57656       143.08        24     1.945     1.132 -45.79   0
       238    875.1486    535.5462 307.5611315  +6.4845155     1070.369     2174.822      2255.46     90.55588     180.3245     360.7206      2.170     7.68     1153.912     63.57656      124.233        18     1.682     0.982 -64.35   0
       239    112.2799    534.1508 307.8782950  +6.4596002     1583.227     3705.281     3999.328     90.41293     180.4679     360.6848      2.333     6.66     1175.155     63.57656     208.5757        30     1.663     1.398 -76.88   0
       240    972.3887    530.0074 307.5208935  +6.4900377     3967.049     7258.653     7355.565     89.98273      180.181     360.5772      1.914     4.26     1150.557     63.57656     544.9911        32     1.581     1.155 -63.80   0
       241    546.1217    522.9222 307.6983339  +6.4787576     774.7097     1609.732     1677.538      90.6986     180.6828     360.8282      2.235     6.71     1160.884     63.57656     89.14868        11     1.570     0.805 -31.93   0
       242     11.3662    520.2246 307.9207126  +6.4619635     15085.32     34487.51     39689.09     89.83888      180.181     360.4337      2.358     5.05     1176.408     63.57656     1712.751        78     1.974     1.738 -78.86  16
       243    443.9203    516.8090 307.7410247  +6.4778667     23768.27     57856.39      66456.8     89.98273     179.9655     360.5054      2.425     5.50     1162.878     63.57656     2284.017        90     2.059     1.761 -68.13   0
       244    651.9547    516.4593 307.6545567  +6.4849590     7242.852     16465.52     18270.09     90.26976     180.3245     360.7924      2.322     5.15     1157.979     63.57656     732.8032        54     1.847     1.569 -61.58   0
       245    209.2289    514.5267 307.8386598  +6.4709534     10953.59     27032.57     31519.01     90.26976     180.3962     360.6489      2.497     5.60      1169.63     63.57656      1124.28        74     2.031     1.800 -81.34   0
       246    293.1899    517.2650 307.8036662  +6.4726353     592.7596     1152.455     816.3127     89.83887      180.181     360.5413      1.875     3.40     1167.146     63.57656     104.5415         5     0.951     0.352 -46.32   0
       247    173.6111    515.6702 307.8534266  +6.4692874     747.1802     2063.039     1867.123     89.83888     180.1092     360.4696      2.469     6.74     1171.444     63.57656     105.1603        11     1.768     0.720 -69.89   2
       248    574.0778    513.0367 307.6870457  +6.4837730     1705.752     3985.126     4627.964     90.26976     180.4679     360.6848      2.349     7.25     1159.297     63.57656     214.8615        31     1.742     1.345 -73.63   0
       249    986.0531    514.4760 307.5157341  +6.4969053     959.7394     1693.733     1859.758     90.41293     180.3962     360.7206      1.927     5.43     1149.121     63.57656      117.309        10     1.147     0.725 -50.79   0
       250    825.9129    514.6968 307.5822998  +6.4914852      719.726     1390.543      1876.25     90.41293     180.8259     360.7206      1.737     3.46     1154.223     63.57656     102.6162         5     1.003     0.344 -43.92   0
       251    947.5542    510.2264 307.5318815  +6.4973797     3681.047     6662.432     7051.646     89.83888     180.4679     360.5772      1.913     4.18     1150.356     63.57656     430.1696        31     1.524     1.185 -71.79   0
       252    620.7267    508.8706 307.6677939  +6.4870504      3625.13     8604.483     9787.012     90.55588     180.5395     360.6848      2.396     5.68     1157.827     63.57656     360.9568        50     1.938     1.556 -60.09   0
       253    107.9951    510.6974 307.8808697  +6.4691402     711.3402     1228.847     1372.162     90.12637     180.0373      360.326      2.016     4.90     1174.029     63.57656     91.49963         6     1.048     0.649 -50.03   0
       254    970.0124    502.4090 307.5228075  +6.5013546     2665.791     4858.825     5061.537     90.12637      180.181     360.6131      1.959     4.44     1149.061     63.57656     295.8303        29     1.518     1.174 -83.26   0
       255    532.9600    500.0875 307.7045748  +6.4877466     4078.004     9988.214     11138.63     90.41293     180.3245     360.7206      2.444     5.83     1159.781     63.57656     414.4946        52     1.949     1.615 -56.06   0
       256    377.7480    500.4544 307.7690840  +6.4824065     1118.751     2045.062     2230.992     90.55588     180.3245     360.7206      1.971     6.96     1162.906     63.57656     144.8895        15     1.864     0.729 -77.04   3
       257    380.6177    500.2276 307.7678988  +6.4825962     1321.709     2547.588     2909.092     89.98273      180.181     360.5772      2.126     6.03     1162.846     63.57656     171.9117        18     1.745     0.819 -79.83   3
       258    889.3279    495.6664 307.5565763  +6.5014544     2180.769     3989.183     4667.384     90.41293     180.4679     360.7565      2.057     4.58     1151.373     63.57656     255.2429        22     1.314     1.138 -83.48   0
       259    896.7621    490.2931 307.5536662  +6.5039206     1403.893     2617.405     3503.105     90.55588     180.3245     360.7565      2.316     5.80     1150.832     63.57656     167.0765        20     1.454     1.025 -68.24   0
       260    936.7859    488.1565 307.5370989  +6.5061345     737.0911      1034.08     535.6132     89.69479      180.181     360.3978      1.556     4.62     1149.556     63.57656     111.3528         6     0.913     0.662  18.83   0
       261    720.5466    486.3265 307.6270562  +6.4996888     1889.402     3983.656     4018.999     90.26977     180.3962     360.6848      2.171     6.04     1155.891     63.57656     224.6913        28     1.680     1.235 -49.24   0
       262     82.6985    485.4677 307.8922389  +6.4787087     1052.059     2513.271     2835.329     90.41293     180.5395     360.7206      2.456     8.70     1173.297     63.57656     123.1509        22     1.737     1.533 -26.54   0
       263    391.6548    484.4293 307.7638439  +6.4894886     1970.882     4765.154     4865.635     90.12637     180.4679     360.5772      2.362     6.36      1161.53     63.57656     192.2834        35     1.600     1.553  73.63   0
       264    302.2069    478.0769 307.8012418  +6.4891180     1489.643      3576.77     3888.215     89.98273     179.8217     360.4696      2.433     6.56     1163.147     63.57656     193.4542        30     1.672     1.381 -49.15   0
       265    782.2654    477.2372 307.6017041  +6.5054989     10632.89     22498.64     26721.03     90.26976     180.3245     360.7565      2.315     5.02     1153.121     63.57656     1092.667        71     2.192     1.536 -52.20   0
       266    810.0689    474.9721 307.5902216  +6.5073604     758.1041     1599.778     1897.036     90.12637     180.3245     360.5772      2.362     4.15     1151.974     63.57656     127.9291         7     1.462     0.336 -60.58   0
       267    383.6407    475.3674 307.7674812  +6.4929622     668.6453      1858.03     2379.642     90.12637     180.2527     360.5054      2.282     3.70     1160.821     63.57656     93.42773         5     1.164     0.339  42.53   2
       268    619.3732    481.0859 307.6692921  +6.4984778     5799.654     13390.19     15228.68     90.55588     180.1091     360.5413      2.378     5.46     1156.452     63.57656     572.5684        55     1.967     1.552 -64.69   0
       269    967.1714    472.1493 307.5250040  +6.5137549     1585.648     3150.846     3367.882     89.98273     180.5395     360.5772      2.023     4.82     1147.256     63.57656     204.5073        20     1.406     0.988 -43.29   0
       270    119.7262    469.5805 307.8773849  +6.4865107     2459.375     5730.542     6728.782     89.98273     180.3245     360.6131      2.445     5.94     1171.057     63.57656     281.6908        41     1.760     1.578 -70.48   0
       271    757.5708    468.5224 307.6122633  +6.5082744     1553.311     3363.242      3423.98     90.26977     180.4679     360.7206      2.206     6.21     1153.538     63.57656     175.1525        27     1.629     1.294 -68.95   0
       272   1021.1738    467.1711 307.5027203  +6.5176059     3317.828     6484.063     6660.023     89.83887     176.6284     313.6535      1.999     4.32     1144.765     63.57656     365.6094        34     1.468     1.375 -34.35  24
       273    355.6835    464.4652 307.7794712  +6.4965283     1685.958     4247.097     4512.305     90.55588     180.6828     360.7565      2.421     7.71     1160.253     63.57656     196.6594        31     1.675     1.414 -71.65   0
       274    277.8765    466.4190 307.8117498  +6.4931168     922.5733     1970.333     2416.289     89.83887     180.0373     360.6489      2.197     6.56     1163.064     63.57656     122.3313        11     1.326     0.911 -20.16   0
       275    711.2221    462.8483 307.6317225  +6.5090723     885.8302     1784.448     2501.586     89.98273     180.3962     360.5413      2.188     4.94      1154.11     63.57656     128.5516         7     1.227     0.563 -10.81   0
       276    837.2087    452.0629 307.5797087  +6.5177239     1025.145     1803.165     1758.422     89.69479      180.181     360.4696      1.837     5.74     1149.954     63.57656     134.0745        11     1.142     0.812  62.52   0
       277    823.5492    451.1203 307.5854191  +6.5176582     1343.959     2878.955     2267.037     90.41293     180.4679     360.6848      2.132     6.24     1150.228     63.57656     185.3385        20     1.361     1.204 -88.82   0
       278    720.5470    449.2684 307.6283028  +6.5149905      9477.75     20115.97     22295.21     90.26976     180.3245     360.5772      2.220     4.98     1152.709     63.57656     1000.132        53     1.830     1.500 -57.09   0
       279    641.4760    444.2172 307.6613450  +6.5144388     1358.565     3552.163     4323.964     89.83888     180.1091     360.6131      2.684     9.01     1153.277     63.57656     154.5398        25     1.780     1.336  43.01   2
       280    614.0104    440.4088 307.6728915  +6.5150948     8076.892     21741.45     29261.69     89.83887      180.181     360.5772      2.882     6.82     1153.349     63.57656     766.4012        91     2.513     1.927  36.48   0
       281    945.8170    439.1075 307.5349909  +6.5266881     2752.759     5280.998       4980.3     90.12637      180.181     360.5054      2.031     4.45     1145.328     63.57656     369.1565        29     1.627     1.153 -65.22   0
       282    385.0538    435.2612 307.7682476  +6.5095694     15366.98     38717.34     44952.23     90.41293     180.3245     360.6489      2.493     5.80     1156.626     63.57656     1472.097        80     2.060     1.784 -72.88   0
       283    901.1745    434.7573 307.5536969  +6.5269990      1226.39     2352.904     2893.458     89.98273     180.3245     360.4696      2.047     4.68     1146.704     63.57656     169.8826        15     1.211     1.053 -84.37   0
       284    131.4160    434.9582 307.8736971  +6.5011981      1378.53     3230.926     3186.225     89.83887     180.1091     360.4337      2.343     6.44     1168.237     63.57656     164.9021        23     1.480     1.328 -51.37   0
       285     65.2184    429.6738 307.9013942  +6.5011589     920.1125     1976.752     2911.353     89.83888     180.3245     360.5772      2.578     6.05     1170.132     63.57656     116.8513         9     1.395     0.737   3.94   2
       286    914.5983    429.5270 307.5482916  +6.5296054     3675.286     7264.756     7316.716     89.83888     179.8217     360.5413      2.018     4.73     1145.768     63.57656     393.7838        39     1.738     1.307 -66.19   0
       287    242.6235    425.8514 307.8277757  +6.5086862     7331.361     18393.28     21031.93     89.83887     180.3962     360.5772      2.448     5.94     1162.328     63.57656     763.4583        59     1.964     1.668 -66.79   0
       288    143.0219    414.9364 307.8695501  +6.5098542     2778.077     6584.297     7479.572     89.98273     180.3962     360.5413      2.447     6.45     1166.525     63.57656     342.6681        48     2.045     1.563 -79.72   0
       289    965.3375    417.3855 307.5276045  +6.5363068     821.5973     1371.159     1595.549     89.83888     180.2527     360.4696      1.692     4.60     1142.799     63.57656     131.4652         8     1.010     0.889 -37.64   0
       290    247.8964    412.9587 307.8260195  +6.5141862     763.4955     1824.841     1941.618     90.41293     180.3245      360.864      2.577     7.25     1161.247     63.57656     97.99561        10     1.539     0.958 -48.53   0
       291    165.8226    409.9019 307.8602420  +6.5126975     1309.319     3190.552     3420.194     90.41293     180.1091     360.4696      2.458     8.44     1165.413     63.57656     148.8861        23     1.955     1.019 -86.59   2
       292    389.4021    406.0828 307.7674248  +6.5217627     1024.594     2155.073     2084.988     89.69479     179.9655     360.3619      2.257     7.64     1154.038     63.57656     164.1145        14     1.821     0.897 -63.71   2
       293    387.0596    403.0453 307.7685012  +6.5229385     732.4781     1213.771      1250.15     90.26976     180.3245     360.7924      1.428     7.40     1153.949     63.57656     112.2817         9     1.403     1.092 -37.87   3
       294    976.6218    403.4821 307.5233795  +6.5424230     663.7953     946.8406     767.3156     90.12637     180.0373     360.6131      1.528     3.36     1141.294     63.57656     106.3502         5     1.098     0.297  68.76   0
       295     38.9504    399.5103 307.9133354  +6.5127314     1879.989     4522.492     5292.418     90.41293      180.181     360.7924      2.538     8.07     1169.471     63.57656     233.6793        37     2.204     1.352 -50.26   0
       296    442.2206    398.4392 307.7457246  +6.5266853     3962.303     9811.263     11405.24     89.98273      180.181     360.3978      2.487     5.88     1152.082     63.57656     430.9406        51     1.945     1.586 -65.02   0
       297    782.6730    395.7719 307.6042738  +6.5391506     8176.401     17428.33     19900.26     90.26976     180.3962     360.6131      2.214     4.98     1147.893     63.57656     890.3245        52     1.833     1.489 -62.94   0
       298    774.5523    397.5319 307.6075908  +6.5381532     1243.267     2546.308     3504.817     90.41293     180.3245     360.6848      2.311     7.61     1148.063     63.57656      139.017        20     1.300     1.245 -21.18   0
       299    490.2934    382.2852 307.7262838  +6.5349623     1722.136      4099.73     4128.474     90.26976     180.8974     360.7924      2.284     7.09     1149.474     63.57656     187.3586        29     1.699     1.272 -71.02   0
       300    462.4066    382.7529 307.7378617  +6.5338371     1268.787     3169.724     3742.775     89.83888      180.181     360.2901      2.545     8.21     1150.329     63.57656     148.6765        21     1.621     1.163  81.88   0
       301    848.0397    378.7043 307.5776709  +6.5483753     22488.38     46625.89     51917.84     90.41293     180.2527     360.8282      2.207     4.76       1145.6     63.57656     2352.332        75     1.997     1.521 -67.80   0
       302    918.5915    381.6904 307.5482378  +6.5494907     610.8521     1139.064     1214.895     89.98273     180.0373     360.4337      1.987     5.67     1142.434     63.57656     94.93311         6     1.305     0.693  50.52   0
       303    619.8936    371.2336 307.6727755  +6.5438541     1500.278     3590.767     3927.188     90.55588     180.2527     360.7924      2.498     8.61     1146.877     63.57656     179.1954        25     1.653     1.253 -23.94   0
       304     29.5809    371.0020 307.9181961  +6.5241875     696.2227     1248.601     1624.848     89.98273     179.8936     360.3619      1.989     5.10     1168.491     63.57656     111.9932         6     1.119     0.658  29.57   0
       305    704.5286    364.7792 307.6378053  +6.5493429     47249.48     106768.6     120863.6     89.98273     180.2527     360.6489      2.332     5.31     1146.139     63.57656      4568.37       102     2.045     1.698 -63.48   0
       306    863.1124    365.7095 307.5718409  +6.5542429       844.72     1388.456     1416.285     90.12637     180.8974     360.8282      1.761     4.47     1144.613     63.57656     113.0077         7     0.891     0.638  25.80   0
       307     84.7407    364.3272 307.8954913  +6.5287951     774.3569     1767.791     2422.486     90.55588     180.3962     360.6848      2.816     4.83      1166.82     63.57656     117.3737         7     0.996     0.663 -87.28   0
       308    567.0485    361.3502 307.6950789  +6.5461708      1380.74     3368.158     4076.061     90.41293     180.2527     360.6131      2.505     9.23     1146.725     63.57656     144.1771        30     1.895     1.278 -56.66   0
       309    104.3670    360.5952 307.8874587  +6.5309946     3296.714     8415.255      10225.8     89.55047     180.2527     360.4696      2.537     6.02     1166.093     63.57656     364.2979        48     1.896     1.612 -72.51   0
       310    945.5480    362.2432 307.5376832  +6.5584176     553.9388     1083.109     703.2032     90.41293     180.3245     360.7206      1.947     5.19     1139.768     63.57656     80.29163         5     1.065     0.714 -14.22   0
       311    550.1965    357.6460 307.7022100  +6.5471374     3782.289     9242.517     10540.75     89.69479     180.1091     360.2901      2.376     5.98     1146.755     63.57656     359.5854        47     1.885     1.543 -57.31   0
       312    278.9916    355.8062 307.8150241  +6.5388260     1344.315     3414.682     3944.939     89.69479      180.181     360.5054      2.458     9.71     1155.671     63.57656     159.9717        30     1.823     1.444 -68.84   0
       313    413.2748    352.9376 307.7592939  +6.5445050     13757.99     34328.74     40326.78      90.6986     180.3962     360.6848      2.517     5.77     1150.749     63.57656     1299.176        80     2.089     1.786 -66.60   0
       314    502.3516    343.4413 307.7225806  +6.5514041     4772.774     11725.23     13253.31     90.41293     180.3245     360.5772      2.458     5.83     1145.585     63.57656     457.1898        55     1.945     1.612 -51.23   0
       315    771.4031    342.0257 307.6107668  +6.5609674      1901.61     4096.847     5282.438     89.83887     180.0373     360.4696      2.479     6.15     1144.386     63.57656      202.291        28     1.540     1.395  82.11   0
       316    926.3879    341.6520 307.5463409  +6.5662826     631.8242     1180.984     1113.994     89.69479     180.3245     360.3619      1.908     4.22     1139.474     63.57656      102.219         5     1.062     0.478 -84.13   0
       317    164.0404    333.3696 307.8635721  +6.5442375      595.277     1497.114     1467.874     89.83887     180.1091     360.4696      1.729     3.47     1162.228     63.57656     88.06274         5     1.437     0.242 -17.15   0
       318    392.2923    327.4657 307.7688772  +6.5543205     3943.485     10253.46     11378.99     90.41293     180.6111     360.6848      2.561     6.38      1149.59     63.57656     358.5356        54     1.979     1.712 -65.18   0
       319    248.0372    327.9061 307.8288361  +6.5493089     1120.492     2757.136     3250.438     90.55588     180.2527     360.7924      2.514     8.40     1155.915     63.57656     133.2662        23     1.639     1.203 -63.73   0
       320    760.0180    323.2937 307.6161304  +6.5683226     33764.29     74142.22     82798.12     90.26976     180.1091     360.5413      2.276     5.00     1142.587     63.57656     3456.761        89     1.978     1.655 -64.41   0
       321    432.2682    323.3095 307.7523973  +6.5573737     1361.758     3026.781     2878.355     90.55588     180.5395     360.6489      2.172     6.96     1147.002     63.57656     157.4233        22     1.557     1.069 -60.13   0
       322    994.5161    320.5522 307.5187227  +6.5772610     1259.569     2201.603      1997.35     90.41293     180.3962     360.7206      1.793     5.53     1134.171     63.57656     199.5303        14     1.544     0.860 -68.69   0
       323    935.6434    319.3667 307.5432409  +6.5757925     1725.561     3405.241     3585.028     89.98273     180.3962     360.5054      2.044     6.12     1137.325     63.57656     191.1738        23     1.545     1.138 -67.44   0
       324    417.6527    316.8956 307.7586902  +6.5595332     881.1686     2161.281     3214.543     90.26976     180.3245     360.9716      3.131     9.02     1147.383     63.57656     125.8065        15     2.421     0.939 -73.93   2
       325    839.5798    313.4999 307.5833796  +6.5750173     785.5122     1727.166      1448.54     90.41293     180.2527     360.4337      2.217     7.21     1140.707     63.57656     106.7362        12     1.607     0.907  84.37   0
       326    448.3926    312.3781 307.7460623  +6.5624265     560.2796     1361.233     1349.128     89.83888      180.181     360.4337      2.481     5.55     1144.937     63.57656     85.20642         5     1.233     0.703 -45.88   0
       327    195.1093    310.4431 307.8514311  +6.5547454     1266.274     2933.583     2331.219     90.41293     180.3245     360.7924      2.393     8.19     1158.905     63.57656     149.3259        20     1.568     1.195 -41.96   0
       328    758.4469    307.8951 307.6173017  +6.5746285     3726.671     8150.054     8751.234     90.26976     180.3245     360.8282      2.256     5.37     1141.167     63.57656     351.5891        40     1.747     1.413 -50.13   0
       329    774.8845    305.8201 307.6105370  +6.5760331     1586.024     3467.604     3818.309     89.98273     180.0373     360.6131      2.226     6.05     1140.977     63.57656      169.212        25     1.605     1.118 -52.64   0
       330     89.8751    307.2197 307.8952905  +6.5525465      606.846      1432.59     1535.493     89.98273      180.181     360.6131      1.989     3.79     1166.279     63.57656     85.81201         5     1.439     0.286 -12.25   0
       331    364.7188    300.7076 307.7812445  +6.5644462     1007.734     2753.884     2911.924     90.12637     180.6828     360.7565      2.558     5.70     1150.014     63.57656     121.9573        11     1.326     0.690  88.14   2
       332   1012.9863    296.7782 307.5118408  +6.5876917     4644.991     8613.777     9932.248     90.12637      180.181     360.5772      2.020     4.19     1131.354     63.57656     583.6567        36     1.608     1.221 -68.68   0
       333    491.2087    297.2434 307.7287714  +6.5701070     1142.754     3123.182     3046.636     89.83887      180.181     360.3978      2.564     8.53     1141.158     63.57656     128.0552        19     1.488     1.435 -36.89   2
       334    253.9266    292.2881 307.8275918  +6.5642127     3029.185     7946.805     9674.621     90.41293     180.6828     360.7206      2.583     6.46      1153.39     63.57656      313.731        52     1.913     1.774 -74.69   0
       335    388.5870    282.5923 307.7719327  +6.5727247     946.9743       2208.5     2395.672     89.98273      180.181     360.5772      2.376     6.75     1146.981     63.57656     119.7104        13     1.426     0.896 -88.33   0
       336    158.3734    279.4733 307.8677519  +6.5663008     991.4147     2352.717     2505.438     89.98273     180.3245     360.6131      2.431     7.85       1160.9     63.57656     126.9078        18     1.861     0.926 -73.74   0
       337    567.5125    274.4903 307.6978133  +6.5820512     1233.484      2737.33     2751.762     90.12637     180.8974     360.8282      2.212     7.82     1138.357     63.57656     153.1013        19     1.602     1.068  36.13   0
       338    910.6794    273.3779 307.5551652  +6.5939512     1175.066     2514.929     2428.248     89.98273     180.0373     360.6489      2.210     5.92     1134.923     63.57656     152.6581        18     1.413     1.039  73.00   0
       339    731.1011    271.9488 307.6298810  +6.5885594     2968.421     6745.833     7256.356     90.41293     180.3962     360.9357      2.309     5.42     1138.384     63.57656     322.6238        42     1.770     1.485 -53.00   0
       340    671.6514    271.8595 307.6546026  +6.5866136     1300.521     2774.466     3162.168     90.41293     180.3245     360.6848      2.135     7.86      1138.31     63.57656     154.3937        20     1.614     1.072  85.49   0
       341    926.6396    263.5572 307.5488588  +6.5985374     829.0623     1603.582     2017.243     90.12637     180.3962     360.5413      2.038     5.42     1133.562     63.57656     135.8912         7     1.080     0.769 -51.45   0
       342    230.8133    257.7422 307.8383694  +6.5777020     1182.483     3126.024      3486.71     89.69479     180.2527     360.3619      2.588     7.71     1154.622     63.57656     181.6945        24     1.883     1.321 -76.44   0
       343    873.1295    256.5081 307.5713453  +6.5996670     1225.415     2394.433     2561.314     90.26976     180.5395     360.7206      2.000     7.03     1135.113     63.57656     169.9056        15     1.299     1.066 -42.24   0
       344    763.3842    255.7840 307.6170018  +6.5963102     1284.949     2333.382     2768.303     90.12637     180.0373     360.6131      2.111     5.57     1137.472     63.57656     142.5677        17     1.267     1.035  84.42   0
       345    464.6096    247.1910 307.7415192  +6.5898846     12282.64     30953.27     37409.14     89.83888      180.181     360.5772      2.602     5.90     1138.097     63.57656     1143.339        94     2.446     1.819 -45.43   0
       346    790.2653    246.3214 307.6061429  +6.6011132     8606.088     18742.46     21523.64      90.6986     180.4679     360.6489      2.316     4.98     1136.898     63.57656     848.4952        62     1.879     1.649 -57.13   0
       347    152.8874    240.8682 307.8713392  +6.5820565     1359.921     3218.352     3564.606     90.55588     180.6828     360.7206      2.325     7.94     1159.289     63.57656     173.2944        25     1.640     1.394 -18.59   0
       348    128.0251    239.0584 307.8817373  +6.5819697     676.6559     1479.077     1795.054     89.98273     180.3962     360.5054      2.033     6.29     1161.478     63.57656     96.01685         7     1.882     0.590  49.98   0
       349    926.5522    236.4310 307.5498062  +6.6097352     1127.381     2027.209     2081.857     89.98273     180.3962     360.5772      1.891     5.21     1131.152     63.57656     170.5778        15     1.410     1.042 -52.62   0
       350    588.3077    232.9943 307.6905654  +6.5998795     2648.331     6336.981     6590.747     89.98273     180.0373     360.4337      2.403     5.94     1135.302     63.57656     278.1433        41     1.772     1.526 -67.26   0
       351    550.9452    232.8622 307.7061050  +6.5986862     1253.166     2934.995     2832.183     90.55588     180.3245     360.6489      2.345     7.78     1135.231     63.57656     152.1874        24     1.503     1.464 -17.04   0
       352    393.3942    232.4419 307.7716273  +6.5935926     863.3677     1692.788     1573.695     89.69479     180.0373     360.3619      2.018     5.61      1142.72     63.57656     115.6276         8     1.031     0.861  26.50   0
       353    949.1651    230.2880 307.5406098  +6.6130241      1970.89     3639.005     4075.539     90.41293     180.2527     360.6848      1.930     4.75     1129.501     63.57656     228.3738        26     1.505     1.132 -63.25   0
       354    895.3429    229.4178 307.5630190  +6.6115924      8020.71     15539.32     17555.05     89.83888     180.3245     360.3978      2.081     4.48     1132.006     63.57656     893.8506        48     1.747     1.370 -58.25   0
       355    981.9515    227.3244 307.5270762  +6.6153382     7362.152     13570.15     14447.02     90.26976     180.4679     360.7206      1.944     4.20     1127.535     63.57656     890.8171        43     1.687     1.260 -63.88   0
       356    693.2096    227.2483 307.6471407  +6.6057530     1721.346     4270.604     5095.092     89.83887      180.181      360.326      2.455     6.75     1135.201     63.57656     184.6067        35     1.685     1.501  86.00   0
       357     21.7046    226.4927 307.9263669  +6.5835890     14743.37     35620.94     40596.39     90.41293     181.0403     360.6489      2.455     5.58       1166.5     63.57656     1584.985        75     2.044     1.718 -80.34   0
       358    266.7482    227.8685 307.8244388  +6.5912407     635.3616     1350.299     1179.501     90.26976     180.2527     360.6131      2.515     5.38     1152.256     63.57656     82.40503         7     1.306     0.626  -1.49   0
       359    500.6796    221.9893 307.7273718  +6.6014961     825.9337      2388.44       2881.3     89.98273     180.1091     360.5054      2.922     8.57     1134.702     63.57656     136.3033        10     2.485     0.825  75.65   2
       360    833.7383    218.8861 307.5889890  +6.6138898     1360.427     2770.943     2725.314     90.55588     180.6111     360.6848      2.101     6.49     1133.899     63.57656     161.9352        23     1.547     1.111 -54.76   0
       361    885.9114    218.1439 307.5673196  +6.6159335     1481.439     2913.115     3702.402     90.41293     180.2527     360.8282      2.236     5.29     1131.693     63.57656     170.9757        23     1.392     1.181 -74.16   0
       362    745.5807    215.4874 307.6257602  +6.6123555     24490.85     54138.06     61274.86     90.12637     180.1092     360.5413      2.306     5.08     1135.033     63.57656     2421.198        83     1.997     1.662 -61.82   0
       363    515.0000    219.0175 307.7215177  +6.6032017     1019.314     2035.953     2374.311     89.83887     179.8217     360.2901      2.162     6.51     1134.591     63.57656      141.922        11     1.786     0.666 -83.46   3
       364    513.0000    217.6411 307.7223957  +6.6037032     1104.932      2027.43     2191.022     89.55047     179.9655     360.2901      2.034     6.58     1134.582     63.57656      163.689        13     1.506     0.806 -75.13   3
       365    348.7776    215.0539 307.7907654  +6.5992789      3495.66     9684.029     12374.62     89.83887     180.3962     360.4696      2.845     7.23     1145.166     63.57656      346.354        65     2.419     1.666 -79.21   0
       366    979.2973    214.1895 307.5286208  +6.6206736     2140.164     3974.839      4228.23     90.12637     179.9655     360.5054      1.886     4.43     1127.192     63.57656     275.5769        25     1.440     1.145 -71.91   0
       367    913.4658    212.5530 307.5560498  +6.6191592     5520.608     10751.49     11530.99     90.41293     180.3245     360.7206      2.053     4.59     1130.202     63.57656     622.3578        41     1.692     1.329 -63.65   0
       368    457.0673    211.9471 307.7458444  +6.6041846     2511.848     6456.326     7105.562     90.41293     180.3245     360.5772      2.478     6.35     1136.394     63.57656     240.6724        48     1.855     1.739  73.88   0
       369   1017.6963    212.7811 307.5127009  +6.6225319     1305.131     2548.298     2691.203     90.26976     180.2527     354.2076      2.067     6.36     1125.343     63.57656      148.041        16     1.273     1.018 -38.59  16
       370    114.4637    203.3520 307.8885845  +6.5962575     2705.656     6411.061     7500.607     90.26977     180.2527     360.7206      2.448     5.81     1161.402     63.57656     304.9679        43     1.808     1.560 -83.05   0
       371    284.7896    199.8961 307.8178831  +6.6033948     17727.81     45123.62     52764.23     90.12637     179.9655     360.4337      2.534     5.88     1151.827     63.57656     1840.438        84     2.120     1.791 -71.04   0
       372    260.0237    201.0558 307.8281412  +6.6020863     3366.811     8781.497     10501.18     89.98273     180.3962     360.4696      2.519     6.11     1153.121     63.57656     352.8943        51     1.954     1.637 -69.64   0
       373    934.2120    201.8392 307.5477829  +6.6242734     723.2472      1270.33     1723.905     89.83887      180.181     360.3978      1.822     4.38     1128.714     63.57656     84.84583         5     0.805     0.679  53.58   0
       374    408.7917    195.3383 307.7664778  +6.6094277     25442.35      66728.7     78431.12     89.69479      180.181     360.4337      2.563     5.95     1138.554     63.57656     2466.324        94     2.143     1.849 -69.37   0
       375    164.8298    196.8174 307.8678646  +6.6006452     2104.371     5310.547     6140.767     89.98273      180.181     360.6131      2.518     6.67     1157.352     63.57656     201.5406        39     1.773     1.586  83.74   0
       376    748.0031    191.4072 307.6255633  +6.6223792     19972.39     45306.94     51029.38     89.69479     180.0373     360.5054      2.307     5.09     1133.426     63.57656      2009.99        78     1.999     1.642 -73.16   0
       377    313.4824    193.0862 307.8061831  +6.6071675     9659.834     24286.75     31277.22     90.12637     180.6111     360.7924      2.758     6.54     1149.021     63.57656     960.0662        99     2.704     1.966 -12.64   0
       378    427.1078    196.0525 307.7588379  +6.6097455     729.0934     1586.272     1613.053     90.26976     180.2527     360.9357      2.368     6.06     1137.285     63.57656     102.0826         8     1.243     0.831 -14.85   0
       379    796.2473    191.3257 307.6055051  +6.6240208     693.9441     1520.643     1823.958     90.26976     180.4679     360.6848      2.465     5.30     1132.815     63.57656     90.87097         8     0.942     0.843   8.54   0
       380     65.0808    188.9458 307.9096046  +6.6005481     5337.214      12531.3     14034.63     90.41293     180.3962     360.7565      2.408     5.43       1164.1     63.57656     566.0594        54     1.919     1.600 -77.16   0
       381   1006.2742    185.4061 307.5183692  +6.6334556     838.8846     1417.016      1225.15     89.98273     179.8936     360.5413      1.735     6.01     1125.366     63.57656     98.08569         9     1.269     0.801 -66.05   0
       382   1007.2487    171.8164 307.5184201  +6.6390994     1721.388     3319.536     3956.807     89.83887     180.4679     360.3619      2.232     5.77     1125.088     63.57656     193.5507        21     1.441     1.119 -60.47   0
       383    599.1575    167.9461 307.6882461  +6.6271003     1092.009      2453.48     2738.991     90.41293     180.3962     360.6848      2.322     7.91     1133.312     63.57656     138.9825        18     1.531     1.143 -69.47   0
       384    283.6309    166.1905 307.8195042  +6.6172727     16021.44     41007.97      48260.9     89.83887      180.181     360.4696      2.545     5.90     1152.814     63.57656     1621.357        83     2.086     1.837 -64.91   0
       385     29.2693    164.7762 307.9253132  +6.6093249     2685.526     6467.271     7888.886     89.98273     180.2527     360.6489      2.516     6.00     1166.351     63.57656     296.6741        46     1.907     1.559 -75.22   0
       386    715.2421    162.6768 307.6401529  +6.6331498     5020.151      10993.5     12527.83     90.26976     180.3962     360.7206      2.265     5.28     1132.067     63.57656     513.1062        48     1.798     1.536 -68.56   0
       387    126.2395    160.0026 307.8851561  +6.6145510      2652.01     6606.737     7438.455     89.40591     180.1091     360.3619      2.426     6.20     1159.204     63.57656     319.3513        45     1.897     1.616 -63.45   0
       388    396.8528    155.9456 307.7727721  +6.6252934      2202.52     5595.303     6553.673      90.6986     180.3245     360.6489      2.580     6.95     1137.411     63.57656     206.7466        43     1.875     1.684 -74.77   0
       389    361.1307    154.7491 307.7876661  +6.6245920      1767.03     4162.316     4503.213     90.26976     180.2527     360.6848      2.332     7.43     1142.561     63.57656      187.458        34     1.790     1.475 -55.02   0
       390    115.9014    155.1549 307.8896187  +6.6162057     995.3767     2269.011      2781.57     90.41293     180.3245     360.9357      2.340     7.29     1159.642     63.57656     128.2838        14     1.675     0.890 -66.38   0
       391    464.7736    155.9928 307.7445282  +6.6275457     572.1729     1143.742     698.8281     89.83887     180.2527     360.4696      1.634     3.82     1133.894     63.57656     76.42493         5     1.289     0.325  26.24   0
       392    678.2353    153.3219 307.6558563  +6.6357780     699.0529     1139.841     990.9139     90.26976     180.4679     360.7206      1.982     5.66     1131.893     63.57656     116.8838         7     1.104     0.818  28.95   0
       393   1007.9534    148.9125 307.5188958  +6.6485801     1204.878     2169.257     1961.822     90.41293     180.2527     360.6848      1.896     6.04      1123.66     63.57656     137.1868        18     1.360     1.094 -82.89   0
       394    213.1349    143.6466 307.8495788  +6.6242185     3012.316     7648.367     8697.101     90.41293     180.3245     360.6848      2.449     5.86     1155.306     63.57656     332.2644        48     1.868     1.644 -72.97   0
       395    674.8541    142.3505 307.6576318  +6.6401953     3592.134     8351.158     9916.561     90.41293     180.3962     360.7206      2.440     5.55      1131.21     63.57656     369.0464        48     1.916     1.522 -52.42   0
       396     96.4360    144.1311 307.8980856  +6.6201040     1078.224     2390.355      3146.02     90.26976     180.4679     360.7924      2.780     7.74     1160.572     63.57656     159.9156        16     1.596     1.050 -53.54   2
       397     94.9243    141.7207 307.8987957  +6.6210485     739.8241     1460.368     2258.111      90.6986     180.6828     360.7924      2.353     3.22     1160.619     63.57656     129.5472         5     0.980     0.471 -46.52   3
       398    822.6235    142.5907 307.5961760  +6.6450226     660.6888     1350.831     1259.126     89.98273      180.181     360.5413      2.225     5.67     1128.737     63.57656     98.91089         8     1.306     0.695 -82.97   0
       399    626.9131    139.6703 307.6776574  +6.6397021     5545.073      13277.6     16589.26     90.55588     180.6828     360.7206      2.552     5.53     1131.561     63.57656     537.9193        46     1.787     1.556 -45.76   3
       400    630.4900    131.2133 307.6764549  +6.6433134     30706.42     71830.79     83836.03     90.12637     180.1092     360.5413      2.428     5.40     1130.936     63.57656     2867.579       103     2.150     1.772 -63.67   3
       401    354.1558    135.7102 307.7912095  +6.6322195     2115.647     5371.112      6526.76     90.41293     180.2527     360.7924      2.598     7.32     1143.431     63.57656     198.7644        40     1.929     1.509 -39.51   0
       402    536.1040    135.1810 307.7155696  +6.6385231     935.2667     2207.131     2287.671     90.26976      180.181     360.4337      2.367     6.56     1131.906     63.57656     128.1871        11     1.462     0.827 -14.53   0
       403    999.6991    134.1488 307.5228239  +6.6544017     749.9952     1473.778     2356.855     90.41293     180.3962     360.9357      2.182     3.96     1122.385     63.57656     114.8951         6     1.067     0.420  79.13   0
       404    309.7688    125.0198 307.8100275  +6.6351473     1961.331     4854.962     5488.349     89.83887      180.181     360.5413      2.479     7.42     1149.684     63.57656     198.3088        35     1.851     1.400 -66.90   0
       405      7.1951    108.2618 307.9364069  +6.6319171     745023.7      2124481      2499081     89.69479     180.1091     353.4399      2.623     5.81      1168.53     63.57656     61856.79       349     2.390     1.980 -72.71  28
       406    694.9204    115.0955 307.6502052  +6.6521185     1981.635     4458.592     5419.946     90.12637     180.6828     360.7565      2.429     6.10      1129.28     63.57656      201.193        33     1.644     1.434 -68.52   0
       407    436.6478    106.2112 307.7579037  +6.6471598     2120.124     5396.398     6180.943     89.83888     180.2527      360.326      2.509     6.40     1133.398     63.57656     237.2904        43     1.859     1.573 -77.14   0
       408    909.1123    101.3582 307.5615958  +6.6649277     2914.515     5651.473     6049.665     90.41293     180.3962     360.7206      2.020     4.72     1122.344     63.57656       367.38        32     1.670     1.200 -67.96   0
       409    891.0994    102.3543 307.5690531  +6.6639168     1411.255     2899.008     2675.059     90.41293     180.3245     360.9357      2.098     4.97     1123.302     63.57656     164.0842        19     1.292     1.065 -74.84   0
       410    601.2701    100.6638 307.6896350  +6.6549518     1018.945     2081.668     2273.923     90.41293     180.3962     360.6848      2.136     7.79     1129.266     63.57656     138.8851        16     1.404     1.232  11.07   0
       411    400.2604     98.2375 307.7733039  +6.6492348     1129.195     2711.758     2431.451     90.41293     180.4679     360.6848      2.312     7.17     1136.873     63.57656     134.7012        18     1.559     1.205 -54.60   0
       412    148.1522     94.8344 307.8782510  +6.6421933     1924.342     4664.999     4721.434     90.12637     180.3962     360.6131      2.302     6.88     1156.166     63.57656     199.3384        32     1.727     1.416 -76.86   0
       413     29.9613     92.9546 307.9274595  +6.6390019     7500.625     17541.19     20015.11     90.12637     180.3962     360.5772      2.373     5.32     1165.881     63.57656     828.5391        62     2.029     1.583 -73.92   0
       414    831.5251     87.2149 307.5943364  +6.6681841     4097.292     8428.533     9980.009     89.83888     180.1091     360.5413      2.224     4.80     1124.884     63.57656     448.0487        42     1.739     1.429 -73.87   0
       415    776.8370     87.7105 307.6170621  +6.6661572     2088.972     4447.226     4894.744     90.41293     180.3245     360.7206      2.229     5.62     1126.703     63.57656     211.2769        29     1.618     1.266 -69.17   0
       416     70.2624     84.8510 307.9109766  +6.6437012     2013.365     4627.051     4954.064     90.41293     180.3245     360.6848      2.265     5.79     1161.383     63.57656     244.8116        36     1.691     1.467 -51.85   0
       417     12.7477     80.4169 307.9350420  +6.6436003     1650.896     3681.996     4443.078     89.83888     180.4679     360.3619      2.450     6.12     1166.056     63.57656      224.558        29     1.671     1.400 -80.64   0
       418    770.8016     75.0812 307.6199969  +6.6711708     1366.375     2870.505     2851.055     89.55047     179.8936     360.3619      2.141     5.35     1125.918     63.57656     146.6227        18     1.225     1.160 -75.23   0
       419     97.9928     69.1407 307.8999781  +6.6511186     5464.505     12935.92     15025.28     89.69479     180.2527     360.3619      2.401     5.53     1158.007     63.57656     588.4624        61     2.043     1.599 -75.14   0
       420    427.0240     68.9464 307.7631636  +6.6622244     1294.791     3180.388     3211.969     89.83887     180.3962     360.4696      2.324     6.75     1134.359     63.57656     172.4902        24     1.665     1.366 -72.68   0
       421    640.6309     61.0194 307.6746028  +6.6726351     10837.65     25054.95     29036.44     89.83887      180.181     360.5413      2.398     5.30     1127.584     63.57656     1056.402        72     2.019     1.690 -58.37   0
       422    264.6156     63.7114 307.8308759  +6.6589484      869.532     2070.903     3249.514     90.12637     180.1092     360.5054      3.722     6.82     1152.623     63.57656      110.821        12     1.573     0.829  -6.08   0
       423    540.4428     57.3081 307.7163915  +6.6708216     2916.683     6770.071     7821.753     90.41293     180.3962     360.7924      2.425     5.79     1129.327     63.57656     297.1973        41     1.758     1.534 -59.01   0
       424    259.0249     57.3550 307.8334157  +6.6613855     1197.762     3167.563     5586.424     89.83887     180.4679     360.5413      4.472     8.67     1152.601     63.57656     157.2012        21     1.660     1.263 -52.43   3
       425    266.6816     53.2830 307.8303695  +6.6633234     5122.931     12682.87     15914.48     90.12637     180.6828     360.7924      2.710     6.00     1152.341     63.57656     548.5911        57     2.016     1.643 -64.51   3
       426    446.0266     52.6894 307.7558103  +6.6695724     12549.97     30800.37     35499.01     90.55588     180.1091     360.5413      2.461     5.71     1133.127     63.57656     1295.956        75     2.059     1.734 -65.43   0
       427      8.0074     55.7339 307.9378498  +6.6536322     770.7839     1771.031     1552.483     89.83887     180.1091     358.9594      2.384     5.83     1163.659     63.57656     109.1421         8     1.375     0.695  82.65  16
       428    923.6976     52.8038 307.5571617  +6.6854615     1373.365     2708.133     3034.881     90.12637     180.0373      360.326      2.082     7.36      1119.56     63.57656     169.2538        19     1.442     1.107  84.41   0
       429    626.7364     51.1890 307.6807121  +6.6762302     2085.576     4812.569     5744.646     89.83887      180.181     360.5413      2.504     6.36     1127.474     63.57656     217.6189        37     1.892     1.341 -83.32   0
       430     32.2807     52.4561 307.9278677  +6.6558009     1460.052     3306.487     3653.989     90.55588     180.3962     360.7206      2.349     8.12     1161.561     63.57656     168.2899        25     1.692     1.174 -51.44   0
       431    254.6465     49.7870 307.8354923  +6.6643635     1731.844     4117.046     5153.517     89.69479      180.181     360.4337      2.789     6.37     1152.524     63.57656     218.8619        33     1.701     1.428  78.52   0
       432    696.1665     42.3311 307.6521372  +6.6822046     1159.738     2519.899     2506.518     90.26976     180.3962     360.7565      2.155     7.43     1125.919     63.57656     135.1522        16     1.482     1.180 -54.41   0
       433    943.9589     42.2810 307.5490890  +6.6904807     794.2241     1236.932     775.6439     90.41293     180.3962     360.6131      1.556     4.71     1117.694     63.57656     110.8534         8     1.056     0.676 -50.78   0
       434    184.2360     35.2220 307.8652643  +6.6680167     5901.858     14236.77     17016.41     89.83887     180.1091     360.3978      2.456     5.62     1153.862     63.57656     626.5831        62     2.039     1.662 -58.81   0
       435    528.2238     33.4656 307.7222770  +6.6802578      1550.54     4025.515     4220.886     89.98273     180.3962     360.5772      2.472     7.22     1129.259     63.57656     159.9901        33     1.729     1.450 -74.97   0
       436    929.5531     32.6731 307.5554028  +6.6939685     3199.696       5778.9     5453.936     90.26976     180.4679     360.6848      1.884     4.46     1118.644     63.57656     380.1545        30     1.487     1.252 -73.73   0
       437    466.6915     32.0621 307.7479131  +6.6787804     1046.629     2245.245      2485.99     90.41293     180.5395     360.7924      2.153     8.00      1131.56     63.57656     144.5585        17     1.374     1.303 -69.24   0
       438    730.5440     31.4426 307.6382072  +6.6878471     1246.145     2914.184     3170.809     90.26977     180.3245     360.7206      2.294     7.09      1124.18     63.57656     148.7825        24     1.505     1.308  -9.73   0
       439    994.4689     28.9423 307.5285308  +6.6976684     1675.741     2785.278     3087.186     90.55588     180.3245     360.6131      1.768     5.01     1111.766     63.57656     194.2522        19     1.332     1.015 -71.01   0
       440    550.7797   1016.8821 307.6797597  +6.2749524     3782.687     6720.406     6911.655     90.12637     180.0373     359.4635      1.855     3.89     1187.186     63.57656     479.0978        33     1.559     1.174 -65.94  16
       441    520.7682   1018.0012 307.6921928  +6.2734883     1059.481     1915.219     1788.958     89.69479      180.181     351.8628      1.886     4.70     1187.682     63.57656      158.889        12     1.364     0.937 -57.98  16
       442    301.2997   1015.5566 307.7834699  +6.2671612     13319.57     22568.55     25171.39     90.41293     180.2527     360.9357      1.893     3.67     1189.747     63.57656     1636.319        58     1.852     1.367 -47.48  16
       443    755.4097   1016.1470 307.5947527  +6.2820802     7659.375     12079.28     12565.19     89.69479     180.2527     360.3619      1.673     3.48     1184.214     63.57656     977.0439        33     1.464     1.082 -62.14  16
       444    816.7319   1015.5938 307.5692891  +6.2843510     1067.238     1451.572     784.2201     89.83888     179.9655     360.4696      1.579     5.45     1183.601     63.57656     157.0973        10     1.112     0.753 -55.23   0
       445    425.6178   1015.9505 307.7317996  +6.2711562      946.647     1350.712     1421.114     89.83887     180.4679     360.4696      1.571     4.13     1188.063     63.57656       140.64         7     0.876     0.614  13.00   0
       446    271.7888   1013.4615 307.7958030  +6.2670385      616.517     1158.875     1102.238     89.83888      180.181     360.4337      1.900     4.64     1189.711     63.57656     90.11609         6     0.986     0.621 -65.79   0
       447    916.7362   1009.5792 307.5279342  +6.2901625     8940.167     13495.23     14014.61     89.98273     180.3962     360.5413      1.626     3.46     1180.732     63.57656     1150.672        36     1.487     1.052 -63.51   0
       448    548.1253   1008.9422 307.6811300  +6.2781422     7408.483     12511.73     12716.16     90.41293     180.3962     360.6848      1.767     3.73     1187.057     63.57656     920.7323        38     1.540     1.203 -63.15   0
       449    890.3179   1005.7199 307.5390419  +6.2908773     12534.63     19418.77     20857.39     90.41293     180.6828     360.8282      1.693     3.46     1181.266     63.57656     1704.852        42     1.495     1.177 -61.37   0
       450   1012.0762   1005.1530 307.4884636  +6.2951600     5168.749     7488.634     7643.408     90.26976     180.4679     360.6848      1.530     3.36     1177.562     63.57656     725.2723        26     1.352     0.948 -65.91   0
       451    534.5366   1004.8406 307.6869148  +6.2793822     3451.662     5928.891     6649.866     90.41293     180.3245     360.7924      1.899     3.96     1187.182     63.57656     422.3705        28     1.421     1.172 -73.07   0
       452    602.9100   1005.7278 307.6584731  +6.2812979      1181.52     1970.872     2536.746     90.41293     180.6828     360.6848      1.967     5.48     1185.893     63.57656     159.3694        12     1.194     0.865 -63.03   0
       453    644.1807   1004.2499 307.6413732  +6.2832849     1126.964     1823.797     1673.144     89.83887     180.4679     360.5054      1.783     5.95     1185.616     63.57656     145.1681        12     1.098     0.907 -57.64   0
       454    487.7633   1001.3276 307.7064690  +6.2792706     1978.785     3376.253     3452.174     90.26976     180.3962     360.7206      1.835     5.10     1187.837     63.57656     233.2124        24     1.374     1.219 -55.41   0
       455     69.2056   1003.3810 307.8803194  +6.2644128     857.5076     1283.284     1837.383     89.98273     179.9655     360.4696      1.407     4.27     1189.849     63.57656     144.7075         7     0.991     0.568 -24.14   0
       456    922.0923    993.2667 307.5262557  +6.2970764      43921.1     67439.94     70883.88     90.26976     180.6111     360.7206      1.643     3.37     1179.865     63.57656      5947.78        70     1.596     1.224 -68.30   0
