#   1 NUMBER                 Running object number                                     
#   2 X_IMAGE                Object position along x                                    [pixel]
#   3 Y_IMAGE                Object position along y                                    [pixel]
#   4 ALPHA_J2000            Right ascension of barycenter (J2000)                      [deg]
#   5 DELTA_J2000            Declination of barycenter (J2000)                          [deg]
#   6 FLUX_APER              Flux vector within fixed circular aperture(s)              [count]
#   9 FLUXERR_APER           RMS error vector for aperture flux(es)                     [count]
#  12 FLUX_RADIUS            Fraction-of-light radii                                    [pixel]
#  13 FWHM_IMAGE             FWHM assuming a gaussian core                              [pixel]
#  14 BACKGROUND             Background at centroid position                            [count]
#  15 THRESHOLD              Detection threshold above background                       [count]
#  16 FLUX_MAX               Peak flux above background                                 [count]
#  17 ISOAREA_IMAGE          Isophotal area above Analysis threshold                    [pixel**2]
#  18 A_IMAGE                Profile RMS along major axis                               [pixel]
#  19 B_IMAGE                Profile RMS along minor axis                               [pixel]
#  20 THETA_IMAGE            Position angle (CCW/x)                                     [deg]
#  21 FLAGS                  Extraction flags                                          
         1    671.3301     33.7855 307.6742177  +6.6721703     5028.633      17181.4     27253.01     93.92448     188.5251     376.9752      3.435     9.19     1246.114     66.46783     554.3007        99     2.815     2.157  82.35   0
         2    569.4623     29.6237 307.7168370  +6.6704705      1460.38     3330.777     5669.063     94.07488     188.6001     376.9752      3.136    10.42     1248.585     66.46783     174.5725        30     2.443     1.239  81.69   2
         3    474.7908     25.5599 307.7564518  +6.6689684     5915.561     14681.56     21210.84     93.77384      188.375     376.7876      2.980    10.25      1254.52     66.46783     574.8091        68     3.137     1.347  84.55   3
         4    479.1162     25.2078 307.7546599  +6.6692586     5444.911     12471.82     16730.49     94.07487     188.2249     376.9001      2.625     9.67     1254.345     66.46783       622.52        49     2.778     1.091  89.19   3
         5    297.2342     26.5254 307.8304614  +6.6626047     2194.163     8294.884     14977.14     94.37496     188.6001     377.0501      4.204    11.02      1274.14     66.46783     254.5209        91     2.758     2.382 -74.43   0
         6    656.2504     24.1768 307.6808265  +6.6756239     1029.138     2909.195     5336.963     94.07487      188.675     376.9752      3.739     9.17     1245.949     66.46783     124.7179        17     2.775     0.846  60.58   2
         7    217.3866      8.1402 307.8643730  +6.6674928     2610.359     5510.594     7286.024     93.77383     188.5251     375.6227      2.502     7.94      1275.79     66.46783     296.2408        38     2.523     1.057  82.46  19
         8    213.3897      8.1687 307.8660387  +6.6673465     2749.823     7062.252     10442.73     93.92448        188.3     375.9236      2.980    11.16     1275.782     66.46783     271.0685        51     3.098     1.203  79.76  19
         9    960.1029      5.2600 307.5547397  +6.6935825     1557.537      4337.11     5693.653     94.22504     188.6001     348.8491      2.874    10.57     1238.082     66.46783     190.3254        39     2.222     1.544  74.24  24
        10    560.5103      5.2658 307.7213828  +6.6802059     733.4006     2273.471     3656.851     94.52464     188.7499     348.8896      3.456     7.52     1249.669     66.46783     108.1204         9     1.499     1.056  53.34  18
        11    744.7529      1.7108 307.6446670  +6.6878441     1312.315     2121.599     2479.618     87.69724     156.5709     291.1018      1.831     6.79     1243.402     66.46783     175.3605        16     1.707     0.758   0.18  24
        12    582.2288    989.5599 307.6795188  +6.2753902     1684.936     4845.871     6454.779     94.07488        188.3     376.9377      2.921     7.45     1305.678     66.46783     199.1797        28     1.689     1.499 -18.36   3
        13    829.9027   1021.1254 307.5752639  +6.2706726     3055.307     7848.964     8546.366     94.07487     185.2724     328.9506      2.408     6.91     1304.882     66.46783     319.0323        44     1.947     1.485  89.28  24
        14    620.0141   1019.9498 307.6627621  +6.2641347     41658.88     141459.2     220398.5     93.77383     188.6001     345.6327      3.428    15.17     1308.074     66.46783     5549.678       147     3.309     1.934 -73.31  24
        15    580.7787    985.7792 307.6802489  +6.2768993      2227.74     3943.094     5559.866     94.22504     188.5251     377.0501      2.272     5.04     1305.446     66.46783     229.4579        16     1.236     1.158  -4.04   3
        16    579.3616    981.2342 307.6809908  +6.2787245     3199.767     9550.859     12867.43     94.22504      188.375     376.8251      3.100    14.14     1305.149     66.46783     351.2477        61     2.910     1.911  70.53   3
        17    947.9524    981.8322 307.5273764  +6.2908057     4507.705     11184.13      13538.5     94.22504     188.6001     377.0127      2.533     6.94     1301.474     66.46783     508.3702        55     2.367     1.395 -85.72   0
        18    565.4745    978.1874 307.6868790  +6.2795145     1671.224     4749.095     6842.276     93.92448     188.2249     376.8626      3.161     9.00     1304.777     66.46783     198.7391        39     2.090     1.821 -76.38   2
        19    921.5023    977.9886 307.5385261  +6.2915062     6219.616      15604.4     19619.09     94.22504     188.2249     376.8626      2.645     6.55     1301.577     66.46783     724.7437        67     2.491     1.504  88.11   0
        20    519.2538    974.1317 307.7062743  +6.2796362     963.7039     2440.412     2744.331     94.52464     188.5251     377.0127      2.859     9.03     1304.738     66.46783      142.259        14     2.050     1.110 -79.70   2
        21    953.2844    965.5631 307.5256942  +6.2976870     22869.18     55923.96     68900.66     94.52464     188.6001     377.0501      2.607     6.56     1300.434     66.46783     2305.838        94     2.502     1.589  88.93   0
        22     26.7233    966.3234 307.9117641  +6.2663007     1184.017      3017.05     3654.819      94.8233     188.8997     377.2001      2.583     8.35      1302.77     66.46783     169.3257        23     1.909     1.380  86.43   0
        23    260.9385    964.1088 307.8142464  +6.2750944      785.658     2083.532     2753.334     94.52464     188.7499     377.2001      2.569     5.21     1304.696     66.46783     99.30188         8     1.846     0.416 -36.36   0
        24    799.3453    957.4384 307.5901135  +6.2958917     3054.312     7972.099     10723.38     94.52464      188.675     377.0876      2.878     7.74      1301.61     66.46783     304.2097        57     2.442     1.522 -89.43   0
        25    851.3669    960.0887 307.5683470  +6.2965386     1201.091     2703.538     3584.061     94.67409     188.4501     377.0876      2.601     6.36     1300.807     66.46783     160.8525        17     1.337     1.074  18.97   0
        26    987.6674    952.4336 307.5118016  +6.3042444     3716.989     8611.108     10498.19     94.37496      188.675     377.1626      2.504     6.36     1299.457     66.46783     448.9388        49     2.183     1.398  87.65   0
        27     94.3012    955.2002 307.8839787  +6.2731593     957.4304     2950.026     3923.163     93.92448     188.1497     376.5999      3.048     8.63     1302.495     66.46783     147.9493        17     1.516     1.372 -80.09   2
        28    960.6672    945.0075 307.5232997  +6.3064029     901.7233     1978.207      1984.19     93.92448        188.3     376.9001      2.068     5.07     1299.177     66.46783     145.9336         8     1.607     0.453  73.35   0
        29    294.7533    940.4983 307.8009449  +6.2859586     1817.187     5195.155      7070.02     94.52464      188.375     377.3125      2.969     9.31     1304.374     66.46783     215.3669        44     1.985     1.809  60.89   0
        30    682.0459    940.3679 307.6395619  +6.2990010     1965.073     5496.777     7086.543     94.22504     188.6001     376.9752      2.848     8.26     1302.118     66.46783     213.2407        43     1.940     1.657  80.49   0
        31     64.9279    940.0621 307.8967246  +6.2784072     658.6785     1251.348      2411.55     94.67409     188.6001     377.1626      2.075     4.22      1302.12     66.46783      124.125         5     1.137     0.446 -33.34   3
        32     61.6704    939.2215 307.8981101  +6.2786438     580.4454     1262.079     2297.513     94.07488     188.4501     377.0501      2.287     4.04     1302.095     66.46783     96.10486         6     1.396     0.334 -75.89   2
        33    930.2661    919.3423 307.5368206  +6.3159627     3348.433     8822.821     10827.57     94.67409     188.5251     377.1251      2.740     7.20      1297.62     66.46783     351.2261        57     2.323     1.586 -89.29   0
        34    368.1354    915.5316 307.7712002  +6.2987100     3542.087     10235.49     13789.17     94.52464      188.675     377.1251      2.979     7.87     1304.278     66.46783     379.5043        70     2.458     1.846  88.48   0
        35    466.5085    917.3683 307.7301458  +6.3012548     852.9363     2206.064      2971.89     94.67409      188.375     377.1251      2.844     8.00     1302.982     66.46783     101.3793        13     1.642     1.089 -13.85   0
        36    290.0000    914.5084 307.8037938  +6.2965069     2038.359     3573.997     5534.448     93.62296     187.9994      376.675      2.337     9.68      1303.74     66.46783     270.2018        27     2.733     0.992 -85.41   3
        37    286.9924    914.3348 307.8050528  +6.2964774     2259.845     5499.751      7301.68     93.92448        188.3     376.9001      2.733     8.32     1303.694     66.46783     236.0916        37     2.214     1.338  89.61   3
        38    946.8972    904.3375 307.5303877  +6.3227004     685.1347     1694.545     1859.197     94.22504     188.7499     377.1626      2.225     6.69      1296.95     66.46783     99.08081         8     1.606     0.781 -23.49   0
        39    781.4174    898.7091 307.5995366  +6.3194901     685.3865     1674.473     1935.675     94.22504        188.3     376.9752      2.848     4.85     1298.784     66.46783     138.4722         7     1.160     0.662 -74.46   2
        40   1013.1691    894.1846 307.5031061  +6.3290955     764.8938     1774.838     1889.255     94.07487        188.3     377.0127      2.408     4.00     1296.509     66.46783     135.2831         6     1.487     0.308  81.56   0
        41    699.6821    890.7717 307.6338626  +6.3200260     989.8694     2360.959     3734.146     94.37496      188.375     377.0127      2.709     5.13     1299.546     66.46783     133.3754         9     1.164     0.639 -39.43   2
        42     99.1916    887.0208 307.8842229  +6.3014141     1042.364     2827.483     4198.871     94.07487        188.3     376.8251      3.297    10.83     1300.643     66.46783     119.6985        23     2.436     1.343  67.70   2
        43    116.6905    888.0849 307.8768955  +6.3015647     824.6112     1545.531     1948.865     94.22504     188.9745     377.2376      2.366     5.09     1301.017     66.46783     118.9971         8     1.206     0.607  53.50   0
        44    242.3906    886.2327 307.8245777  +6.3065565     984.9517     2321.719     2824.701     93.92448      188.375     376.9001      2.209     6.80     1302.819     66.46783      120.097        11     1.689     0.768  16.13   0
        45    695.5505    880.2342 307.6359349  +6.3242294     2543.064     7736.299     10269.98     94.37496     188.6001     377.0127      2.981     8.86     1299.079     66.46783     280.6151        66     2.614     1.766 -85.44   0
        46    380.7440    873.4847 307.7673494  +6.3164572       4782.9        10691     15532.47     94.52464     188.6001     377.2376      2.821     8.36     1303.052     66.46783     593.5363        49     3.043     1.115 -87.66   3
        47    377.4010    874.1964 307.7687188  +6.3160517     5065.452     11964.52     17230.54     93.77384     188.0746     376.7876      2.869     8.58     1303.115     66.46783     485.9343        47     2.553     1.234  84.31   3
        48    933.3085    876.1484 307.5369864  +6.3338613     1199.507     3070.183     3433.029     94.37495      188.375     377.3125      2.559     8.71      1295.58     66.46783      153.399        21     1.623     1.306  88.20   0
        49    923.3024    858.2156 307.5417517  +6.3409160     1033.413      2345.66     2633.743     94.52464        188.3     376.8626      2.369     8.37     1294.708     66.46783     130.7223        16     1.469     1.332 -84.79   0
        50    857.8611    857.2111 307.5690580  +6.3391437     1299.783     3591.828     4177.629     93.77383     188.4501     376.7501      2.568     9.82     1295.477     66.46783     142.3807        30     1.793     1.501 -56.40   0
        51    126.3986    858.5856 307.8738372  +6.3140453     909.4656     2328.359     3650.073     94.07488     188.2249     376.8251      3.381     7.14     1300.445     66.46783     104.9626        12     1.397     1.022 -11.10   2
        52    893.3945    857.4763 307.5542406  +6.3402217     891.7494     1903.229     1905.561     94.07488     187.9994     376.9001      2.181     5.82     1295.039     66.46783     136.3905         8     1.332     0.717  65.53   0
        53    593.6854    848.6766 307.6794369  +6.3338206     115364.3     357031.8     507808.1     94.67409     188.9745     377.1626      3.136     7.98     1298.989     66.46783      11443.7       199     2.871     2.140  88.21   0
        54    439.5342    851.5016 307.7435834  +6.3274878     2395.419     5434.388      7428.35     94.52464      188.675     377.1251      2.764     8.60       1301.7     66.46783     270.1302        33     2.428     1.223  84.99   3
        55    436.5106    851.0518 307.7448585  +6.3275717     2555.851     5656.169     8216.463     94.52464      188.375     377.2001      2.780    10.04     1301.704     66.46783     293.9413        39     2.943     1.105  76.40   3
        56    383.1586    850.1660 307.7671215  +6.3261458     3736.436     8021.875     12391.86     94.22504     188.6001     376.9001      3.003    10.37     1302.353     66.46783     413.0854        51     3.172     1.653  82.73   3
        57    379.8118    850.2416 307.7685137  +6.3260023     3705.736     8568.953     11046.74     93.77383      188.375     376.7501      2.503     6.15     1302.391     66.46783     411.3326        31     1.797     1.199 -86.05   3
        58    699.5508    846.0457 307.6354054  +6.3384497     1421.887     3885.358     5097.147     94.52464     188.4501     377.1251      2.882     9.46     1297.076     66.46783      171.261        32     1.917     1.686  57.75   0
        59    931.7116    844.4768 307.5387032  +6.3468576     2409.334       6213.6     8422.818     94.52464     188.9745     377.1626      2.867     7.55     1293.699     66.46783     290.5669        46     2.200     1.497 -85.80   0
        60    676.2612    840.5717 307.6452935  +6.3399255     949.6983     1997.201      3235.09     94.07488     188.6001     377.0127      2.558     3.46     1297.433     66.46783     198.4077         5     0.907     0.574  47.21   3
        61    672.8199    840.0190 307.6467460  +6.3400380     1447.807     3234.959     6176.289     94.22504     188.5251     377.0127      4.400    10.19     1297.441     66.46783     165.5171        29     2.206     1.617 -75.24   2
        62    666.1181    835.3026 307.6496960  +6.3417569     972.2488     2774.568      5050.75     94.37495     189.0493     377.1626      3.782     8.12     1297.154     66.46783     107.1978        17     1.592     1.158 -74.03   0
        63    950.6379    832.5294 307.5312120  +6.3524122     1326.675     3394.849     4011.412     94.37496     188.6001     377.1626      2.540     7.52     1292.535     66.46783     197.4734        28     2.008     1.373 -87.11   0
        64    410.8773    828.5876 307.7562903  +6.3359669     910.9037     1880.056     2868.149     94.07487     188.1497     376.9001      2.757     5.52     1301.178     66.46783     135.0137        10     1.225     0.840  78.43   2
        65    406.5668    828.4730 307.7580905  +6.3358695      799.512     1619.131     3127.866     94.37496     188.6001     377.0876      3.121     5.97      1301.21     66.46783     96.21875         9     1.287     0.779  89.65   2
        66    544.3123    818.1123 307.7010313  +6.3447589     1021.918     2981.344     4606.848     94.22504     189.1988     377.2001      3.622     8.71       1297.9     66.46783     126.7474        15     1.984     1.067 -53.17   2
        67    593.8100    814.4912 307.6805236  +6.3479098      1777.14     4595.037     7681.495     94.22504     188.1497     376.7876      3.320     9.81     1296.547     66.46783     202.0118        30     2.559     1.049  85.44   3
        68    590.6902    814.1313 307.6818357  +6.3479535     1839.525     3887.421     7166.508     94.67409     188.7499     377.0501      2.863     9.92     1296.613     66.46783     236.3027        33     2.821     0.973  88.77   3
        69    562.7430    808.4720 307.6936714  +6.3493487     6340.916     20208.35     29350.54     94.67409     188.6001     377.0501      3.223     8.27     1296.853     66.46783     658.8193        97     2.773     2.031 -88.39   0
        70    976.2459    806.1726 307.5214140  +6.3641267     1663.819     4821.555     6028.134     93.92448      188.675     376.9752      2.735    11.14     1289.442     66.46783     204.6355        43     2.394     1.444  87.69   0
        71    353.7119    797.2647 307.7811591  +6.3469530     987.1588     2701.422     4628.939     94.52464     188.8248     377.0876      3.622     9.48     1301.098     66.46783     128.6002        19     2.168     1.156 -57.92   2
        72    820.8516    792.6848 307.5866263  +6.3644932     20738.31     60543.96     82066.87     94.52464     188.5251     377.2001      2.972     7.52     1291.702     66.46783     2312.803       113     2.694     1.929  89.08   0
        73     75.1509    799.5367 307.8971696  +6.3366482     700.9353     1420.896     1840.708     94.37495     188.5251     377.1626      3.044     4.60     1298.198     66.46783      102.968         7     1.234     0.488   5.19   0
        74     56.8498    796.7952 307.9048879  +6.3371613     829.8057     1872.425     2544.131     93.77383      188.375      376.675      2.853     5.23     1297.969     66.46783     119.6661         8     1.317     0.587  87.43   0
        75    277.8350    769.6465 307.8137032  +6.3557825     688966.7      2315750      3541984     94.07487     188.5251     376.9377      3.359     9.82     1300.986     66.46783     63170.49       574     3.308     2.381  85.84   4
        76    744.0040    784.5257 307.6189256  +6.3652849      28306.8     89887.77       155771     94.07487     187.9994     376.9752      3.774    10.26     1292.974     66.46783     3327.825       209     3.667     2.544  43.26   0
        77    945.6484    786.9828 307.5348032  +6.3710120     3492.941     10122.59     14491.57     93.92448      188.675     376.8251      3.162     8.99     1289.604     66.46783     432.6815        68     2.722     1.646  79.54   3
        78    942.6152    779.0626 307.5363303  +6.3741741     2919.478     7783.047     10040.89     93.92448     188.5251     376.8626      2.789     7.53     1289.286     66.46783     362.8401        41     1.922     1.607 -85.02   3
        79    387.8328    785.0929 307.7673456  +6.3531137     6312.815     20681.59     30784.57     94.67409     188.4501     377.1626      3.279     8.60     1299.259     66.46783     655.7299       105     2.849     2.119  84.26   0
        80    451.7706    783.0245 307.7407683  +6.3561120     5574.449     11472.14     15622.42     93.92448     188.4501     376.9001      2.506     8.38     1298.424     66.46783     699.3822        47     2.871     1.054 -88.28   3
        81    448.2759    782.9968 307.7422256  +6.3560061     6641.927        16589     23137.57     93.92448     187.9994     376.9752      2.817     8.53     1298.432     66.46783      692.882        58     2.807     1.203  89.30   3
        82      1.6197    786.7257 307.9282409  +6.3394490     1106.534     2032.662     2247.691     86.23417     155.1195     289.5435      2.059     7.46     1297.214     66.46783     206.7744        16     2.181     0.753  86.82  24
        83    683.5060    778.4999 307.6443399  +6.3657429     2130.652     6788.781     10015.85     94.52464     189.1988     376.9001      3.457     9.77     1292.845     66.46783     266.6577        61     2.404     1.887 -86.90   0
        84    985.4347    780.8945 307.5184230  +6.3748487     984.8683     2322.551     2608.294     94.67409     188.4501     377.2001      2.889     5.78     1288.219     66.46783     136.3137        10     1.091     0.881  78.34   2
        85    452.6262    765.5508 307.7409946  +6.3633401     15841.22     53031.03     80513.02     94.07488     188.6001     376.9752      3.310     8.51     1297.093     66.46783     1574.058       138     2.934     2.213  86.17   0
        86    570.2393    764.8622 307.6920004  +6.3675680     2225.464     6574.548     8712.413     94.52464     188.6001     377.1626      2.950     8.05     1293.508     66.46783     246.2686        39     2.055     1.487  32.80   3
        87    572.3606    762.6926 307.6911886  +6.3685330      1322.04     2297.874     3864.026     94.67409     188.5251     377.1626      2.137     7.52     1293.309     66.46783     195.9922        15     1.870     0.847  53.64   3
        88    489.3890    762.6999 307.7257682  +6.3657481     1248.901     2533.092     4391.324     94.22504     188.1497     376.8251      2.790     8.24     1296.468     66.46783     181.4946        23     2.487     0.763  78.64   3
        89    485.4054    762.0201 307.7274511  +6.3658945     1466.912     4099.422     7002.518     94.07487     188.2249     376.8626      3.633    11.83     1296.571     66.46783     186.5845        43     3.145     1.239  79.87   3
        90    815.4952    760.8046 307.5899183  +6.3774496     4360.283     12754.01      17196.9     94.22504     188.2249     376.8251      2.964     7.91     1289.803     66.46783       489.12        74     2.520     1.808  84.59   0
        91    173.5075    753.7446 307.8577133  +6.3588257     3465.993     11254.42      19740.5     94.37496     188.4501     377.2751      4.387    13.50     1298.682     66.46783     365.0101       107     3.379     2.463  37.65   2
        92    167.7622    749.0806 307.8602636  +6.3605540     1134.201     3218.006     6456.176     94.37495      188.675     377.0501      3.918     8.75     1298.362     66.46783      171.991        19     2.581     0.829  89.77   3
        93   1008.7913    751.5604 307.5096615  +6.3877147      682.151     1615.441     2640.669     93.77384      188.375     376.7876      1.402     3.86     1287.585     66.46783     107.7117         5     1.677     0.254  57.53   2
        94    960.8707    749.4098 307.5297059  +6.3870013     2722.087     7394.469     10069.29     93.92448     188.1497     376.9001      2.863     7.39     1287.688     66.46783     329.2334        55     2.307     1.596  87.68   0
        95    604.9395    746.7496 307.6781416  +6.3761935     795.4233     1986.371     3173.399     94.52464     188.5251     377.1251      3.164     5.65     1291.336     66.46783     138.4252         7     1.502     0.599 -69.06   0
        96    954.6353    741.1815 307.5325779  +6.3901835     1285.947     3166.758     4030.554     93.92448      188.375     376.8251      2.737     9.98     1287.361     66.46783     169.9253        25     2.178     1.276 -87.56   0
        97   1014.2010    740.3358 307.5077791  +6.3925200     801.5485     1821.893     3155.549     93.77383        188.3     376.7876      2.812     6.21     1287.625     66.46783     132.8534        10     1.646     0.659  73.81  16
        98    984.4725    740.2477 307.5201728  +6.3915642     1248.885     3385.651     4007.978     94.52464      188.675     377.1251      2.672     9.47     1287.469     66.46783     169.3096        25     1.734     1.442  72.16   0
        99    852.6548    738.2564 307.5751799  +6.3879821     499.4953      1207.39     1733.682     94.67409      188.675     377.1251      2.270     4.20     1287.379     66.46783     82.96338         5     1.533     0.328  49.19   0
       100    999.2842    728.5814 307.5143864  +6.3968654     1208.465     2822.704     3296.505     94.07488     188.2249     377.0501      2.459     8.26     1286.836     66.46783     164.3545        18     1.615     1.182  76.32   0
       101    927.7987    719.8350 307.5444720  +6.3980827     487.2045     1064.578     1392.526     93.47182      188.375     376.8626      1.997     3.45     1285.675     66.46783     84.87598         5     1.011     0.340 -45.79   0
       102     85.2698    708.9911 307.8959843  +6.3742939     673.8001     1714.314      3077.47     93.92448     188.2249     376.9377      2.121     3.82     1292.585     66.46783     101.9513         5     1.276     0.328 -25.83   0
       103    696.4073    697.0939 307.6416722  +6.3997159     2177.638     5268.776     7652.901     94.07487     188.2249     376.8251      2.937     9.16     1286.765     66.46783       225.37        40     2.315     1.423  79.94   2
       104    700.0000    696.9698 307.6401789  +6.3998873     1234.557     2336.551     3324.342     93.62296        188.3     376.8251      2.260     5.61     1286.718     66.46783     198.3387        10     1.868     0.475  85.67   3
       105    158.1911    694.0861 307.8660925  +6.3828899     834.7587     1921.184     3511.621     94.07487     188.2249     376.9001      3.064     7.37      1293.46     66.46783     111.5509        11     1.815     0.837  82.63   3
       106    162.4066    692.5546 307.8643868  +6.3836628     1184.735     2836.333     4427.487     93.92448      188.375      376.675      2.960     7.75      1293.44     66.46783     161.4166        19     1.674     1.003  79.68   2
       107    814.3212    688.8278 307.5928002  +6.4070665     7011.936      21141.1     29836.69     94.37495     188.5251     377.0876      3.082     8.04     1285.222     66.46783     803.7542        93     2.726     1.920  87.40   0
       108    943.2751    688.6951 307.5390552  +6.4114300     1446.639     3703.909     5596.695     94.22504     188.8248     377.0876      3.307     7.99     1283.277     66.46783     189.9164        24     2.045     0.873  82.87   2
       109    671.7465    690.8749 307.6521578  +6.4014526     697.3856     1835.044     3421.366     94.37495     188.6001     377.0501      3.222     5.32     1286.656     66.46783     114.9679         7     1.421     0.562   7.31   0
       110    288.1080    682.9471 307.8123191  +6.3918488     1769.677      6063.97     9851.762     94.37495     188.4501     377.2751      3.464    10.19     1292.759     66.46783     205.8939        64     2.372     2.145  55.07   0
       111    693.3875    682.0070 307.6434330  +6.4058309     2101.213     4552.624     6975.679     94.07487      188.375     376.9752      3.048    10.59     1285.718     66.46783      239.884        39     2.808     1.288 -89.62   2
       112    697.0148    682.3925 307.6419083  +6.4057935      1655.53     3465.843     4686.805     94.07487        188.3     376.9001      2.571     7.63     1285.662     66.46783     190.3749        20     1.673     0.974 -89.90   3
       113    765.4960    670.3654 307.6137649  +6.4130405     1374.568     3727.332     5877.812     94.67409     188.4501     377.2376      3.411    10.17     1284.178     66.46783     164.4585        31     2.348     1.343  84.89   2
       114    970.2141    667.5667 307.5285280  +6.4210349     1011.021     2411.163     3650.219     94.07487        188.3     376.9752      2.807     7.92     1281.573     66.46783     139.8124        17     2.005     0.875 -86.34   0
       115    110.5033    662.2485 307.8870329  +6.3944018     7216.597     25124.44     38654.31     94.37496     188.5251     377.2751      3.382     9.00      1290.84     66.46783     815.1973       114     2.919     2.213  80.97   0
       116     50.9774    668.4871 307.9116326  +6.3898265     700.6409     2031.239     3523.734     94.52464      188.375     376.9752      2.697     3.53     1291.085     66.46783     102.0206         5     1.029     0.349 -44.65   2
       117    776.9721    652.1348 307.6095878  +6.4209358     1657.529     4242.784     6885.426     94.07487     188.6001     377.0127      3.339     9.63      1283.03     66.46783     181.7058        37     2.422     1.542  73.01   2
       118    754.6370    653.7008 307.6188454  +6.4195435     1154.578     2844.187     3988.171     94.52464     188.4501     377.3125      3.117     7.76     1283.191     66.46783     143.3055        20     1.868     0.903 -87.04   2
       119    612.3005    649.2008 307.6783230  +6.4166321     837.9811     1837.012     3590.659     93.92448     188.1497     376.7126      3.049     5.70     1286.185     66.46783     116.9366        10     1.279     0.715  75.93   2
       120   1016.4612    646.9722 307.5099344  +6.4310639     3587.098     9269.426     11567.61     94.07487      188.675     377.0127      2.726     6.92      1279.43     66.46783     423.7991        57     2.323     1.598  85.88  16
       121    607.7951    650.2278 307.6801667  +6.4160580     818.0529     2094.348     3400.173     93.92448      188.375     376.8626      3.495     5.69     1286.409     66.46783     92.87646         8     1.380     0.662  65.21   0
       122    175.2737    641.0814 307.8607463  +6.4053030     6581.663     22779.08     35771.19      94.8233     188.9745     377.1626      3.416     9.07     1289.986     66.46783     738.3796       112     2.942     2.215  79.83   0
       123    460.6745    642.8436 307.7417338  +6.4141674     834.9044     2051.227     3836.092     94.37495      188.675     377.1251      3.912     6.54     1288.953     66.46783     96.71716        10     1.415     0.849 -36.25   0
       124   1011.4343    629.8907 307.5125965  +6.4379342     3178.096      8555.95      12137.9     94.67409     188.4501     377.0876      3.076     7.70     1277.809     66.46783     345.0511        63     2.504     1.711  88.04  16
       125    603.6777    625.8854 307.6826939  +6.4259496     14456.16     34128.65     47351.89     94.52464     188.9745     377.2001      2.771     8.50     1284.594     66.46783     1412.683        81     3.017     1.413  84.14   3
       126    607.4093    625.1543 307.6811628  +6.4263758     11662.42     23382.32     29344.22     93.92448     188.4501     376.7126      2.366     7.36     1284.363     66.46783      1312.36        56     2.828     0.996  83.60   3
       127    210.8607    621.5647 307.8465669  +6.4145414     688.3864     1510.261     2570.312     94.52464     188.6001     377.0501      3.542     6.37     1289.117     66.46783     108.1343         7     1.366     0.834 -89.49   0
       128    504.5994    609.2930 307.7245446  +6.4294644     15541.44     33852.01     44841.39     93.92448     188.0746     376.7126      2.584     7.94     1286.599     66.46783     1710.665        62     3.013     1.104  85.25   3
       129    500.7473    609.5007 307.7261433  +6.4292496     17525.48      43124.5     60105.31     94.37496     188.6001       377.35      2.810     9.23     1286.657     66.46783     1633.564        80     3.008     1.397  84.21   3
       130    772.7285    595.8094 307.6132300  +6.4440012     1174.148     2435.993      3273.75     93.92448     188.1497     376.8626      2.530     8.93      1279.43     66.46783     146.6868        17     2.049     1.086 -12.46   3
       131    772.9457    591.9534 307.6132677  +6.4455973     1709.839     3667.367     5452.475     94.52464     188.6001     377.1251      2.738     7.04     1279.152     66.46783       190.52        25     1.646     1.219 -62.01   3
       132    776.5216    591.5536 307.6117905  +6.4458816     1245.452     2332.612     3279.516     94.52464      188.675     377.0501      2.171     4.46     1279.145     66.46783     175.7422        11     1.246     0.706  83.81   3
       133    827.7505    587.8250 307.5905602  +6.4491311      4504.79     14399.38      20394.5     94.07487      188.675     376.9752      3.124     8.47     1278.535     66.46783     509.3492        84     2.672     1.938  87.37   0
       134    649.5737    584.0884 307.6649555  +6.4447083     571.7085      1500.72     3010.251     94.67409        188.3     376.9377      2.464     3.41     1279.881     66.46783      97.7113         5     1.458     0.231 -72.30   2
       135    651.4604    586.5104 307.6640884  +6.4437736     895.1722     2382.141     3453.204     94.37496     188.7499     377.1251      2.957     3.04     1280.158     66.46783      142.646         5     0.742     0.445 -22.20   3
       136    904.4637    571.2015 307.5591350  +6.4585441     1139.355     3174.825     3863.744     93.77384        188.3     376.8251      2.811     9.91     1275.962     66.46783     152.4675        25     1.850     1.662 -58.19   2
       137    288.8010    564.6089 307.8159853  +6.4406285     1959.783     4791.355     7360.553     93.77384     188.2249     376.8251      2.905     9.71       1284.9     66.46783     215.1477        41     2.720     1.184 -82.35   3
       138    292.8203    563.8204 307.8143363  +6.4410885     2053.796     4569.742     6941.951     94.22504     188.5251     377.0127      2.927    10.08     1284.704     66.46783     240.3407        35     2.772     1.022 -86.56   3
       139    843.1519    559.7686 307.5850728  +6.4612059     50796.55     161330.4     235775.1     94.22504     188.6001     376.9752      3.192     8.13     1276.689     66.46783     5857.169       175     2.909     2.186  89.77   0
       140    225.1346    558.6843 307.8427206  +6.4409286     15002.61     54421.57     87903.12     94.67409     188.8997     377.1626      3.520     9.12     1285.302     66.46783     1754.957       149     3.041     2.383  82.33   0
       141    149.1867    555.0542 307.8744982  +6.4398686     1646.283      5800.66     8759.152     93.77383     188.5251     376.7876      3.319    11.27     1285.698     66.46783      213.678        63     2.611     1.941  81.33   0
       142      5.0646    559.4232 307.9344228  +6.4332135     1224.214     3150.061     5525.416     94.07487     188.6001     345.9598      3.852    13.23     1286.134     66.46783     158.2788        27     2.974     1.637  56.81  18
       143    878.6596    547.4713 307.5706799  +6.4674594     1451.391     4293.777      6326.31     94.67409     188.6001     377.1626      3.203    10.56     1275.412     66.46783      179.745        37     2.463     1.460  77.29   2
       144    400.5746    545.2747 307.7700410  +6.4523497     4463.904      9636.18     13350.01     94.07488      188.375     377.0501      2.647     8.79     1280.758     66.46783     499.2463        48     2.994     1.063 -85.54   3
       145    396.5678    545.5883 307.7717007  +6.4520860     4328.521     10583.24     15631.37     93.92448        188.3     376.9752      2.929     9.50     1280.909     66.46783     413.0712        59     2.995     1.250  88.27   3
       146    562.5899    540.3032 307.7026726  +6.4598339     1679.001     3399.455     5126.649     94.22504     188.1497     376.8626      2.560     9.87     1278.926     66.46783     199.6997        34     2.576     1.055 -89.63   3
       147    566.5611    539.5695 307.7010417  +6.4602693     1626.186     3634.339     5018.495     94.07488        188.3     376.9001      2.634    10.19     1278.702     66.46783      211.749        33     2.766     1.048 -84.61   3
       148    832.3398    541.0223 307.5902031  +6.4685684      1788.69     4000.903     5492.396     94.07487     188.5251     377.0127      2.836     9.53     1275.467     66.46783     212.0704        35     2.454     1.135  80.65   2
       149    835.7323    539.5191 307.5888388  +6.4693011      1425.22     2619.267     3949.244     94.67409     188.8997     377.1251      2.250     7.22      1275.37     66.46783     159.1035        18     1.694     0.862  86.31   3
       150    213.8709    533.8445 307.8482464  +6.4507839     1734.487      3855.64      5763.41     94.37495     188.6001     377.0876      2.801     9.29     1283.517     66.46783     222.9548        34     2.686     1.255  87.37   3
       151    210.0135    532.8140 307.8498887  +6.4510786     1695.377     4164.756      5836.43     94.37495     188.2249     377.0127      2.937     9.14     1283.518     66.46783     183.1542        31     2.112     1.238 -87.52   3
       152    306.9933    530.2852 307.8095494  +6.4553817      20519.9     77093.74     129107.6     94.07487     188.2249     376.8626      3.577     9.67     1281.483     66.46783     2327.976       154     3.149     2.387  84.88   0
       153     85.7831    533.3862 307.9016512  +6.4466608     1324.218      2722.96     4453.197     94.22504     188.2249     377.0127      2.898     8.10     1284.866     66.46783     177.8176        21     2.354     0.779  88.83   3
       154     81.4965    533.0076 307.9034506  +6.4466723     1347.441     3157.665      5395.61     94.22504     188.1497     376.8251      4.034    11.95     1284.887     66.46783     149.0905        32     2.802     1.420  82.97   2
       155    607.3030    535.3068 307.6842007  +6.4633911     810.2254     2167.417     3827.531     94.52464     189.2735     377.0127      3.439     6.04     1276.277     66.46783      124.637         7     1.281     0.801 -15.66   2
       156    829.8601    522.1841 307.5918630  +6.4762472     5076.772     15702.15     23540.42     93.92448     188.5251     376.7876      3.218     8.15     1273.838     66.46783     586.0909        94     2.857     1.961  85.08   0
       157    533.6389    520.8752 307.7153885  +6.4668678     11573.46     39282.77     66007.05     94.37495     188.6001     377.1251      3.610     8.93     1278.447     66.46783     1135.886       144     3.039     2.430  85.52   0
       158    692.1760    516.1873 307.6494578  +6.4741115     845.0518      2131.11     3762.274     94.22504      188.375     377.0127      3.975     5.75     1274.475     66.46783      92.8833         9     1.110     0.838 -16.74   2
       159    178.0653    508.7966 307.8640092  +6.4598989     6111.065     22971.42     37965.09     93.62296        188.3     376.8251      3.536     9.43     1282.856     66.46783     700.2197       118     3.016     2.324  83.71   0
       160    362.9651    510.5628 307.7868772  +6.4653883     1023.943     3729.416     5619.187     94.22504      188.375     376.8251      3.308    10.51     1278.825     66.46783     139.6733        23     1.968     1.564  -1.53   2
       161   1003.2000    502.5731 307.5202541  +6.4901177     1939.052     5278.051     6506.248     93.92448     188.1497     376.8626      2.802     8.70     1271.009     66.46783     235.7714        42     2.155     1.611 -87.78   0
       162    144.0524    506.2021 307.8782735  +6.4598229     734.9191     2309.565     3922.302     93.77383        188.3     376.5999      3.379     9.01     1283.644     66.46783     100.2084        15     2.320     0.977 -14.90   0
       163     42.4775    493.2861 307.9210452  +6.4617229      6673.97     24088.59     38201.38     94.52464     188.9745     377.2001      3.484     9.43     1284.285     66.46783     852.6107       114     3.016     2.232  83.09   0
       164    477.4226    489.6861 307.7398627  +6.4778325     10233.17     21313.65     28697.28     94.52464      188.375     376.9001      2.624     9.05     1276.782     66.46783     1035.094        63     2.982     1.130 -89.05   3
       165    473.0183    489.7425 307.7416968  +6.4776614     10893.03     26197.23     37351.95     94.07487     188.5251     376.7876      2.884     9.59     1276.813     66.46783      1103.18        77     3.221     1.312  87.62   3
       166    681.3779    489.2425 307.6548563  +6.4848517     3803.716      9183.34     13678.04     94.07488     188.4501     376.9001      2.994     9.09     1273.232     66.46783     387.3396        63     2.960     1.499  78.85   3
       167    685.4003    488.7725 307.6531951  +6.4851801     2698.588     5161.276     7008.325     94.07488     188.2249     376.8626      2.351     7.56     1273.208     66.46783     330.0068        26     2.255     0.809  85.76   3
       168     25.0528    487.5465 307.9285006  +6.4635003     50919.86     181439.1     289630.3      94.8233     188.4501     377.1251      3.466     9.15     1284.407     66.46783     6168.517       195     3.126     2.364  84.36   0
       169    242.3264    487.5245 307.8379345  +6.4708252     5277.052     12163.03     17821.38      94.8233     188.8997     377.1626      2.826     9.83     1278.252     66.46783     575.1927        57     2.936     1.271 -83.28   3
       170    238.4219    487.2829 307.8395701  +6.4707934      4755.31     12148.24     18259.41     94.22504     188.2249     376.9377      3.139     9.33     1278.216     66.46783     471.8878        57     3.076     1.251 -87.17   3
       171    977.2148    482.3474 307.5317582  +6.4975839     1588.661     3556.951     5562.232     93.77384     188.5251     376.7501      3.267    12.27       1269.8     66.46783     222.5972        36     2.853     1.469  85.43   2
       172    980.6679    483.3144 307.5302865  +6.4973007     1123.185     2370.983     3581.495     94.67409     188.8997     377.1251      2.910     6.32     1269.859     66.46783     139.6565        12     1.479     0.759  75.14   3
       173    649.9587    481.5281 307.6682108  +6.4869780     1656.037      4255.53     6771.667     94.37495     188.6001     377.1626      3.006    11.50     1273.442     66.46783     155.7943        44     2.784     1.324  85.64   3
       174    654.0626    480.4607 307.6665356  +6.4875552     1329.713     3036.433     4109.715     94.52464     188.6001     377.1251      2.591     8.36      1273.25     66.46783     203.4786        22     2.527     0.772  83.13   3
       175    603.7428    486.0894 307.6873247  +6.4835503     821.3466     2176.181     3370.604     94.37495     188.5251     377.2376      2.888     4.68     1274.525     66.46783     108.0287         7     0.993     0.626   2.43   0
       176    563.8024    473.0009 307.7044108  +6.4876042     1866.611     6533.292     10101.89     93.77383     188.0746     376.7126      3.369    11.92       1274.1     66.46783      216.267        68     2.598     2.069  81.81   0
       177   1000.8862    475.0123 307.5221334  +6.5013963     1270.407     3614.106     4130.481     94.07487        188.3     376.9001      2.609     8.63     1269.141     66.46783     165.5311        30     1.809     1.584 -62.61   0
       178    412.3738    473.9882 307.7675027  +6.4821168     821.7996     1644.606     2838.843     94.07487      188.375     377.0127      3.338     5.31     1275.932     66.46783     122.4677         7     1.179     0.676  59.89   0
       179    919.1938    468.9647 307.5563907  +6.5011603     1045.165     2361.354     4087.608     93.62296        188.3     376.8251      3.531     7.26     1268.728     66.46783      135.851        17     1.738     0.850  81.68   2
       180    922.5968    468.5807 307.5549848  +6.5014322     977.5864     2216.463     4687.806     94.07488     188.0746     376.8626      3.409     5.30     1268.685     66.46783     125.2699         9     1.198     0.662  81.51   3
       181    925.9540    462.3708 307.5537915  +6.5041030     789.8132     1862.074     3897.809     93.92448      188.675     376.9377      4.135     5.70     1268.011     66.46783     125.6001         8     1.442     0.636 -88.08   0
       182    751.0900    459.1991 307.6267951  +6.4995638     925.9193     2678.035     3746.592     93.62296     187.9994     376.7876      3.300     8.08     1270.372     66.46783     114.5347        15     1.766     1.033 -40.53   0
       183    424.6304    456.6526 307.7629722  +6.4896708     1016.231     2752.328     5409.045     94.37496     188.7499     377.0127      4.799     9.44     1273.963     66.46783     119.8737        18     2.127     1.170  57.06   2
       184    648.7294    453.8122 307.6696465  +6.4983562     2665.531     6465.187     9221.847     93.92448        188.3     376.9001      2.884    10.08     1271.638     66.46783     274.3734        52     2.915     1.254 -88.77   3
       185    652.5858    453.4646 307.6680505  +6.4986287     2299.265     5193.329     6886.861     93.92448     188.4501     376.9752      2.618     9.68     1271.524     66.46783     270.6106        34     2.586     1.012 -89.92   3
       186    811.6439    450.4522 307.6018421  +6.5051933     5145.026     11755.33     16277.12     94.52464     188.6001     377.1251      2.768     8.60     1268.425     66.46783     529.6741        62     2.950     1.549  89.20   3
       187    815.2930    449.7877 307.6003429  +6.5055891     3803.706     7959.975     10997.76     94.22504        188.3     376.8626      2.658     7.66      1268.41     66.46783     502.9482        40     2.722     0.964  86.48   3
       188    335.6314    451.3999 307.8002479  +6.4888456     646.2918     1514.777     3135.437     93.62296      188.375     376.8626      2.848     5.07     1273.885     66.46783     93.13562         6     1.523     0.478  87.28   0
       189    152.6330    441.8811 307.8768500  +6.4866122     1163.511     2996.325     6069.238     94.37495     188.5251     377.0876      3.634    10.63     1279.255     66.46783     161.7676        26     2.256     1.397 -61.20   2
       190    385.2497    438.5470 307.7799932  +6.4958081     780.0928     2289.805     4271.488     94.67409     188.4501     377.1251      3.766     6.48     1272.386     66.46783     102.5243        10     1.652     0.714  84.84   0
       191    749.8440    422.1192 307.6285485  +6.5147997     4409.528     9934.164     15305.61     94.52464     188.6001     377.0501      2.984     9.67     1267.589     66.46783     487.2415        57     3.073     1.213  79.92   3
       192    753.6641    421.4909 307.6269768  +6.5151864     3689.372     7767.869     10262.02     94.52464     188.8248     377.1626      2.490     6.98     1267.438     66.46783     403.6639        39     2.479     0.944  82.20   3
       193    852.6730    423.6205 307.5856296  +6.5176203     690.4224     1752.672     2464.679     94.07488     188.5251     377.0127      3.094     6.29      1266.61     66.46783     98.92554         8     1.741     0.638  85.44   0
       194    646.3069    413.0370 307.6720147  +6.5150752     4552.589     11511.84     20343.27     94.67409     188.4501     377.1626      3.657     9.02     1268.692     66.46783     495.1857        81     3.270     1.793  83.74   3
       195    642.3654    412.9712 307.6736601  +6.5149703     4206.804     10206.91     14067.43     93.92448        188.3     376.8626      2.786     8.86     1268.694     66.46783     411.8059        53     2.752     1.247  88.58   3
       196    671.8964    418.1911 307.6611750  +6.5138087     763.7493     1960.281     3246.487     94.22504     188.1497     376.8626      3.119     6.80     1269.249     66.46783     118.3773         9     1.593     0.813 -14.40   0
       197    976.0394    412.2111 307.5345768  +6.5264426     1267.117     3598.359     5402.687     93.77383      188.375     376.7876      3.045     7.79     1263.064     66.46783     171.8679        17     1.831     0.969 -86.87   2
       198    418.5039    407.9931 307.7671507  +6.5095133      6704.28     14626.49      20665.3     94.22504     188.1497     376.8626      2.770     9.00     1268.753     66.46783     703.8785        61     3.118     1.217  88.76   3
       199    413.9955    408.5177 307.7690127  +6.5091458      7025.86     17505.92      25760.8     93.92448     188.1497     376.7501      2.952     9.52     1268.909     66.46783     728.4287        70     3.075     1.365  85.52   3
       200    164.1937    409.1795 307.8731256  +6.5004746     636.2586      1353.28     2261.119     94.07487        188.3     376.8626      2.980     4.43     1276.108     66.46783     92.49084         5     0.802     0.698 -39.69   0
       201    945.4641    402.1326 307.5476586  +6.5295742     1542.539     5111.547     7317.867     94.52464     188.6001     377.1626      3.166    10.96     1262.592     66.46783     203.9192        49     2.330     1.687  89.11   0
       202    276.1964    398.8480 307.8267810  +6.5084995     3363.138     7453.061     12878.53     93.77383        188.3     376.6375      4.142    10.67     1269.978     66.46783     406.6924        62     3.478     1.717  88.87   3
       203    271.6843    398.8104 307.8286632  +6.5083633     3218.462     7895.169     10973.04     94.07487        188.3     376.9001      2.811     9.12     1270.155     66.46783      332.802        44     2.442     1.264 -88.48   3
       204    172.3733    388.0983 307.8704214  +6.5094354      1212.89     2975.251      5779.73     94.67409        188.3     377.0501      3.567    10.59     1274.452     66.46783     137.6094        28     2.649     1.180  68.12   2
       205    176.1032    387.1381 307.8688987  +6.5099566     1295.131     2824.265      4550.13     94.22504      188.675     377.1626      2.503     6.99     1274.202     66.46783     176.3051        17     2.042     0.671  76.61   3
       206     10.3834    379.9225 307.9382231  +6.5073466      688.653     1504.911     3330.639     93.92448        188.3     376.9377      4.189     5.12     1281.278     66.46783     113.1482         5     1.013     0.731  26.07   0
       207    475.5536    371.2570 307.7445937  +6.5265640     1784.135     3697.569     5846.522     94.52464     188.6001     377.2376      2.544     8.31     1264.715     66.46783     213.1963        26     2.408     0.801  88.70   3
       208    471.6329    371.1518 307.7462318  +6.5264758     1952.488     4968.922     8054.126     94.22504     188.6001     377.0127      3.468    10.57     1264.769     66.46783      211.501        46     2.776     1.313  83.53   3
       209     71.8178    374.2961 307.9128020  +6.5117353     903.7211     2083.972     3426.393     94.37495      188.375     376.8626      3.011     9.16      1279.18     66.46783     153.2371        16     1.941     1.206 -38.13   2
       210     71.6332    370.2961 307.9130129  +6.5133771     740.9364     1585.376     2677.973     94.67409     188.4501     377.2376      2.238     4.03     1279.099     66.46783     103.5228         5     0.955     0.485  38.32   3
       211    812.5869    369.1609 307.6041526  +6.5387186     3923.264     9660.823     15123.74     93.92448      188.375     376.8251      2.955     9.06     1262.196     66.46783     393.8182        60     2.883     1.402  84.32   3
       212    815.7708    367.8098 307.6028701  +6.5393817     2928.439     5721.813      7872.44     93.92448      188.375     376.9001      2.237     6.78      1262.09     66.46783     355.1287        27     2.144     0.858  78.71   3
       213    878.9479    351.3575 307.5770774  +6.5482725     10112.03     33165.04     49766.77     94.52464      188.675     377.1251      3.268     8.47     1260.106     66.46783     1189.667       115     2.942     2.061  86.69   0
       214    524.4924    355.8014 307.7247069  +6.5345739     670.1436     1664.504     3220.656     93.77384     188.1497     376.7876      2.596     3.05     1262.235     66.46783     134.5896         5     0.748     0.455  69.65   3
       215    519.5823    354.7972 307.7267874  +6.5348229     962.4493     2367.472     4668.571     94.07487     188.0746     376.8251      3.833     7.05     1262.209     66.46783     119.8928        13     1.511     0.922  14.56   3
       216    648.7173    342.9386 307.6733452  +6.5440377     658.3235     1681.182     3494.727     94.67409     188.6001     377.0501      3.185     6.93     1260.287     66.46783     99.87537        11     1.992     0.676 -74.42   0
       217    733.8201    337.6068 307.6380418  +6.5490842     23377.64     55665.41     78940.47     94.07487        188.3     376.8626      2.851     9.11     1259.957     66.46783     2400.781        87     3.143     1.327  80.01   3
       218    737.5806    337.2480 307.6364860  +6.5493579     18623.73      40832.7      52462.6     93.92448     188.6001     376.8626      2.543     7.31     1259.903     66.46783     1933.875        62     2.776     1.120  84.56   3
       219    652.9450    342.9010 307.6715838  +6.5441948     856.0154     1902.272     3709.287     94.37495     188.6001     377.3875      3.374     5.98     1260.262     66.46783     118.5176        10     1.475     0.682 -74.57   0
       220    137.5712    333.1979 307.8867677  +6.5308827     1754.644     3626.169     6187.117     93.92448        188.3     376.8626      3.217    12.29     1274.327     66.46783     208.7704        35     2.922     1.574 -76.66   3
       221    134.2363    333.2301 307.8881568  +6.5307571     1380.066     3859.048     6084.672     94.07487        188.3     376.9001      3.316    10.74     1274.641     66.46783      150.511        28     2.464     1.304  86.54   3
       222    579.4565    331.2031 307.7026122  +6.5465518     1874.232     4684.162     7590.918     93.77384      188.375     376.7126      3.445    11.16     1259.499     66.46783     233.1854        43     2.623     1.323  86.48   2
       223    583.6909    330.2442 307.7008787  +6.5470888      1769.73     3886.177     5773.397     94.52464     188.5251     377.2376      2.687     7.37     1259.409     66.46783     216.4888        27     2.151     0.979  87.07   3
       224    596.4487    334.8307 307.6954069  +6.5456268     696.1536     1809.843     2484.292     94.07487     188.6001     376.9752      2.286     3.69     1259.839     66.46783     97.12512         5     1.064     0.367   4.38   1
       225    446.6112    325.5152 307.7581867  +6.5444387     6024.725     13261.29     18060.95     94.07488        188.3     376.9001      2.734    10.49     1261.853     66.46783     683.1395        48     3.055     1.056 -88.02   3
       226    442.3875    325.9971 307.7599315  +6.5440984     6416.982     16901.79     25146.02     94.07487     188.2249     376.9377      3.048    10.05     1262.033     66.46783     606.4503        72     3.068     1.460  87.05   3
       227    312.1022    327.2440 307.8142063  +6.5392079     751.1895     1810.958     3459.307     94.52464     188.5251       377.35      3.972     7.26     1265.084     66.46783     124.6434        12     1.768     0.835 -84.44   2
       228    535.6260    315.6340 307.7214050  +6.5514968     2051.843     4579.897     7498.973     93.77384      188.375     376.8251      3.165    11.18     1258.448     66.46783     233.3633        41     3.084     1.128 -87.08   3
       229    531.2238    316.2237 307.7232206  +6.5511062     2199.774     5202.521       8679.2     93.92448      188.375     377.0127      3.168    10.30      1258.57     66.46783     255.6965        50     3.070     1.230  85.66   3
       230    801.2820    315.7704 307.6106418  +6.5603384     1001.579     2352.453     4341.405     94.37496      188.375     377.0501      3.530     6.61     1258.537     66.46783     136.6797        13     1.548     0.791  89.64   2
       231    805.0311    315.6758 307.6090819  +6.5605028     762.8088     1690.813     3594.613     94.37495      188.675     377.0501      2.337     3.43     1258.519     66.46783     112.4719         5     0.842     0.404  21.76   3
       232    425.2789    299.7139 307.7679418  +6.5543529     1816.924     4592.988     8504.407     94.37496     188.9745     377.2001      3.663    15.39     1261.545     66.46783     215.9554        59     3.199     2.268 -84.95   2
       233    421.2934    300.3307 307.7695829  +6.5539650     1785.929     3611.708     5579.695     94.37496     188.7499     377.0876      2.742     6.44     1261.765     66.46783     207.2058        19     1.585     0.994 -71.95   3
       234    790.8476    295.9127 307.6156530  +6.5681712     15146.53     51074.18     79273.89     94.52464     188.4501     377.1251      3.374     8.82     1257.236     66.46783     1680.248       134     2.982     2.211  86.25   0
       235    965.5013    291.8223 307.5429684  +6.5756937     880.2311     2069.496     2445.258     94.37496        188.3     376.8251      3.017     7.83     1255.718     66.46783      107.093        13     1.530     1.121  84.48   0
       236    791.6008    281.2119 307.6158281  +6.5742533     1403.671     3013.863     5278.457     94.07488     188.2249     376.8626      3.184     8.49     1256.312     66.46783     148.0254        24     2.314     0.870 -88.18   3
       237    787.6801    279.9575 307.6175045  +6.5746390      1692.11     4147.223     6236.922     94.52464     188.6001     377.0501      3.217    10.96     1256.253     66.46783     211.5481        38     2.939     1.139  83.65   3
       238    228.6985    282.5830 307.8504712  +6.5548035     674.7162     1227.767     2653.708     94.52464      188.375     376.8251      2.150     3.85     1266.339     66.46783     112.9119         6     0.927     0.459  88.84   0
       239    806.9461    277.0872 307.6095671  +6.5764661     774.3672     2269.355     3522.973     94.52464     188.4501     377.2751      3.556     7.66     1256.066     66.46783     107.4633        10     1.936     0.848  48.32   0
       240    287.1198    265.1749 307.8266969  +6.5639408     1424.167     3082.902     5104.685     94.22504      188.375     377.0501      2.783     7.52     1264.917     66.46783       159.58        20     1.808     0.876  88.16   3
       241    282.5611    265.5979 307.8285834  +6.5636132     1407.969     3480.578     5502.485     93.47183        188.3     376.7501      3.283    10.49     1265.079     66.46783     160.8705        34     2.357     1.302 -85.08   2
       242     15.1821    258.4299 307.9402961  +6.5575627     16698.58     61463.33     101366.5     94.07487      188.375     377.0127      3.557     9.46       1282.2     66.46783     1882.526       154     3.126     2.372  84.79  16
       243    187.0226    253.2745 307.8688273  +6.5654761     636.8925     1457.899      1599.92     94.07487     188.4501     377.0127      2.752     4.71     1271.109     66.46783      102.222         6     1.122     0.561  80.55   0
       244    759.9913    244.8706 307.6302170  +6.5881690     1549.244         3313     5744.027     93.92448     188.1497     376.9377      3.118    10.54     1254.203     66.46783     168.8767        31     2.880     1.076  70.18   2
       245    763.2173    244.3788 307.6288882  +6.5884796     1236.799     3339.479     5254.287     94.22504     188.4501     376.9752      3.278     8.83     1254.144     66.46783     141.7886        19     1.977     1.101  83.10   3
       246    493.4805    220.5661 307.7421488  +6.5892519     5878.176      15073.9     22553.08     94.37496      188.675     377.1251      3.035     9.63     1250.421     66.46783     584.7217        72     3.112     1.422  84.87   3
       247    497.6613    219.7224 307.7404337  +6.5897398     5461.504     12262.41     17714.56      94.8233      188.675     377.0501      2.758    10.44     1250.402     66.46783     571.3644        52     3.119     1.087 -89.26   3
       248    819.7681    219.5367 307.6061354  +6.6006068     4223.765     10295.67     14779.23     94.22504      188.675     377.0501      2.892     8.91     1252.672     66.46783     410.2147        61     3.010     1.267  78.82   3
       249    823.3085    218.7777 307.6046845  +6.6010379      3031.85     6332.309     8993.729     94.52464      188.375     376.9001      2.556     8.16     1252.602     66.46783     380.5524        34     2.597     0.850  82.85   3
       250     23.7246    207.0817 307.9384564  +6.5790058     1389.588     2841.541     5252.554      94.8233     188.8997     377.1626      3.033     6.31       1282.5     66.46783     198.7809        16     1.770     0.792  89.16   3
       251     19.7350    207.0009 307.9401225  +6.5789046     1220.286     3210.046     6105.766     93.62296     188.2249     376.7876      4.076    10.09     1282.741     66.46783     155.7483        30     2.559     1.110 -82.60   2
       252    617.8956    207.3882 307.6907131  +6.5988537     1126.208      3051.21     5507.647     94.22504        188.3     376.8251      3.514     7.77     1251.022     66.46783     142.6672        19     1.658     1.019  67.45   2
       253    621.4579    206.5590 307.6892554  +6.5993147     1112.621     2506.733     4905.774     94.52464     188.6001     377.1626      3.639     3.66     1251.055     66.46783     142.6562         9     1.147     0.686  50.13   3
       254    926.2089    202.1216 307.5623319  +6.6113400     3627.246     11013.28     17025.38     94.07487     187.9994     376.9001      3.328     8.73     1250.681     66.46783     495.8013        85     2.826     1.981  83.06   0
       255     52.8068    199.5753 307.9265831  +6.5830789      6187.11     23285.76        38454     93.92448     188.4501     376.9001      3.606     9.92     1280.913     66.46783     815.3396       122     3.120     2.287  85.15   0
       256   1012.7018    199.8136 307.5263430  +6.6151791     3644.363     10497.55     14952.86     94.37495        188.3     376.7876      3.102     7.83       1248.3     66.46783     422.6377        70     2.594     1.745  84.03  16
       257    978.2773    203.6534 307.5405697  +6.6124478     907.5995     1911.799     3226.295     94.67409     188.6001     377.1251      2.414     3.75      1249.38     66.46783     143.1835         7     0.880     0.655  20.78   3
       258    981.4122    202.4643 307.5393020  +6.6130424     781.7979     1814.937     3144.435     93.92448      188.375     376.8626      2.989     3.96      1249.22     66.46783     99.19543         5     1.077     0.417  74.74   2
       259    724.3613    204.3526 307.6464221  +6.6036705     686.1362     1882.105     3733.593     94.37496     188.6001     376.8626      3.030     4.12     1251.777     66.46783     99.93005         5     1.254     0.386  37.82   0
       260    726.3078    199.7115 307.6457650  +6.6056479     741.3319     1848.296     4086.826     94.52464     189.1241     377.2001      4.148     5.00     1251.574     66.46783     126.9437         6     0.959     0.739  70.50   0
       261    774.7214    188.2477 307.6259597  +6.6119915      12117.2     27459.15     39626.32     94.52464      188.675     377.0127      2.839     9.34     1250.943     66.46783     1314.248        76     3.149     1.356  79.45   3
       262    778.6710    187.5165 307.6243371  +6.6124249     9402.817     20206.11     25605.95      94.8233     188.8997     377.1251      2.455     7.29     1250.943     66.46783       996.02        49     2.588     1.029  82.92   3
       263    863.3226    192.5142 307.5888733  +6.6131968     746.2353     1774.173     2984.034     94.52464     188.9745     377.2001      2.544     4.42     1250.854     66.46783     109.7482         7     1.396     0.399 -79.48   0
       264    543.0314    190.1740 307.7225025  +6.6034361     792.7431     2312.586      4616.78     93.92448        188.3     376.9001      3.813     8.12     1249.627     66.46783     124.3761        12     1.874     0.984  49.06   0
       265    381.2610    190.4512 307.7899441  +6.5978915     1785.828     3634.711     4773.702     94.52464     188.5251     377.0876      2.388     6.12     1258.234     66.46783     206.9196        18     1.370     1.042 -48.45   3
       266    381.4745    186.9824 307.7899710  +6.5993278     1518.957     3729.145     5601.271     93.92448        188.3     376.9752      3.226     7.36     1258.098     66.46783     199.4491        18     1.736     0.875 -53.01   3
       267    377.6823    187.8926 307.7915217  +6.5988254     1666.567      4215.82       6681.1     94.22504     188.9745     377.2001      2.966    10.05     1258.421     66.46783     167.4012        33     2.469     1.142 -82.35   3
       268    490.0895    184.2451 307.7447749  +6.6041026     1105.538     2650.459     5152.941     94.52464     188.4501     377.2376      3.836    10.16     1249.942     66.46783     148.6417        16     2.337     1.233  79.11   2
       269    485.2290    184.0518 307.7468080  +6.6040192     1148.586      2946.59     4881.947     94.22504     188.7499     376.9752      2.906     6.89     1249.986     66.46783     142.9169        16     2.012     0.661 -89.63   2
       270   1009.1459    185.9793 307.5282851  +6.6207604     1035.057     2760.405     3972.646     93.92448     188.6001     376.8626      3.209     7.45     1248.075     66.46783     152.4821        17     1.625     1.145  82.69   2
       271    942.9415    185.3462 307.5559122  +6.6188107     2628.595     5956.263     9684.521     94.67409     188.6001     377.0876      3.085     9.50     1249.318     66.46783     278.3898        52     2.632     1.599 -87.13   2
       272    946.2856    184.9102 307.5545322  +6.6191020     1453.655      2923.95     4159.112     94.22504     189.0493     377.2376      2.402     5.63     1249.261     66.46783      231.002        11     1.605     0.557  71.17   3
       273    142.9973    175.5179 307.8897862  +6.5960293      1091.68     2884.494     5057.746     93.77383     188.1497     376.7126      3.385    11.78     1276.619     66.46783       135.21        30     2.793     1.384  77.80   2
       274    148.3622    177.3097 307.8874894  +6.5954718     894.7961     1769.393     2789.191     94.52464     188.5251     377.1251      2.361     5.37     1276.337     66.46783     146.2825         9     1.471     0.553 -28.20   3
       275    147.7949    174.0896 307.8878337  +6.5967793     1105.243     2064.561     3169.236     93.92448     188.2249     376.7501      2.081     5.07      1276.42     66.46783     175.6034        11     1.150     0.730 -64.81   3
       276    318.1828    172.5993 307.8168413  +6.6031266     8340.296     19895.34     28702.63     94.07487     188.0746     376.7126      2.889    10.50     1262.893     66.46783      966.894        73     3.179     1.411 -86.20   3
       277    313.3371    173.1268 307.8188440  +6.6027464     8055.004     19112.52     27334.11     94.67409     188.6001     377.1626      2.887     9.86      1263.25     66.46783     782.8558        64     3.137     1.193  88.26   3
       278    292.5599    173.5965 307.8274914  +6.6018542     1864.285     5311.092      10465.5     93.62296        188.3     376.7501      3.982    11.91      1264.67     66.46783     225.2875        55     2.841     1.985  60.12   2
       279    442.0978    167.8822 307.7653318  +6.6092333     12238.82     27592.05     36011.73     94.52464     189.0493     377.2001      2.626     8.97     1251.967     66.46783     1351.486        67     2.938     1.218  85.24   3
       280    437.7732    168.4826 307.7671149  +6.6088408     12518.43     31277.83     45610.64     94.37496      188.375     377.0127      2.990    10.02     1252.185     66.46783     1196.769        77     3.246     1.301  83.17   3
       281    197.9034    169.8976 307.8670818  +6.6001936     1060.762     2903.379     5799.237     94.52464     189.2735     376.9001      3.835    10.06     1274.586     66.46783     153.5178        18     2.208     1.278  68.36   2
       282    346.1588    165.9141 307.8054001  +6.6068213     4641.722     11320.68     19050.19     94.52464     188.5251     377.0876      3.341     9.23     1260.759     66.46783     499.6003        67     3.033     1.515  87.74   3
       283    341.7389    166.3049 307.8072299  +6.6065118     4389.655     10960.77     14560.47     94.37496      188.675     377.1626      2.858    10.09     1261.059     66.46783     440.5688        58     2.889     1.317  83.21   3
       284    777.2006    164.0997 307.6257296  +6.6220238     10226.85     22756.24     33204.95     93.92448     188.1497      376.675      2.798     9.13     1249.588     66.46783     1101.418        78     3.135     1.366  82.44   3
       285    781.0000    163.4878 307.6241657  +6.6224030     7865.146     16183.93     20373.06     93.62296     187.9994      376.675      2.393     7.52     1249.531     66.46783     880.9922        44     2.628     0.935  85.76   3
       286     98.3738    162.4715 307.9088285  +6.5999012     2127.811     4570.206     7614.423     94.07488     188.4501     377.0127      3.560    10.89     1279.295     66.46783     271.6453        41     3.324     1.254  83.31   3
       287     94.3702    162.1778 307.9105076  +6.5998872     2048.089     6061.503     9502.479     93.77383        188.3     376.9001      3.131    11.40     1279.512     66.46783     230.8892        49     2.696     1.368  86.62   3
       288    316.9112    139.0498 307.8184933  +6.6169063      7767.58     17986.48     24626.52     94.52464      188.375     377.2376      2.755     9.17     1265.096     66.46783     819.9794        68     3.046     1.280  87.82   3
       289    312.5543    139.0341 307.8203105  +6.6167663     7592.953     18721.02     27479.34     94.07487     188.5251     376.9377      3.020     9.87     1265.484     66.46783     726.8258        68     3.157     1.312  85.51   3
       290     60.3363    138.2128 307.9255009  +6.6086136     1267.682     4281.541     7262.933     93.92448      188.375     376.8626      3.630    11.82     1281.146     66.46783     211.9888        40     2.459     1.647 -34.32   2
       291    744.6502    135.4885 307.6402551  +6.6327227     2534.668     5894.054     8670.323     94.52464      188.375     377.2376      2.757    10.41     1248.889     66.46783     240.2965        50     2.845     1.229  80.97   3
       292    748.3199    135.3153 307.6387306  +6.6329169     1688.608     3488.345     4717.913     94.37496     188.9745     377.2001      2.376     8.01     1248.836     66.46783     202.3458        23     2.460     0.730  86.59   3
       293    159.4701    132.8571 307.8843467  +6.6141602     1318.869     2881.886     5320.172     94.67409     188.6001     377.0501      3.419     8.68     1276.224     66.46783     161.8243        23     2.173     0.969  88.35   3
       294    154.9623    132.8457 307.8862266  +6.6140130     1328.546     3086.103     5145.036     94.22504     188.5251     376.9752      3.295     8.47     1276.427     66.46783     172.3191        25     1.950     1.292 -89.91   3
       295    426.5096    129.0922 307.7731271  +6.6246916     1172.967     3456.075     5969.161     94.52464     189.1988     377.1251      3.738    11.43     1252.708     66.46783     151.7361        31     2.492     1.460 -83.58   2
       296    392.2105    126.0156 307.7875316  +6.6248071      778.935     2640.511     3501.788     94.22504        188.3     376.9377      3.015    10.11     1256.888     66.46783     118.9642        18     2.005     1.420  26.07   0
       297    707.8281    116.8019 307.6562319  +6.6391890     1125.169     2311.834      4661.58     93.92448        188.3     376.8626      3.011     6.92     1248.824     66.46783     186.7937        15     2.431     0.551 -84.57   3
       298    704.0857    115.9326 307.6578214  +6.6394219     1723.939       4537.5      6918.55     94.67409     188.8997     377.1251      3.272     9.49     1248.814     66.46783     211.8549        42     2.593     1.430  87.34   2
       299    242.1030    117.5144 307.8504059  +6.6232628      1272.72     3561.102     5329.376     94.52464     189.0493     377.1626      3.491    11.08     1274.019     66.46783     133.9332        32     2.513     1.360 -89.14   2
       300    246.4108    116.5643 307.8486415  +6.6237992     1390.321     3053.597     4476.782     93.92448      188.375     376.8251      2.858     9.67     1273.769     66.46783     161.0397        27     2.647     0.985 -88.68   3
       301    659.5936    104.1773 307.6767660  +6.6427749     15300.35     36970.87      59230.9     93.92448      188.375     376.9001      3.680     9.84     1248.372     66.46783     1527.258       153     4.859     1.765 -83.94   3
       302    663.5718    103.2994 307.6751364  +6.6432700     13224.35     28292.93     36641.87     94.52464        188.3     377.0501      2.512     8.49     1248.422     66.46783     1321.429        56     2.730     1.083  86.40   3
       303    128.2825    115.8080 307.8979216  +6.6201339     694.5645     1824.742     3708.054     94.07487     188.2249     376.9001      2.519     4.89     1277.799     66.46783     133.5016         7     1.660     0.407  34.84   0
       304    382.6415    109.1572 307.7920850  +6.6314313     919.1529     2343.462     4108.667     94.22504     188.6001     376.9377      3.289     8.71     1258.898     66.46783     118.8187        17     2.139     0.990  83.15   2
       305    387.1514    108.0909 307.7902401  +6.6320222     1074.359     2468.863     3315.175     94.52464      188.375     377.2751      2.674     7.48     1258.307     66.46783     130.4657        15     1.451     1.080  37.49   3
       306    340.8454     98.4877 307.8098696  +6.6344226     929.9484     3154.302      4786.75     94.52464     188.4501     377.0876      3.483    10.99     1265.959     66.46783     145.3335        22     2.002     1.680 -10.54   0
       307     38.1833     81.4427 307.9366410  +6.6312555     448854.1      1656747      2709000     93.92448      188.375     376.7876      3.538     9.81     1281.178     66.46783     52063.92       434     3.232     2.493  88.58   4
       308    724.5169     87.8763 307.6502361  +6.6516655     1077.756     2692.844     4530.008     94.67409     188.9745     377.2376      3.345     6.76      1248.04     66.46783     131.9949        13     1.473     0.929  52.42   2
       309    467.5874     78.7134 307.7576808  +6.6468271     1020.826     3950.917     6117.943     94.07488     188.4501     376.9377      3.392    13.42     1251.603     66.46783     142.4883        43     2.595     1.930  73.60   0
       310    939.1559     73.6841 307.5612014  +6.6646910     1644.482     4218.819     6450.086     94.52464     188.5251     377.1251      3.282     8.49     1243.199     66.46783     189.5956        35     1.934     1.610  29.38   2
       311    920.5970     76.3504 307.5688521  +6.6629724     804.4661     2007.896     3087.522     93.77384     188.2249     376.5999      2.630     6.18      1243.64     66.46783     111.2373        11     1.852     0.580  82.07   0
       312    179.5849     66.9696 307.8781661  +6.6419828     978.4445     2887.747     4852.921     94.07487        188.3     377.0127      3.890     9.82     1275.924     66.46783     130.4584        19     2.012     1.337  34.83   2
       313     60.9032     66.2222 307.9276780  +6.6382922     3384.976     12092.12     20243.81     94.52464      188.375     376.8626      3.739     9.69     1280.103     66.46783     429.6174        95     2.876     2.189  86.69   0
       314    861.2786     60.2419 307.5941246  +6.6676268     2151.803     5717.159      8940.41     94.37496     188.6001     377.0876      3.212     9.76     1243.271     66.46783     266.8966        53     2.734     1.772  80.41   2
       315    864.7932     59.4053 307.5926868  +6.6680890     1307.423     2088.695     3854.315     93.77384        188.3     376.9001      1.736     4.42     1243.201     66.46783     162.5071        10     1.076     0.670 -38.76   3
       316    805.9547     59.7913 307.6172107  +6.6659623     1143.024     2753.156     5312.601     93.92448     188.4501     376.7126      3.696     4.67     1243.742     66.46783     178.1322        11     1.141     0.750  75.61   2
       317     99.4062     59.9777 307.9118327  +6.6421627     672.7624     1747.878     3435.763     93.92448      188.375     376.9001      2.455     5.54     1278.553     66.46783        116.5         8     1.599     0.542  60.53   0
       318     45.4891     53.0694 307.9345462  +6.6431914     798.2009     1839.685     3846.095     94.52464     188.8997     377.0876      4.353     7.54     1280.506     66.46783      148.074        10     1.568     1.015  87.67   0
       319    128.9271     42.3837 307.9001128  +6.6504059     2415.563     8689.562     14487.09     93.92448     188.4501     376.9752      3.544    10.92     1277.065     66.46783     279.0316        89     2.875     2.216  78.31   0
       320    459.3241     41.8242 307.7623584  +6.6617482     765.5833     1737.066     3382.084     94.07487     188.4501     377.0501      3.088     5.33     1254.476     66.46783     118.5551         6     1.491     0.539  16.84   0
       321    928.8928   1019.9510 307.5340537  +6.2744634     656.5507     1647.081     2378.964     94.37495     188.4501     346.0415      2.369     5.08     1304.474     66.46783      106.605         7     1.647     0.442 -75.00  16
       322    573.4171     29.8132 307.7151815  +6.6705251     1293.885     2732.229     4210.614     94.22504     188.2249     376.9752      2.788     7.03     1248.389     66.46783     164.1545        17     1.753     0.873 -87.34   3
       323    251.6295   1016.9671 307.8163591  +6.2530035     782.0157     1808.509     2666.985     93.92448        188.3     375.2461      2.814     5.14     1306.174     66.46783     107.3134         9     1.588     0.470 -85.75  16
       324    753.7336   1013.6465 307.6072519  +6.2712074     3304.106     9117.705     12425.39     94.52464     188.5251     377.1251      3.079     7.62     1305.014     66.46783     322.7201        61     2.451     1.600 -89.53  16
       325    610.1996   1013.1181 307.6670791  +6.2666208     1811.889     4873.957     6861.954     93.62296     187.9994      376.675      3.041     8.73      1307.93     66.46783     204.1289        42     2.161     1.522  83.06  17
       326    468.6392   1014.1265 307.7260317  +6.2614604     1487.102     4523.943     5972.622     94.37495     188.6001     377.1626      2.907    10.00     1307.204     66.46783     169.4006        40     1.972     1.645  77.79  16
       327    993.3159   1003.3285 307.5077596  +6.2834628     3734.007     8669.498     10840.04     94.67409     188.8997     377.1251      2.573     7.15      1301.56     66.46783     381.6046        50     2.392     1.282 -89.09   0
       328    953.4959     25.4108 307.5568254  +6.6850593     853.6856     1855.937     2224.466     94.22504     188.1497     376.8251      2.618     6.95     1239.953     66.46783     124.4863         8     1.460     0.928  63.38   0
       329    287.1168     21.6424 307.8348438  +6.6642762     924.7721     2249.833     4712.486     94.52464     188.6001     377.0127      4.734     9.01     1275.316     66.46783     139.5493        13     1.653     1.370 -29.46   3
       330    752.7739   1001.7507 307.6080473  +6.2760766     1033.061     3236.796     5029.802     94.07488      188.675     376.9752      3.730    10.86     1304.505     66.46783      134.541        27     2.188     1.502 -73.07   1
       331    401.1601    999.5733 307.7546344  +6.2651924     802.4097     1713.733     2875.173     94.07487      188.375     376.8626      2.089     3.43     1306.512     66.46783     107.8833         5     0.774     0.440 -20.80   0
       332    332.5103    988.3044 307.7836156  +6.2675304     5952.274      17368.8     24361.32     94.52464     189.0493     377.0876      3.007     7.62     1306.269     66.46783     579.5802        87     2.658     1.874 -88.59   0
       333    786.5309    988.5068 307.5944208  +6.2826623      3542.77     9835.214     12489.93     94.37496     188.7499     377.0876      2.759     7.54     1303.276     66.46783     369.4166        55     2.360     1.506  89.75   0
