#   1 NUMBER                 Running object number                                     
#   2 X_IMAGE                Object position along x                                    [pixel]
#   3 Y_IMAGE                Object position along y                                    [pixel]
#   4 ALPHA_J2000            Right ascension of barycenter (J2000)                      [deg]
#   5 DELTA_J2000            Declination of barycenter (J2000)                          [deg]
#   6 FLUX_APER              Flux vector within fixed circular aperture(s)              [count]
#   9 FLUXERR_APER           RMS error vector for aperture flux(es)                     [count]
#  12 FLUX_RADIUS            Fraction-of-light radii                                    [pixel]
#  13 FWHM_IMAGE             FWHM assuming a gaussian core                              [pixel]
#  14 BACKGROUND             Background at centroid position                            [count]
#  15 THRESHOLD              Detection threshold above background                       [count]
#  16 FLUX_MAX               Peak flux above background                                 [count]
#  17 ISOAREA_IMAGE          Isophotal area above Analysis threshold                    [pixel**2]
#  18 A_IMAGE                Profile RMS along major axis                               [pixel]
#  19 B_IMAGE                Profile RMS along minor axis                               [pixel]
#  20 THETA_IMAGE            Position angle (CCW/x)                                     [deg]
#  21 FLAGS                  Extraction flags                                          
         1    177.6366     32.8032 307.8575212  +6.7023191      4010.32     11202.82     14482.05     91.62366     184.6504     369.4111      2.789     8.00       1223.5     65.15359     445.8231        62     2.246     1.897 -55.89   2
         2    283.3117     23.0867 307.8138624  +6.7098485     1103.391     2431.146     2160.661     92.36198     185.3113     369.7787      2.170     8.29     1222.446     65.15359     127.4397        18     2.035     0.944  66.73   2
         3    286.6644     21.2922 307.8125274  +6.7107005     1035.256     1838.437     1301.698     92.65566     185.0913     369.7052      1.815     7.45     1222.426     65.15359     142.4933        15     1.666     0.932  74.72   3
         4    766.6346     20.3060 307.6127640  +6.7270499     2869.117     7759.597     9302.034     92.80215      184.724     369.7419      2.632     6.48      1190.97     65.15359     301.4247        47     1.887     1.647 -63.34   0
         5    378.3125     14.6430 307.7746025  +6.7164939     1131.925     2747.868     4156.204     92.65566      184.724     369.6685      2.804     4.48     1209.288     65.15359     141.9437        10     1.053     0.899 -30.70   3
         6    381.9810     15.9706 307.7730307  +6.7160683     1526.782      3785.79     5982.202     92.21479     184.6504     369.5582      3.191     8.20     1208.813     65.15359     204.4001        24     2.003     0.938 -63.00   2
         7    868.1699     11.3560 307.5707971  +6.7341044      2068.88      5438.26     6266.302     92.21479      184.871     369.4847      2.586     9.98     1188.656     65.15359      265.016        41     2.193     1.498  85.65  19
         8    868.3306      4.8144 307.5709499  +6.7368084     1542.067     3591.203      4113.79     92.06736      184.724     335.9804      2.318     8.34     1188.386     65.15359     159.0452        26     1.845     1.263  -8.47  19
         9     49.9715     11.8664 307.9113693  +6.7066971     879.0985     1843.486      2350.42     92.36198     184.7975     369.5582      2.363     7.26     1225.114     65.15359     114.3125        12     1.321     1.117  88.62   0
        10    501.5710      7.3875 307.7235387  +6.7235850     8487.215     27888.78     33696.34     92.06737     184.5768     363.8162      2.779     7.25      1199.41     65.15359      866.382        82     2.180     2.015 -71.55  16
        11    176.3403      9.3079 307.8588552  +6.7119684     562.3642     1553.594     2311.478     92.50893     184.7975     369.7787      2.913     4.26     1222.757     65.15359     87.92188         5     1.061     0.487   3.08   2
        12    642.0074      5.4971 307.6651419  +6.7290274      831.258     2195.356     2766.942     92.36198     184.4296     344.4845      2.809     9.75     1192.664     65.15359     123.9623        13     2.469     1.073  66.65  18
        13    796.5732      1.7590 307.6009243  +6.7356931     14663.86     22741.53     23808.58     85.96326     154.1816     286.0592      1.671     5.44     1190.387     65.15359     2079.747        33     1.856     0.863  -0.50  24
        14    870.0546    983.3562 307.5373991  +6.3331623     2320.803     4038.033     4466.929     92.65565      184.871     369.6317      1.812     4.41      1254.73     65.15359     278.8889        21     1.361     1.043 -79.61   0
        15    867.1981   1023.7527 307.5372330  +6.3164019     1226.042     1504.853     1536.344     78.87623     144.9166     276.0053      1.236     3.65     1258.365     65.15359     299.0869         8     1.140     0.431   0.49  24
        16    403.1092   1023.1325 307.7302865  +6.3012710     1380.007      2295.71      1921.06     87.83904     156.1948     288.4708      1.631     5.00     1261.282     65.15359     194.7385        14     1.395     0.705 -14.13  24
        17    304.8358   1021.8348 307.7712046  +6.2985390     6904.009     12884.47     13402.35     92.36198     174.1247     310.8202      1.942     4.60     1261.008     65.15359     723.8591        39     1.540     1.395  -7.04  24
        18    224.9078   1021.1463 307.8044715  +6.2961633     4954.733     10306.97     10532.35     92.50893     181.3846     322.1936      2.106     4.94     1260.328     65.15359     505.1259        41     1.593     1.484 -53.77  24
        19      5.9065    984.3001 307.8968024  +6.3040652     810.8865     1156.484     992.5799     92.65566     185.4579     349.4955      1.590     5.98     1259.127     65.15359      115.882         8     1.314     0.766  34.55  16
        20    315.5208    980.5175 307.7681533  +6.3159397     10953.98     23328.63     26060.39     92.80215     185.1647     369.7787      2.189     5.00     1260.273     65.15359     1085.132        59     1.764     1.613 -61.68   0
        21     50.2408    981.6344 307.8784531  +6.3066438     1053.501     2032.201     2248.614     92.36198      184.871     369.4111      2.193     6.26     1259.084     65.15359     127.9231        11     1.064     1.034  37.26   0
        22    187.0822    979.0748 307.8216239  +6.3122601     921.5343     1812.165     1734.874     92.94841      185.238     369.7052      1.912     6.54     1259.191     65.15359     117.9419         9     1.243     0.965  41.71   0
        23     78.9966    971.2833 307.8668428  +6.3118728      1184.17     2374.594     2265.239     92.06736     184.4296      369.264      1.948     6.69     1258.643     65.15359     129.7139        15     1.408     1.025  -8.23   0
        24    860.3395    964.6714 307.5420667  +6.3405495     1651.375     3025.268     2827.303     92.80215      184.871     369.7052      1.889     6.21     1253.401     65.15359     225.1627        21     1.504     1.090 -50.98   0
        25     62.2044    964.8638 307.8740440  +6.3139613      1732.64     3666.537     4194.271      91.7718     184.5768     369.4111      2.200     5.67     1258.315     65.15359     208.9648        25     1.447     1.269 -34.53   0
        26    794.5029    963.8076 307.5694816  +6.3387272     2406.222     4533.605     4531.992     92.36198     184.4296     369.3376      1.933     4.76     1254.693     65.15359      273.375        30     1.579     1.214 -62.12   0
        27    830.9206    964.1097 307.5543229  +6.3398079     1622.573     2716.436     2706.018     92.36198     185.0913     369.7052      1.721     4.36     1253.955     65.15359     199.2324        19     1.285     1.032 -45.09   0
        28    530.5010    955.4830 307.6795759  +6.3334106     222176.6     474755.2     517613.7     92.65566     185.4579     369.7419      2.189     5.00     1257.844     65.15359     22576.66       161     1.946     1.722 -61.21   0
        29    374.8507    958.2126 307.7442272  +6.3271144     4955.742     11067.17     12445.23      91.9197      184.724      369.264      2.250     5.34     1259.613     65.15359     542.5713        46     1.708     1.530 -70.84   0
        30    317.9866    956.5505 307.7679357  +6.3259092     8239.882     18066.96     20282.05      91.9197     184.7975     369.3008      2.237     5.01     1259.842     65.15359     871.9553        56     1.808     1.588 -77.64   0
        31    617.9645    958.7578 307.6430846  +6.3349614     810.8265     1429.881     684.9659     92.36198      184.871     369.4479      1.498     5.68     1256.683     65.15359      121.923         9     1.333     0.682 -22.33   0
        32    636.2772    952.7904 307.6356678  +6.3380305     2377.954     4970.471     5344.993     92.21479     184.3559     369.4111      2.127     5.46     1256.013     65.15359     263.3871        31     1.618     1.303 -41.02   0
        33    868.7499    951.2872 307.5390170  +6.3463495     4405.981     7838.195      8617.89     92.65566      184.724     369.7419      1.900     4.12     1251.999     65.15359     492.8119        34     1.559     1.258 -59.78   0
        34    707.2078    948.5803 307.6063046  +6.3421183      389.549     808.0144     393.1059     92.21479     184.5768     369.4111      2.224     5.29     1254.818     65.15359     78.56018         5     1.288     0.614 -27.05   0
        35    611.0312    946.7584 307.6463719  +6.3396819     2165.692     4742.709     5163.411     92.06736      184.724     369.4111      2.138     5.48     1256.241     65.15359     247.4795        32     1.660     1.304 -81.26   0
        36   1002.0821    945.4320 307.4837502  +6.3531726     4369.037     7131.346     6734.438     92.50893      184.724     369.5582      1.701     3.99     1249.826     65.15359      569.703        31     1.559     1.061 -65.12   0
        37    799.7068    945.6975 307.5679246  +6.3463709      1350.73     2569.418     2418.209     92.65566     185.5311     369.5582      1.947     6.51     1253.631     65.15359     171.1572        19     1.383     1.114 -44.23   0
        38    926.3355    944.3544 307.5152953  +6.3511140     771.0714     1306.127     1288.043     92.65566     184.7975     369.6317      1.746     5.16     1250.454     65.15359     110.3362         7     1.234     0.609 -37.47   0
        39    603.7346    942.0255 307.6495662  +6.3413924      1422.27     3632.457     5138.121     92.21479     184.7975     369.4847      2.715     9.09     1256.132     65.15359     176.7152        29     1.954     1.181 -56.06   0
        40    887.5475    939.2874 307.5316000  +6.3519219     2723.848     4719.583     4475.197     92.65566      184.724     369.7787      1.885     4.37     1250.675     65.15359     352.3433        25     1.466     1.112 -59.31   0
        41    298.3572    939.8279 307.7766643  +6.3321551     785.1448      1364.04     827.0522     92.21479     184.9444     369.4847      1.685     4.84     1259.538     65.15359       115.21         7     1.098     0.605   1.34   0
        42    346.0174    935.3037 307.7569924  +6.3356067     1774.411      4038.84     4660.295     92.50893     184.6504     369.4111      2.333     7.74     1259.448     65.15359     190.0223        31     1.697     1.451 -21.05   0
        43    481.8971    925.3096 307.7008086  +6.3442451     1760.914     4108.009     4235.228     92.65566     185.3846     369.6317      2.326     6.08      1257.97     65.15359     218.5605        28     1.577     1.280 -69.60   0
        44    528.9034    921.2339 307.6813927  +6.3474872     3746.467     8342.837     10459.24     92.80215      184.724     369.8154      2.461     5.46     1256.837     65.15359     413.6456        44     1.793     1.497 -47.64   2
        45    826.7637    923.7684 307.5574052  +6.3563135     843.3312     1559.577      2126.81     92.21479     184.5768     369.3376      2.121     4.55     1251.456     65.15359     124.1781         7     0.945     0.623 -38.67   0
        46    546.5655    921.6888 307.6740306  +6.3478857      484.052     1029.097     1389.714     92.80215     184.7975     369.6317      1.574     3.91     1256.509     65.15359     101.9971         5     1.423     0.308 -44.53   0
        47    863.8190    919.5606 307.5421320  +6.3592755     960.7239     2216.768     2245.644     92.21479     184.6504     369.3376      2.283     5.38     1250.033     65.15359     151.7842        12     1.403     0.880  87.51   2
        48     88.7594    919.7324 307.8645241  +6.3334651     997.0984     1992.604     2039.808     92.50893     184.7975     369.7052      2.029     7.08     1256.721     65.15359     117.3647        13     1.402     1.002 -31.16   0
        49    499.5682    915.2419 307.6937969  +6.3489853     11932.89     27324.59     29915.06     92.06737      184.724     369.4479      2.282     5.35     1257.186     65.15359     1146.279        58     1.837     1.601 -49.62   0
        50    447.1990    919.1803 307.7154482  +6.3456213      751.403     1445.902     1116.079     92.21479     184.3559     369.3008      2.016     4.01     1257.824     65.15359     104.2529         5     0.989     0.466  44.56   0
        51    912.9695    913.3038 307.5218958  +6.3634824     3196.265       5538.5     6057.743     92.80215     184.5768     369.7052      1.853     4.38     1249.323     65.15359     403.7692        28     1.574     1.102 -67.11   0
        52    292.5321    903.9117 307.7802984  +6.3467784     1870.238     4558.002     4771.302     92.80215     185.0913     369.6685      2.359     7.55      1258.62     65.15359     186.9971        36     1.770     1.512 -24.42   0
        53     10.0942    905.5003 307.8977254  +6.3367128     1076.807     2149.509     2252.345     92.65565     185.4579     369.4479      2.082     7.83     1255.677     65.15359     140.2085        14     1.366     1.254 -24.77   0
        54    757.6694    899.5339 307.5869605  +6.3640243     39550.96     78419.94     83954.91     92.65566     184.9444     369.6317      2.067     4.61     1252.049     65.15359     4480.083        74     1.796     1.519 -56.81   0
        55    214.9488    897.6607 307.8127809  +6.3467749     3205.916      7710.62     10067.28     92.65565     184.7975     369.6317      2.823     6.03      1257.96     65.15359     341.0656        50     1.974     1.631 -86.39   1
        56    685.8432    893.9436 307.6170269  +6.3639511     14237.89     31138.66      34931.2     92.50893      184.871     369.6685      2.263     5.09     1252.726     65.15359     1600.537        59     1.891     1.530 -62.15   3
        57    679.6683    890.6876 307.6197049  +6.3650897     57677.14       124312     136106.1     92.80215     185.1647     369.6685      2.204     5.06     1252.685     65.15359     6210.373        88     1.883     1.640 -60.11   3
        58    882.9488    894.6586 307.5350092  +6.3701818      6773.19     12386.77     13392.41     92.65565      184.871     369.6317      1.925     4.24     1249.384     65.15359     790.4062        40     1.580     1.316 -56.82   0
        59    324.6595    891.8784 307.7673403  +6.3528114      12187.3     29409.44     32606.83     92.80215      184.871     369.5582      2.382     5.57     1258.093     65.15359     1222.637        67     1.898     1.724 -62.17   0
        60    386.4772    889.6885 307.7416999  +6.3557704     12609.08     30653.47     34410.87     92.65566      185.238     369.7052      2.394     5.83     1257.486     65.15359     1301.332        72     1.961     1.729 -66.47   0
        61    374.6292    891.7435 307.7465590  +6.3545287     935.8436     1963.938     1858.201     92.21479     184.9444     369.5214      2.102     5.78     1257.678     65.15359     119.0728        12     1.350     0.823  85.16   0
        62    923.2952    888.2222 307.5184410  +6.3741714     1637.336     2949.218     2492.137     92.65566     184.6504     369.4479      1.895     6.01     1248.875     65.15359     223.3735        21     1.599     1.158 -72.84   0
        63    214.5111    876.4362 307.8136793  +6.3555163     786193.4      2460320      2862635     92.65566     184.7975     369.6317      2.715     5.34     1257.305     65.15359     63828.13       478     2.406     2.138 -77.75   4
        64    879.8305    886.0619 307.5365946  +6.3736254     5149.107      9715.06     10474.73     92.36198     184.9444     369.5582      1.972     4.25      1249.27     65.15359     671.5007        39     1.629     1.299 -53.71   0
        65    620.4214    885.3879 307.6445288  +6.3653119     4026.797     8640.295     9289.771     92.21479     184.5768     369.4847      2.164     5.36     1253.874     65.15359      438.225        37     1.658     1.411 -62.99   0
        66    408.1989    885.2590 307.7328135  +6.3583197     741.8479      1537.75     1387.861      91.9197     184.5768      369.264      2.518     5.69       1257.1     65.15359     114.1263         7     1.459     0.626  53.95   0
        67    409.9796    882.1937 307.7321760  +6.3596435     928.3845     1706.822     1797.352     92.21479     184.5768     369.4111      1.789     3.78     1256.997     65.15359     140.0869         6     0.945     0.433  35.92   0
        68    847.8417    876.7790 307.5502131  +6.3763969     352.3733     745.2411     1116.287     92.21479     184.6504     369.4479      2.973     4.55     1249.426     65.15359     78.50757         5     1.317     0.447 -29.10   0
        69    655.2665    875.5606 307.6303640  +6.3705216     1602.964     3388.916     3539.162     92.50893     184.7975     369.7419      2.161     6.24     1252.741     65.15359     175.1635        23     1.619     1.096 -41.47   0
        70    389.4209    872.3192 307.7410606  +6.3630339     30894.29     74536.41      84326.7     92.36198     184.5032     369.5949      2.392     5.53     1256.889     65.15359     3014.081        92     1.965     1.796 -59.69   0
        71    507.1440    871.2767 307.6921252  +6.3673748     4156.643     9789.076     10743.83     92.65566      184.871     369.5949      2.309     5.48     1255.204     65.15359     429.6047        45     1.710     1.614 -41.82   0
        72    423.8420    869.8446 307.7268255  +6.3651988     2432.848     6071.006     7883.092     92.50893      184.871     369.4479      2.676    10.09     1256.521     65.15359     287.5454        46     2.173     1.691  58.63   2
        73    421.3263    862.8724 307.7281068  +6.3679915     1215.821     2782.178     3209.923     92.94841     185.0179     369.6685      2.350     8.23     1256.279     65.15359     139.4316        19     1.597     1.184 -22.90   2
        74    752.2373    867.7416 307.5902875  +6.3769606     8001.216     16424.56      16783.9     92.65566     184.9444     369.6685      2.113     4.82     1250.877     65.15359     856.9547        49     1.720     1.499 -48.52   0
        75    774.1644    861.6152 307.5813715  +6.3802142     846.9095     1740.824     1522.041     92.21479     184.6504     369.4111      2.063     7.73     1249.782     65.15359      127.991        10     1.415     1.182   0.28   0
        76    110.2019    860.1585 307.8576179  +6.3587565     6571.258      16116.3     18867.81      91.9197     184.5032     369.3008      2.402     5.46     1255.871     65.15359     776.7151        58     1.860     1.704 -49.98   3
        77    102.4691    857.1197 307.8609372  +6.3597523     1815.739     4484.943     6844.266     92.94841     185.1646     369.5949      3.142    11.14     1255.583     65.15359     216.2528        38     2.262     1.529  81.19   3
        78    103.6220    850.6880 307.8606749  +6.3624441     1149.739     2058.607     2317.184     92.65566     184.6504     369.5214      2.340     6.12     1255.364     65.15359     154.0762        13     1.407     0.820  45.93   3
        79    118.3810    860.4651 307.8542053  +6.3589026      1783.69     4190.948     4996.122     92.21479      184.871     369.4479      2.369     6.20     1256.027     65.15359     197.6421        29     1.486     1.458 -22.31   1
        80    897.7277    856.0865 307.5301543  +6.3865840     4988.169     8873.248     9675.771     92.80215     185.1646     369.6317      1.915     4.38     1247.932     65.15359     558.4861        34     1.587     1.205 -50.33   0
        81    946.6356    856.1264 307.5098070  +6.3881845     1357.025      2383.52     3206.106     92.50893      184.871     369.5949      2.088     4.65     1246.722     65.15359     166.9569        15     1.346     0.974 -78.36   0
        82    653.3087    853.9845 307.6319035  +6.3793580     1021.658     2226.135     2347.304     92.36198     184.6504     369.4847      2.278     7.84     1251.704     65.15359     121.5699        17     1.489     1.153 -52.72   0
        83    539.9144    853.6539 307.6790860  +6.3757330     1278.624     2955.029     3799.882     92.65565     184.7975     369.8154      2.463     7.55     1253.262     65.15359     159.5219        22     1.575     1.330 -46.14   0
        84    387.9591    852.5187 307.7423358  +6.3711540     789.2043     1955.346      2713.57     92.65565      184.871     369.5582      2.595     6.52     1255.958     65.15359     114.2069        10     1.357     0.880 -64.38   0
        85    920.6060    846.7461 307.5209499  +6.3911939     5151.151     7946.492     7796.563     92.06737     184.5768     369.3008      1.641     2.94     1246.923     65.15359     2039.344        33     1.584     1.128  50.71   0
        86    891.9019    848.0737 307.5328465  +6.3896970     2165.748     3976.065     4356.857     92.21479     185.0179     369.5949      1.913     4.94     1247.221     65.15359     271.4215        25     1.546     1.123 -39.08   0
        87    952.2930    847.6497 307.5077375  +6.3918687     1417.978     2662.475     2745.187     92.50893      184.724     369.8154      1.911     5.85     1245.793     65.15359     188.7155        16     1.282     1.118  32.76   0
        88    644.2703    848.1272 307.6358604  +6.3814748     655.0984     1418.358     1603.949     92.80215     185.0179     369.6317      2.153     5.60     1251.469     65.15359     102.3127         7     1.454     0.608  -6.13   0
        89    215.4525    843.8851 307.8143863  +6.3689765     888.0393     1811.678     2743.766     92.65565     184.7975     369.8154      2.621     6.67     1256.743     65.15359     166.7164         9     1.476     0.975  44.74   2
        90    218.5291    842.9760 307.8131372  +6.3694540     953.1084     2030.661     3196.339     92.21479      184.724     369.5582      2.425     5.16     1256.743     65.15359     148.6895        12     1.350     0.797  79.15   2
        91    909.1535    837.8200 307.5260134  +6.3944978      913.433     1488.287     680.7457     92.21479      184.871     369.4111      1.717     6.18     1246.167     65.15359     106.8867        12     1.232     0.871 -84.39   0
        92    882.8771    836.7429 307.5369808  +6.3940732     857.8204     1740.607     1877.488     92.65566     184.7975     369.5582      2.210     6.66     1246.236     65.15359     122.3759        10     1.444     0.862 -79.57   0
        93    936.3699    835.4210 307.5147714  +6.3963874     1920.157     3793.283     4169.214     92.06737     184.6504     369.4847      2.165     5.30     1245.448     65.15359     209.2704        23     1.429     1.222 -88.74   0
        94    791.0854    844.4442 307.5749086  +6.3878585     745.1804     1398.221     1459.579     92.65565      184.724     369.5949      1.708     4.57     1247.656     65.15359     149.9879         8     1.390     0.426 -63.45   0
        95   1010.2202    829.3601 307.4842516  +6.4013284     6523.993     10993.87     11752.87     92.21479     184.6504     369.3376      1.809     3.98     1241.743     65.15359     739.7666        33     1.451     1.231 -52.42   0
        96    977.7856    828.7390 307.4977657  +6.4005130      1270.53     2154.061     2308.875     92.06736     184.7975     369.3744      1.805     4.58     1243.114     65.15359     176.8232        13     1.088     0.945 -73.34   0
        97    778.6799    827.5259 307.5806373  +6.3944275     718.3797     1537.161     1460.176     92.94841     185.1647     369.7052      1.927     4.73     1246.417     65.15359     109.7035         6     1.561     0.406 -55.05   0
        98    865.9077    824.0511 307.5444659  +6.3987480     1237.644     2153.616     1899.525     92.50893      184.724     369.8521      1.820     6.02     1245.086     65.15359     130.0256        14     1.307     0.779 -20.63   0
        99     21.8145    815.5129 307.8958934  +6.3742269     1399.695     3287.398       3213.5     92.21479     184.6504     369.4847      2.178     6.50     1254.544     65.15359     216.5203        23     1.739     1.287  18.43   0
       100    822.2459    815.3454 307.5629220  +6.4008949     1054.569     1934.764      1950.39     92.65566      184.871     369.6685      2.130     6.43     1244.701     65.15359     147.7736        15     1.493     0.858 -36.04   0
       101    634.3950    803.6271 307.6414643  +6.3995062     3418.521     8170.072     8644.133     92.06737     184.6504     369.4479      2.323     6.00     1248.373     65.15359     352.3743        42     1.745     1.545 -55.61   0
       102    607.9681    799.5834 307.6525942  +6.4002979     1148.653     2800.542     2457.168     92.21479     184.5768     369.4847      2.302     8.87     1248.197     65.15359     155.4374        22     1.757     1.251 -56.52   0
       103    580.9669    801.8597 307.6637504  +6.3984631     878.8905      1742.45     2003.859     92.50893     184.9444     369.5582      2.114     6.71     1248.481     65.15359     108.2157        11     1.401     0.903  -6.49   0
       104     97.7104    799.8928 307.8648505  +6.3832021      2218.23     5288.601     6444.565     92.65566     185.4579     369.6685      2.440     5.98     1252.897     65.15359     287.0583        34     1.580     1.509   9.98   0
       105    971.2269    798.7103 307.5015003  +6.4126849     2016.543      3471.74      3418.41     92.80215     184.5768     369.4847      1.856     4.76     1241.252     65.15359     258.4854        21     1.391     1.105 -56.11   0
       106    751.1941    795.6429 307.5931421  +6.4066709     12619.22     28335.48     31071.53      91.9197     184.5032     369.3008      2.243     5.19     1243.699     65.15359     1352.633        64     1.888     1.579 -61.14   0
       107    881.2437    795.2220 307.5390526  +6.4111491     2622.455     5124.923      5525.95     92.06736      184.724     369.4111      2.018     5.36     1242.427     65.15359     280.7601        31     1.644     1.279 -50.73   0
       108    451.0725    795.4067 307.7180048  +6.3968129     767.5321     1676.074     1005.726     92.21479     184.3559     369.5214      1.995     6.21     1250.896     65.15359     97.10938         7     1.502     0.722  45.04   0
       109    224.8426    789.8039 307.8123056  +6.3916000     3114.046     8351.212     9659.626      91.9197     184.5032     369.3008      2.509     6.15     1255.472     65.15359     340.0752        49     1.937     1.627 -58.10   0
       110    631.8601    788.5184 307.6430267  +6.4056552     3892.479     9035.709      9445.43     92.80215      184.871     369.6317      2.291     5.64     1247.016     65.15359     400.3674        46     1.744     1.611 -52.15   0
       111    891.0000    780.8372 307.5354761  +6.4174063     827.5836     1804.098      1787.41     91.47528     184.5768     369.3744      2.393     5.12     1241.506     65.15359     141.3547         6     1.082     0.732 -46.48   2
       112    702.5132    776.9547 307.6140221  +6.4127681     2023.874     4062.973     5095.576     92.65565      184.724     369.5949      2.323     6.13     1244.084     65.15359     245.7823        24     1.770     0.966  88.74   2
       113    705.0000    776.0152 307.6130191  +6.4132381     1390.961     2121.414     3210.338     92.06736     184.4296     369.3008      1.812     6.20     1243.907     65.15359     185.0704        12     1.812     0.597  83.11   3
       114    969.7206    773.2216 307.5029809  +6.4231508     7089.147     13067.76     13493.48     92.21479     184.5032     369.6317      1.931     4.32     1240.288     65.15359     918.6027        43     1.614     1.348 -58.76   0
       115    908.0238    773.7539 307.5286311  +6.4208916     1629.144     3645.248     4152.286     92.21479      184.871     369.4847      2.206     6.18     1241.028     65.15359     199.4899        27     1.613     1.299 -59.21   0
       116    509.4463    769.2664 307.6946007  +6.4095359     1033.455     2543.588     3692.326     92.65566     184.7975     369.6685      2.990     7.40     1247.773     65.15359     114.8116        18     1.516     1.012  33.51   2
       117     47.3466    768.9132 307.8868484  +6.3943028     14169.19     35332.55      39871.7     92.65565      184.724     369.8154      2.431     5.66     1252.856     65.15359     1562.376        72     1.938     1.798 -72.93   0
       118    898.3022    765.4528 307.5329539  +6.4239949     778.3339     1531.847     1442.187     92.50893      184.871     369.8889      1.988     6.56      1240.48     65.15359     98.65283         8     1.463     0.824 -54.72   0
       119    478.2301    766.3045 307.7076869  +6.4097211     771.9083     1570.466     1874.221     92.80215     184.5768     369.6685      2.248     5.95     1248.823     65.15359     111.9183         7     1.170     0.850  23.31   0
       120    693.1379    760.7086 307.6184683  +6.4191598     2064.236     4961.007     6261.691     92.65566     185.0179     369.7419      2.584     6.16     1243.082     65.15359     227.5527        37     1.758     1.453 -37.85   0
       121    715.1827    758.7925 307.6093614  +6.4206808     2322.638     5672.813     6016.383     92.21479     184.5768     369.4479      2.272     6.35     1242.103     65.15359     246.3375        38     1.845     1.421 -42.36   0
       122    546.6697    756.7663 307.6795356  +6.4159285     1652.246     4170.653     4659.963     92.50893      184.871     369.7052      2.478     7.09     1245.501     65.15359     185.7972        33     1.762     1.511 -44.53   0
       123    987.9601    754.7206 307.4960124  +6.4313864     3684.686     6870.624      6888.19     92.50893      184.871     369.5949      1.961     4.51     1239.503     65.15359     443.8281        33     1.593     1.230 -53.72   0
       124    290.9579    755.8908 307.7859457  +6.4077915      787.679     1841.801      2066.53     92.65566      184.871     369.7052      2.451     6.56     1252.802     65.15359     107.9608         8     1.263     0.957 -65.45   0
       125    953.3656    753.6359 307.5104415  +6.4306906     6077.829     11927.49     12665.21     92.36198     184.5768     369.3376      2.056     4.79     1239.642     65.15359     666.3112        42     1.647     1.389 -53.43   0
       126    384.2091    756.0363 307.7471471  +6.4108330     612.9779     1223.902      1912.21     92.06736     184.5768     369.3744      2.526     4.31     1251.288     65.15359     84.62476         5     1.032     0.514 -53.91   0
       127    208.1718    755.9544 307.8203832  +6.4050093     987.3148     2064.669       2521.6     92.06736     184.9444     369.5214      2.349     5.26     1252.901     65.15359     121.4529         9     1.141     0.684 -14.92   0
       128    400.4171    747.2662 307.7406998  +6.4149899     1407.046     3209.873     4496.774     92.06737     184.7975     369.4847      2.811     8.57     1250.786     65.15359     179.6503        20     2.111     0.973 -68.95   2
       129    112.0551    747.8270 307.8606426  +6.4051595     11931.53     32374.77     36942.79     92.21479     184.9444     369.4479      2.517     6.10     1252.157     65.15359     1381.438        75     2.009     1.828 -78.43   0
       130    948.1984    736.6669 307.5131600  +6.4375205     4958.245      10431.8     11345.89      91.9197     184.3559     369.3744      2.176     4.71     1238.804     65.15359     573.1245        51     1.730     1.628 -48.83   0
       131    541.9252    732.2385 307.6823348  +6.4258900     23278.85     64180.26     74005.02     92.50893     184.9444     369.7052      2.542     6.37     1244.133     65.15359     2363.089        92     2.093     1.869 -68.65   0
       132   1003.5596    731.7623 307.4902913  +6.4413735     72088.77     134090.7     142873.9     92.36198      184.871     369.4847      1.976     4.36     1238.482     65.15359     8516.106        88     1.771     1.471 -59.72   0
       133    225.2346    735.3533 307.8139804  +6.4140763       522.83     1097.359     1791.584     92.21479     184.7975     369.5582      2.786     4.30     1251.197     65.15359     82.12878         5     0.955     0.551 -51.56   0
       134    151.2119    728.7833 307.8449966  +6.4143209     1168.017     1887.918     2359.673     92.36198     184.5032     369.5214      1.940     5.93     1251.544     65.15359     146.4105        13     1.396     0.750  82.72   2
       135    148.3626    728.6849 307.8461853  +6.4142666     962.7549     2064.305     2489.461     92.65566      184.871     369.6317      2.326     7.61     1251.531     65.15359     131.6396        11     1.938     0.836 -60.75   3
       136    439.2159    716.1447 307.7256070  +6.4291185     28698.24     83727.52     97663.13      91.9197     184.7975     369.3008      2.617     6.61     1247.613     65.15359      3041.49        96     2.128     1.907 -63.15   0
       137   1017.4060    714.9879 307.4850923  +6.4487514     2604.125     4996.347     4966.986     92.21479     184.6504      365.381      2.006     4.56     1236.437     65.15359     327.4062        29     1.509     1.220 -54.05  16
       138    114.4600    711.2084 307.8608796  +6.4203463     914.0359      1800.82     2049.695      91.9197     184.6504     369.3376      2.243     6.80     1250.284     65.15359     106.0142        11     1.187     1.094 -86.17   0
       139    584.8312    707.2938 307.6653235  +6.4376049     649.2339     1309.758     632.9856     92.80215     184.6504     369.5949      1.850     4.43     1241.774     65.15359     89.53735         5     1.165     0.480 -55.88   0
       140    285.4916    706.0489 307.7899012  +6.4281716     828.7524      2370.21     2847.694     92.65565      184.724     369.8154      2.591     5.30     1249.189     65.15359     123.6666         8     1.299     0.611 -61.16   0
       141    711.2258    699.4641 307.6130006  +6.4450260     2839.783     7184.029     7690.466     92.21479      184.871     369.5582      2.417     6.80     1238.763     65.15359     298.1827        38     1.723     1.544 -61.22   0
       142    764.6727    694.7070 307.5909236  +6.4487592     7505.966     18432.95     21004.26     92.50893     185.0179     369.7052      2.405     5.67     1238.188     65.15359     843.3459        62     1.967     1.665 -64.87   0
       143    981.4343    695.1282 307.5007239  +6.4557563      687.101     1245.064     1101.286     92.50893     184.7975     369.6317      1.848     4.96     1234.297     65.15359     123.6608         6     1.134     0.615 -67.98   0
       144   1003.4806    693.4877 307.4916062  +6.4571615     1334.983     2765.815         3120     92.36198     185.1647     369.7787      2.040     4.77     1233.868     65.15359     191.5051        14     1.558     0.663 -76.47   2
       145    588.7578    692.8123 307.6641770  +6.4437096     1234.539     3925.896     4447.319      91.9197     184.6504     369.3376      2.582     9.00     1241.013     65.15359     148.4537        30     1.736     1.670 -69.89   0
       146    505.8232    693.8203 307.6986476  +6.4405409     649.6724     1409.344     2149.208     92.36198     184.6504     369.5582      2.287     3.50     1243.942     65.15359        101.4         5     1.045     0.338 -44.30   0
       147    905.7646    688.6169 307.5324255  +6.4559411     838.9625     1788.302     2067.041     92.21479     184.6504     369.3744      2.183     6.61     1234.449     65.15359     104.6411        11     1.224     1.001 -49.73   0
       148    840.3521    678.1526 307.5599922  +6.4580943     1680.915      4118.26      5086.58     92.65566      184.724     369.6685      2.632     7.16     1235.327     65.15359     217.2836        33     1.828     1.385 -68.10   0
       149    799.3108    675.1714 307.5771680  +6.4579657     1358.967     3031.891     3003.585     92.80215     184.5768     369.5214      2.248     8.15     1237.233     65.15359     159.9086        22     1.654     1.122 -59.79   0
       150    227.6318    670.8160 307.8151617  +6.4407806     3349.546     10112.28      11586.4     92.21479     184.5768     369.5214      2.660     6.92     1247.932     65.15359     386.6746        53     1.952     1.774 -51.50   0
       151    161.8625    665.3335 307.8427091  +6.4408515     26018.97     76936.67     91300.78     92.65566      184.871     369.6317      2.673     6.70     1247.869     65.15359     2864.647       103     2.154     1.995 -74.18   0
       152     87.1557    661.1267 307.8739316  +6.4400966      3159.78     6397.869     7582.384     92.50893     184.9444     369.6685      2.156     6.83     1247.579     65.15359     372.2943        33     1.945     1.251 -79.29   3
       153     84.0000    660.9720 307.8752497  +6.4400552     1949.886      3669.07     4749.088     92.06736     184.5768     369.3744      2.060     6.70     1247.583     65.15359     258.4177        18     1.882     0.823 -80.95   3
       154    779.9928    666.5925 307.5854935  +6.4608654     84320.65       214252     241838.2      91.9197     184.6504     369.4847      2.437     5.91     1236.731     65.15359     9592.421       148     2.294     1.841 -40.07   0
       155    816.5765    653.7517 307.5707032  +6.4673742     2520.238      6244.05     6782.108     92.21479      184.871     369.5214      2.339     6.68     1234.573     65.15359     248.8768        40     1.807     1.507 -45.90   0
       156    335.2503    652.3630 307.7710106  +6.4519751     7203.838     22088.05     26145.68     92.36198     184.7975     369.4847      2.705     6.97     1244.725     65.15359     822.0708        73     2.127     1.888 -72.56   0
       157    950.8379    658.4210 307.5146842  +6.4698890     1048.052     2158.815     2409.525     92.21479     184.5768     369.3376      2.148     5.66     1231.237     65.15359     174.1334        14     1.298     0.991 -53.26   0
       158    138.9087    651.3134 307.8527323  +6.4458704      883.869     2033.933      2591.12     92.36198     185.3846     369.7787      2.562     8.26     1247.383     65.15359     121.3787        12     1.556     1.225  -6.08   0
       159    770.5857    647.2635 307.5900565  +6.4685282     3118.357     7629.038     8396.113     92.06737      184.724     369.4479      2.349     6.06     1235.012     65.15359     328.2139        44     1.876     1.534 -60.49   0
       160    501.6337    647.1777 307.7019609  +6.4596443     2797.957     8490.092     9507.737     92.06736     184.6504     369.3744      2.633     7.37     1241.136     65.15359     292.0703        52     1.940     1.785 -61.39   0
       161    361.8890    643.4442 307.7602283  +6.4565405     772.0622     1605.077     2424.697     92.65565     184.7975     369.6685      2.208     4.05     1243.533     65.15359     127.1379         6     0.919     0.643  80.23   0
       162    148.6221    640.4720 307.8490575  +6.4506667      3011.97     8748.685     9095.758     92.21479     184.6504     369.6317      2.559     7.00     1247.068     65.15359     363.7063        50     1.853     1.828 -77.16   0
       163    786.6682    639.5695 307.5836234  +6.4722350     801.9883     1857.898     2306.587     92.50893      184.871     369.5949      2.613     7.52     1234.041     65.15359     125.7434        12     1.948     0.812 -49.32   0
       164    546.3467    639.9911 307.6835995  +6.4640937     1263.568     3640.083     4439.022      91.9197      184.724     369.3008      2.770     9.76     1239.192     65.15359     164.5796        30     1.963     1.508 -30.19   0
       165    243.8771    636.9805 307.8095452  +6.4552802     35572.34     111726.3     135023.4     92.21479     184.5768     369.5949      2.739     7.18     1245.397     65.15359     4232.687       123     2.244     2.038 -65.19   0
       166     20.4325    639.4472 307.9024235  +6.4468144     2654.067      6970.85     8025.825     92.21479      184.871     369.5582      2.519     6.43      1247.21     65.15359     306.7921        43     1.872     1.613  86.59   0
       167    766.7470    628.9131 307.5922699  +6.4759716     8519.962     21797.79     24779.75     92.65566      184.724     369.8154      2.452     5.92      1233.49     65.15359      880.801        65     1.953     1.740 -59.61   0
       168    470.5388    627.5590 307.7155590  +6.4667052     18316.28     55580.35     69401.65     92.65566      184.871     369.6685      2.812     6.80     1240.625     65.15359     1717.073       104     2.239     2.096 -30.42   0
       169    183.1652    624.6388 307.8352209  +6.4583496     925.9924     2337.736     2867.807     92.36198      184.724     369.4111      2.647     8.27     1246.034     65.15359     134.0577        14     1.480     1.292  24.97   0
       170    630.1965    622.3835 307.6493046  +6.4741399     1411.024     4020.989     4905.772     92.21479     184.4296     369.4479      2.880     9.59     1235.466     65.15359     155.6715        30     1.653     1.553 -12.92   0
       171    692.7805    621.5317 307.6232936  +6.4765662     797.1289     1613.574     2153.231     92.21479      184.724     369.5582      1.996     7.45      1233.93     65.15359     95.01257        11     1.521     1.022 -70.39   0
       172    114.9533    615.3874 307.8639128  +6.4598928     10763.66     33517.18     39696.16      91.9197     184.6504     369.3744      2.698     7.04     1246.288     65.15359     1310.734        78     2.116     1.943 -84.37   0
       173    301.3289    616.2302 307.7863424  +6.4657530      1809.12     4582.026     6216.314     92.50893      184.871     369.6317      3.091    10.36     1243.009     65.15359     215.8745        31     2.458     1.218 -45.71   2
       174    367.2088    617.2072 307.7588995  +6.4675415     694.7428     1768.095     2444.514      91.9197     184.6504     369.4847      3.138     6.05     1241.501     65.15359      100.493         7     1.241     0.828  38.53   0
       175    942.9266    630.1364 307.5189240  +6.4812966      1025.14      2277.61     2524.608     92.80215      184.871     369.6317      2.288     6.98     1229.324     65.15359     124.7523        14     1.551     0.881   7.21   0
       176    841.5099    615.5311 307.5616117  +6.4839676     826.2229     2132.887     2307.932     92.80215     185.0913     369.6317      2.505     6.21     1231.027     65.15359     99.97937        11     1.670     0.648 -69.42   2
       177     80.8756    613.5643 307.8781523  +6.4595085     1403.384     3205.979     3740.117     92.50893     184.9444     369.6685      2.395     6.78     1246.347     65.15359     198.7676        26     1.856     1.235  82.48   0
       178   1017.1324    614.6008 307.4885685  +6.4901582     768.1355     1306.093     1161.348      91.9197     184.3559     366.9021      1.583     3.40     1227.034     65.15359     97.98621         5     0.773     0.433 -20.91  17
       179    940.1630    609.4081 307.5207688  +6.4897569     3173.285     6799.101     7066.212      91.7718     184.5768     369.3008      2.168     5.46     1227.843     65.15359     357.0293        36     1.746     1.358 -67.63   0
       180    411.8384    596.3187 307.7410348  +6.4776428     16947.78     53873.25     64849.89     92.65566     184.9444     369.5582      2.761     7.38     1239.224     65.15359     1807.834        92     2.182     1.999 -63.01   0
       181    619.8500    595.7751 307.6545043  +6.4847741     5211.741     15732.14     17860.09     92.21479      184.871     369.5214      2.626     7.08      1234.15     65.15359     531.6426        63     2.075     1.762 -50.19   0
       182    177.0192    593.9627 307.8388141  +6.4708000     7992.902     25230.39     32456.91     92.21479     184.6504     369.3744      2.885     7.06      1244.14     65.15359     858.4724        88     2.244     2.072 -89.01   0
       183    541.6050    592.5433 307.6871693  +6.4835110     957.3062      3478.12     4516.821      91.9197      184.724     369.3008      2.943    10.32     1235.523     65.15359     155.4292        25     1.788     1.662  89.69   0
       184    143.6213    594.3782 307.8526955  +6.4695155     853.2701     2091.186     1490.702     92.36198     184.6504     369.6317      2.023     6.35     1244.679     65.15359     108.6664        11     1.586     0.713  34.49   0
       185    953.2077    593.8152 307.5158636  +6.4966211     790.8422     1756.089     2251.592     92.21479     184.5768     369.4479      2.563     5.83     1226.551     65.15359     137.2421         8     1.471     0.651 -45.27   0
       186    915.4185    589.5781 307.5317296  +6.4971198     2924.757     6548.589     7512.357     92.36198      184.724     369.5582      2.311     5.48     1227.312     65.15359     298.7751        36     1.670     1.426 -54.18   0
       187    588.7376    588.0861 307.6677083  +6.4869141     2586.177     7875.327     8783.764     92.80215     185.0913     369.6317      2.639     7.78     1234.294     65.15359     291.7377        48     1.961     1.727 -59.72   0
       188     77.2347    589.9529 307.8804654  +6.4691277     603.4951     1249.779     1774.811     92.21479      184.871     369.5582      2.252     4.95     1244.631     65.15359     80.37268         5     1.544     0.449 -66.02   0
       189    937.8253    581.7520 307.5226686  +6.5010894     2197.628     4920.542     4595.343     92.21479     184.9444     369.5214      2.255     5.57     1225.984     65.15359     248.8306        32     1.582     1.389 -80.15   0
       190    500.8721    579.5613 307.7045545  +6.4875142      2876.86     9215.002     11247.02     92.50893      184.871     369.7052      2.817     7.38      1235.43     65.15359     312.6184        55     2.043     1.829 -66.55   0
       191    348.7606    579.6163 307.7678427  +6.4824359     1077.093      1553.62     2470.818     92.21479      184.724     369.3744      1.851     5.54     1238.716     65.15359     115.7255        11     1.011     0.856  87.06   3
       192    345.3521    578.8184 307.7692878  +6.4826517     930.2146     2116.622     2882.374     92.06736      184.871     369.4111      2.442     6.55     1238.723     65.15359     121.3257        13     1.782     0.677 -67.10   2
       193    857.2473    575.0583 307.5564215  +6.5011858     1756.913     4403.707     5191.155     92.65565      184.871     369.7787      2.619     6.67     1228.691     65.15359     234.0948        33     1.661     1.536 -74.13   0
       194    864.4148    569.4937 307.5536258  +6.5037187     1267.395     3061.701     3189.593     92.36198     184.5768     369.4479      2.257     8.78     1228.252     65.15359      146.219        24     1.566     1.374 -62.10   0
       195    688.6335    565.5462 307.6269006  +6.4995259     1433.411     3857.236     4669.852     92.50893      184.871     369.5582      2.608    10.42     1230.818     65.15359     151.6215        34     2.049     1.476 -53.44   0
       196    360.9080    563.4878 307.7633324  +6.4894937     1578.383     4500.195     5736.705     92.65565     185.3846     369.7419      2.983    10.53     1237.085     65.15359     174.0244        34     2.136     1.480  38.50   2
       197    589.0000    560.3502 307.6685322  +6.4983653     3522.697     5508.408     6130.721      91.7718     184.2822       369.08      1.676     6.44     1232.288     65.15359     466.6279        16     1.894     0.695 -81.55   3
       198    585.9937    560.3181 307.6697842  +6.4982788     3988.072     9232.476     11330.13     92.21479     184.3559     369.4111      2.414     7.63     1232.319     65.15359     424.5277        44     2.111     1.565 -69.09   3
       199    750.0724    556.6947 307.6016334  +6.5052135     7657.834     21033.71      24647.4     92.50893     184.9444     369.6685      2.586     6.51     1229.541     65.15359     800.3625        69     2.194     1.727 -57.89   0
       200    268.0285    558.8288 307.8021346  +6.4883253     875.0327       1734.5     2407.559     92.06736     184.5768     369.3376      2.260     6.92     1238.617     65.15359     116.9142        11     1.511     0.888  78.47   2
       201    271.4304    557.2929 307.8007709  +6.4890721     1019.342     2092.238     2703.827     92.80215     184.5768     369.5582      2.542     6.04     1238.363     65.15359     128.2511        12     1.391     0.737  79.56   2
       202    934.8085    551.9014 307.5249247  +6.5133048     1061.317     2421.944     2499.641     92.36198     184.4296     369.3744      2.310     6.26     1223.955     65.15359     145.6633        16     1.623     1.083 -75.65   0
       203     87.5570    549.1648 307.8775499  +6.4862986     1940.987     5963.823     7037.076     92.36198      184.871     369.4111      2.705     7.51     1240.842     65.15359     260.3247        47     2.010     1.696 -34.57   0
       204    727.4354    548.4565 307.6113295  +6.5078623      937.275     1168.269     1325.084     92.50893      184.871     369.6685      1.727     4.33     1229.337     65.15359     145.2448         9     1.020     0.889  84.68   3
       205    723.8499    548.4130 307.6128229  +6.5077614     975.5717      1790.13     1831.661      91.9197     184.7975     369.3008      1.958     5.72     1229.381     65.15359     120.7029        10     1.292     0.713  72.42   3
       206    724.9932    545.2355 307.6124540  +6.5091102     549.8415     943.8503     1084.118      91.9197     184.5768     369.3744      1.453     3.59     1229.197     65.15359      96.1239         5     0.817     0.454  18.44   3
       207    988.9170    546.4421 307.5025926  +6.5173456     2885.043     6123.965     6847.803     92.65565      184.871     369.5582      2.216     5.08     1222.205     65.15359     320.6244        37     1.684     1.401  -7.65   0
       208    321.4061    545.3340 307.7803806  +6.4956689     948.1841     1891.298     2263.964     92.06737     184.5768     369.4111      2.142     7.80     1236.212     65.15359     117.4945        12     2.643     0.645 -72.79   3
       209    324.7426    545.7529 307.7789782  +6.4956071     1083.792     1555.591     2303.514     92.65566      184.871     369.7787      1.748     5.68     1236.228     65.15359     163.1469        10     1.347     0.709 -51.74   3
       210    324.2346    542.2360 307.7793082  +6.4970411      1057.28     2053.592     3044.643     92.36198     184.5768     369.3376      2.121     6.48     1235.912     65.15359     130.2769        15     1.781     0.662  19.23   3
       211    677.9562    541.4785 307.6321524  +6.5091012     728.3345     1555.523     1842.998     92.50893      184.871     369.6685      2.484     6.76     1229.602     65.15359     99.16174         9     1.804     0.710 -55.26   0
       212    790.0454    530.4925 307.5858804  +6.5173473     934.2794     2358.801     1977.967     92.65565     184.7975     369.7787      2.288     7.59     1227.502     65.15359     112.6571        15     1.712     0.941 -88.77   0
       213    688.3615    528.5861 307.6282561  +6.5147650     6540.625     19258.96     22441.04     92.21479     184.6504      369.264      2.630     6.61     1228.523     65.15359     639.6571        68     2.038     1.890 -60.79   0
       214    805.9449    530.5535 307.5792624  +6.5178486     716.7905      1571.54     1335.785     92.65565      184.871     369.6685      2.109     6.71     1227.381     65.15359     112.3351         8     1.417     0.890  -4.32   0
       215    607.9536    526.0000 307.6618013  +6.5131654     1130.911     2826.464     4131.973      91.7718     184.4296       369.08      3.185    10.11     1229.723     65.15359     152.6212        15     2.806     1.016 -13.05   2
       216    581.9429    519.8287 307.6728321  +6.5148484     6573.672     20195.95     29037.01     92.21479     184.9444     369.5214      3.156     8.14      1229.47     65.15359     752.8831       100     2.684     2.109  33.35   0
       217    913.5622    518.4764 307.5348864  +6.5263921     2283.355     5088.368     5357.981     92.50893     184.9444     369.6317      2.213     5.98     1223.326     65.15359     237.4407        35     1.704     1.476 -65.07   0
       218    352.9246    514.7309 307.7682983  +6.5093427     10608.22     35888.05     44414.09     92.80215     185.0179     369.6317      2.861     7.60     1233.263     65.15359     1248.938        85     2.226     2.038 -66.11   0
       219     98.8667    513.8359 307.8740387  +6.5012503     844.4138     2610.675     2857.816     92.50893     185.0179     369.7052      2.690     8.51     1239.222     65.15359     132.4418        15     1.658     1.219  17.53   0
       220    868.3575    513.4305 307.5538662  +6.5269785     954.4725     1895.492     2542.632     92.21479     184.7975     369.4479      2.991     5.11     1224.856     65.15359     130.0157         8     0.871     0.849 -76.91   0
       221    882.4567    508.7756 307.5481555  +6.5293654     2896.713     6971.406     7452.937     92.21479      184.871     369.4111      2.407     6.01     1224.124     65.15359     310.4108        42     1.834     1.488 -65.66   0
       222     33.3830    511.3591 307.9013687  +6.5000875     751.0333     1735.827     2217.455     92.06737     184.6504     369.4111      2.493     4.12      1240.86     65.15359     121.3418         6     1.162     0.417 -56.48   0
       223    210.5165    505.4426 307.8278667  +6.5084342     5257.553     17373.97     21741.25     92.65566      184.871     369.5582      2.864     7.45     1235.702     65.15359      623.272        74     2.234     1.968 -68.55   0
       224    339.0939    501.7800 307.7744900  +6.5142254     4672.598     4573.986     4341.572     92.50893     184.6504     369.4479      0.590     1.05     1232.436     65.15359     2705.952         6     0.458     0.410 -88.72   0
       225   1015.0009    495.4427 307.4934473  +6.5392477     5946.538     12620.69     13534.42      91.9197     184.5032     369.1904      2.148     4.89     1218.542     65.15359     668.8279        46     1.727     1.455 -80.71  16
       226    110.8928    494.1711 307.8696997  +6.5097638     2037.825     6245.071      7439.68     92.80215     184.5768     369.5214      2.701     7.69      1238.17     65.15359     247.3057        46     1.961     1.842 -72.86   0
       227    133.7361    490.1437 307.8603310  +6.5121869     1083.763     2890.889     3904.819     92.80215     184.7975     369.6317      3.077     9.58     1237.159     65.15359     114.6034        23     1.852     1.381 -49.12   0
       228    944.0238    484.7418 307.5233418  +6.5413168     782.4617     1473.393     1743.473     92.21479      184.871     369.4847      2.641     5.22     1221.007     65.15359     110.0227         7     1.058     0.728  86.16   0
       229    357.2047    483.5209 307.7675699  +6.5223605     853.1619     2105.326     2672.211     92.21479     184.2822     369.3376      2.740     7.20     1230.758     65.15359     106.4979        10     1.532     0.947  18.33   0
       230      6.6336    479.3358 307.9135821  +6.5124054     1390.126     4173.507     4886.887     92.50893      184.871     357.3745      2.693     9.44     1240.259     65.15359     183.3934        35     1.840     1.712 -62.87  16
       231    410.0032    477.9260 307.7457887  +6.5264244     2483.695     9032.379     11194.24     92.06736     184.2822     369.4847      2.911     8.33     1229.361     65.15359     327.9893        62     2.175     1.979 -76.04   0
       232    750.4449    475.1667 307.6042171  +6.5388607     5773.629     16376.71     19321.12     92.21479     184.7975     369.5214      2.621     6.70     1223.738     65.15359     622.9744        61     1.995     1.779 -57.07   0
       233    743.0098    476.5841 307.6072635  +6.5380296     1116.043     2688.118     3155.272     92.36198     184.5768     369.4847      2.545     7.69     1223.876     65.15359     133.6407        20     1.358     1.218   8.81   1
       234    994.3440    470.0770 307.5028933  +6.5490301     2215.882     4850.933     5058.728     92.65565      184.871     369.5949      2.143     6.10     1217.606     65.15359     231.6766        29     1.542     1.303 -48.06   0
       235    431.3000    464.6601 307.7373740  +6.5326051     718.7255     1410.665     2389.767     92.36198      184.871     369.8154      2.041     3.85     1227.675     65.15359     108.9438         5     0.996     0.426 -83.95   3
       236    432.4738    461.0117 307.7370085  +6.5341493      702.137     1493.294     2453.818     92.06736     184.4296     369.4111      1.702     3.43      1227.26     65.15359     110.5527         5     1.110     0.307  68.02   2
       237    457.0508    462.0576 307.7267463  +6.5345346     986.7635     2946.777     3735.432     92.65566      184.871     369.6317      2.677     9.83     1226.785     65.15359     127.5038        24     2.026     1.329  82.29   2
       238    460.4505    460.9219 307.7253699  +6.5351161     1146.551     1892.649     2320.078     92.65565     184.9444     369.6317      1.683     4.22     1226.616     65.15359     172.6041        10     1.123     0.706 -79.18   3
       239    815.8571    458.0840 307.5775707  +6.5480745     16460.12     43838.26     51268.48     92.65566      184.871     369.7419      2.531     6.32     1222.089     65.15359     1679.693        83     2.119     1.794 -66.41   0
       240    589.3129    451.2697 307.6720722  +6.5433771     971.4981     1941.289     2396.961     92.80215     185.1647     369.6685      2.071     7.24     1223.767     65.15359     116.3767        13     1.931     0.760 -65.73   3
       241    585.8759    450.2934 307.6735353  +6.5436658     871.3008     2061.792     2211.088     92.50893     185.0913     369.6317      2.535     6.82     1223.677     65.15359     120.3932        15     2.044     0.638  86.85   2
       242    670.9995    443.9753 307.6383252  +6.5490959     29949.71     65406.34     75453.84     92.21479     184.5032     369.4111      2.309     7.54     1222.489     65.15359     3337.086        67     2.341     1.181 -83.33   3
       243    674.2291    443.9717 307.6369813  +6.5492044     28350.62     55408.65     62072.91     92.06736     184.5768     369.3376      2.046     6.29     1222.464     65.15359     3119.162        51     1.980     1.077 -77.28   3
       244    534.7213    441.0807 307.6951323  +6.5457684      1104.82     3540.314     4885.907     92.94841     185.1646     369.8521      2.986    10.71     1223.011     65.15359       159.72        29     2.277     1.404 -46.49   0
       245     73.2315    440.5636 307.8871830  +6.5306228     2724.082      6722.11     8376.504     92.21479     184.5768     369.3376      2.570     7.61      1236.73     65.15359     305.0906        44     2.110     1.571 -44.76   2
       246     70.6553    438.3083 307.8883312  +6.5314672     1302.158     2295.441     3364.235     92.50893      184.724     369.7787      1.898     3.52     1236.654     65.15359     209.0984         8     1.035     0.583  71.18   3
       247    518.2091    437.1125 307.7021371  +6.5468572     2477.344     8692.905     10460.55     92.21479     184.5032     369.3744      2.795     8.40     1222.934     65.15359     297.0524        54     2.033     1.898 -57.59   0
       248    381.0815    432.4841 307.7593556  +6.5442097     8717.023     32118.89     39577.03     92.36198     185.1646     369.7052      2.902     8.32     1225.145     65.15359     1090.944        82     2.240     2.053 -63.11   0
       249    248.7130    434.6735 307.8143628  +6.5389015     1044.195     2573.591     3119.908     92.80215      185.238     369.6317      2.732     7.43     1229.213     65.15359     118.6853        14     1.736     0.889  85.89   0
       250    472.3176    422.8356 307.7217149  +6.5512228      3106.41      6487.83     7198.888     92.65566     184.7975     369.5949      2.227     7.52      1222.46     65.15359     353.5747        35     1.883     1.351 -89.10   3
       251    468.0000    422.5116 307.7235225  +6.5512130     2469.056     4909.335     6619.998      91.7718     184.2822     369.2272      2.205     8.42     1222.567     65.15359     300.8073        28     2.268     0.888  84.06   3
       252    737.7820    421.5044 307.6112896  +6.5605798     1318.322     2586.342     2912.925     92.50893     184.6504     369.4111      1.919     7.25     1220.859     65.15359     187.6353        15     1.897     0.776 -73.07   3
       253    740.7772    421.7117 307.6100362  +6.5605935      1287.01     2450.885     2715.472     92.65566     184.6504     369.4847      2.034     7.02     1220.798     65.15359      141.479        18     1.562     0.885 -62.56   3
       254    361.5087    407.2546 307.7683512  +6.5539670     2810.997     6240.903     8462.391     92.50893      184.724     369.7787      2.613     9.35     1222.933     65.15359       346.53        38     2.396     1.203 -50.02   3
       255    358.4261    405.7442 307.7696849  +6.5544876      2249.79     4197.228     4821.104     92.21479     184.9444     369.4479      1.995     5.36     1222.897     65.15359     278.3472        18     1.557     0.799 -67.47   3
       256    726.4094    402.4355 307.6166631  +6.5680699     22169.48     47696.12     56028.21     92.06737     184.5768     369.3744      2.315     7.35     1218.905     65.15359     2282.709        62     2.358     1.271  80.69   3
       257    729.5242    402.0143 307.6153810  +6.5683469     19714.61     35595.79     39039.11     92.06736     184.5768     369.4479      1.916     5.03     1218.905     65.15359     2095.364        35     1.690     1.089  72.38   3
       258    216.8435    406.4821 307.8285763  +6.5494701     812.4513     1810.116     2015.604     92.65566      184.871     369.5949      2.196     7.11     1228.328     65.15359     137.3765        10     1.649     0.858  26.85   0
       259    400.1505    402.5345 307.7524302  +6.5571993     792.3516     2486.393      3207.56     92.50893      184.724     369.5949      2.949    10.68     1222.111     65.15359     132.9258        18     2.146     1.565 -66.95   0
       260    962.1081    399.8321 307.5186629  +6.5769448     1056.963      2216.35     2875.948     92.80215     184.6504     369.6685      2.361     7.13     1212.579     65.15359     144.5596        15     1.467     1.142 -78.87   0
       261    903.3517    398.6734 307.5431539  +6.5754800     1317.313     3062.616     3375.714     92.65566     184.9444     369.6685      2.279     7.46     1214.955     65.15359      149.561        28     1.649     1.511  71.01   0
       262    385.7139    400.2411 307.7585151  +6.5576654     805.0128     2245.344     3329.883     92.65566     184.7975     369.6685      3.037     6.59     1222.015     65.15359     125.5225        10     1.560     0.781  -3.17   2
       263    164.0450    390.1142 307.8511000  +6.5544632     971.7358     2513.526     3423.839     92.65566      184.724     369.6317      2.775     8.15     1230.277     65.15359     110.8387        16     1.936     0.959 -68.04   2
       264    724.9923    386.9850 307.6177720  +6.5743971     2315.572      5333.82     6778.501     92.21479     184.5768     369.4479      2.539     7.80     1217.204     65.15359     268.1121        37     2.091     1.472 -88.45   2
       265    728.0000    387.0824 307.6165171  +6.5744566     2036.085     3338.925     4253.238      91.7718     184.2822     369.2272      1.810     5.97     1217.204     65.15359     277.0972        12     1.634     0.633 -89.07   3
       266    742.6498    385.3392 307.6104790  +6.5756612     1179.309     3533.533      4195.22     92.65566     184.7975     369.7052      2.763    10.14     1216.911     65.15359     141.0796        29     1.848     1.550 -63.92   0
       267    333.6592    379.0854 307.7808906  +6.5646615     906.7887      2335.39     3887.892     92.65565     184.9444     369.7419      3.406     4.11     1222.066     65.15359     157.7609         9     1.132     0.772  67.21   2
       268     47.0478    380.9764 307.9000940  +6.5543309      740.978     1334.027     1078.622     92.21479      184.871     369.4847      2.131     5.34     1235.675     65.15359     101.2283         7     1.106     0.729 -74.92   0
       269    980.6367    375.8698 307.5117553  +6.5874431     3646.323     8348.539      9451.02     92.50893     184.9444     369.7419      2.283     5.58     1209.957     65.15359     369.6641        46     1.782     1.577 -53.20   0
       270    459.5349    377.9895 307.7285453  +6.5692992     692.3321     1965.255     2625.606     92.06736     184.6504     369.5214      2.892     5.08     1218.083     65.15359     99.40967         7     1.183     0.616 -38.07   2
       271    222.6153    373.7846 307.8272789  +6.5631514     1817.698     3656.363     5622.189     92.36198     184.5032     369.5582      3.171     9.09     1226.264     65.15359     227.3864        26     2.288     1.039 -12.33   3
       272    223.0358    370.5423 307.8272134  +6.5645030     2027.722     4331.226     6216.206     92.50893      184.871     369.6317      2.885    10.16       1226.1     65.15359     237.1329        30     2.494     1.241   7.53   3
       273    127.2032    359.0193 307.8674820  +6.5660628     667.4932     1689.864     2387.592     92.21479     184.3559     369.4111      2.565     6.48     1230.735     65.15359     105.4873         9     1.779     0.663 -68.01   0
       274    533.3751    353.4538 307.6986430  +6.5818741     801.9208     2224.967     2896.289     92.06737     184.9444     369.4479      3.156     8.22     1213.202     65.15359     126.1608        12     2.132     0.885  69.73   2
       275    698.6226    351.5180 307.6299383  +6.5881551     2069.193     6447.717      7237.73     92.36198     184.5032     369.5214      2.648     7.93      1213.27     65.15359     242.5063        47     1.934     1.759 -57.04   0
       276    879.0178    353.9828 307.5547803  +6.5931124     821.0485     2289.849     3100.755     92.36198     184.5032     369.5582      2.556     8.04     1211.571     65.15359     125.9805        10     1.727     1.046 -37.01   2
       277    639.4099    350.9099 307.6546010  +6.5864426     809.8076     2520.807      3015.91     92.36198     184.5032     369.4111      2.748     9.18     1212.911     65.15359      102.457        15     1.714     1.371  36.98   0
       278    199.3470    336.0532 307.8382363  +6.5779419     981.2652     2339.497     3109.568     92.94841      184.724     369.7052      3.085     8.08     1226.166     65.15359     112.0001        16     1.946     0.938  20.57   2
       279    840.6302    335.2598 307.5713847  +6.5995663     791.2618     1790.088     2083.796     92.36198      184.871     369.5949      2.212     8.24     1211.447     65.15359     131.0825        13     1.390     1.366 -73.53   0
       280    730.9737    333.8464 307.6170687  +6.5965178     667.4773     1521.963     2106.507     92.21479     184.9444     369.5214      2.568     5.69     1211.915     65.15359     82.64087         8     1.226     0.744  63.71   0
       281    432.3229    326.7668 307.7415960  +6.5895265      7717.53     27868.72     36207.69     92.50893      184.871     369.5949      2.997     8.28     1214.142     65.15359     856.8373        93     2.360     2.102 -51.79   0
       282    759.6801    325.9698 307.6053864  +6.6007184     5016.666     9596.031     11187.22     92.50893     184.7975     369.5949      2.071     7.82      1211.33     65.15359     543.1166        25     2.064     0.833 -64.57   3
       283    756.5552    325.7054 307.6066958  +6.6007240     5779.879     12253.85     14415.92     92.65566     184.7975     369.7787      2.318     6.54      1211.33     65.15359     613.3601        43     2.103     1.376 -78.20   3
       284    122.4247    320.3255 307.8707787  +6.5818660     981.6331     2292.771     3023.961     92.21479     184.6504     369.5582      2.937     4.91      1230.03     65.15359      151.804         9     1.197     0.734 -46.50   0
       285    894.0145    315.7310 307.5498226  +6.6093895     887.0164     2108.275      2456.94     92.06736     184.7975     369.5214      2.390     6.86     1208.342     65.15359     116.7252        12     1.600     0.826  86.41   0
       286    558.0342    312.2995 307.6897664  +6.5996710     1737.204      3594.95      4384.88     92.65565      184.724     369.8154      2.196     9.01     1209.681     65.15359     193.6229        29     1.957     1.251 -88.05   3
       287    554.5120    311.7898 307.6912494  +6.5997643     1445.665     3205.665     3723.678     92.21479     184.5032     369.4479      2.357     8.17     1209.676     65.15359      170.842        21     2.314     0.807  85.18   3
       288    520.2419    311.9220 307.7055072  +6.5985718     819.5759     2235.593     3153.404     92.50893      184.871     369.7052      2.955     7.83     1210.016     65.15359     125.9835        13     1.819     0.942  20.36   2
       289    916.4321    309.1918 307.5407120  +6.6128288     1510.727      3191.29     3539.375     92.06737      184.724     369.4111      2.192     7.48     1206.952     65.15359     216.7803        22     1.845     0.852  87.36   2
       290    919.2321    308.2138 307.5395795  +6.6133249     807.6456     1395.193     1790.194     92.21479     184.5768     369.5582      1.670     5.52     1206.773     65.15359     140.0226         8     1.446     0.594  67.72   3
       291    863.0700    308.7922 307.5629341  +6.6112283     5665.729     14843.81     17226.59     92.06736     184.4296     369.5214      2.467     6.31     1209.268     65.15359     640.8595        59     1.908     1.757 -65.29   0
       292    949.7198    306.6335 307.5269438  +6.6149850     5546.493     13401.42     14433.77     92.50893      184.871     369.6685      2.362     5.53     1205.753     65.15359     591.4973        53     1.872     1.625 -71.77   0
       293    659.6138    308.7644 307.6476103  +6.6044998      974.413     2202.519      3150.61     92.06737     184.6504     369.4111      2.722     6.14     1209.674     65.15359      135.314         9     1.896     0.558  73.88   2
       294    663.1665    307.3741 307.6461785  +6.6051912     1322.781     2885.067     4143.184     92.06736     184.6504     369.3744      2.886     8.03     1209.519     65.15359     172.6423        19     1.675     1.159  80.66   2
       295    472.0522    302.0149 307.7258962  +6.6010582     771.5131     1984.528     3136.085      91.9197      184.871     369.3376      3.197     7.11         1210     65.15359     131.7482        10     1.605     0.883 -86.82   0
       296    484.0019    297.4340 307.7210774  +6.6033450     1025.865     2052.655     2705.081     91.62366     184.6504     369.4111      2.138     4.59     1208.981     65.15359     142.0334        10     1.094     0.702  81.23   2
       297    480.8202    299.4202 307.7223346  +6.6024199     821.1422     1933.481     2674.048     92.36198     184.7975     369.5582      2.121     5.78     1209.213     65.15359      128.149        10     1.636     0.575  42.42   2
       298    800.4284    298.2818 307.5893577  +6.6134908     784.8411     2387.561     2789.807     92.50893     184.6504     369.5582      2.652     8.26     1209.236     65.15359     122.2582        11     1.960     0.974 -59.62   2
       299    853.1221    297.6364 307.5674488  +6.6155014     1070.107     2533.312     2976.606     92.50893     184.9444     369.6317      2.476     7.16     1208.598     65.15359     153.5822        16     1.597     1.246 -77.00   2
       300    711.9156    295.2518 307.6262975  +6.6118084     15858.06     35924.71     40776.66     92.65566     184.7975     369.7419      2.350     7.21     1208.831     65.15359     1633.302        57     2.327     1.269 -84.48   3
       301    715.3727    294.7935 307.6248741  +6.6121120     12939.22     22717.71     24943.71     92.06737     184.6504     369.4111      1.871     6.26     1208.853     65.15359     1515.721        33     1.799     0.998 -73.72   3
       302    316.5215    294.4666 307.7908778  +6.5990000     2770.746     8964.403     12193.76     92.80215     184.9444     369.5949      3.106     8.62     1218.086     65.15359     291.9332        75     2.541     1.983 -66.08   0
       303    947.0756    293.4178 307.5284875  +6.6203498     1536.767      3687.23     3981.148     92.06736     184.5768     369.5214      2.362     7.06     1205.134     65.15359     191.7904        31     1.556     1.473 -74.32   0
       304    881.1716    291.9489 307.5559657  +6.6187761     3827.216     10143.72     10934.91     92.21479     185.0179     369.5214      2.409     6.48     1207.438     65.15359     387.1289        49     1.853     1.652 -80.13   0
       305    425.0606    291.4387 307.7458093  +6.6038595     1805.182         6141     7308.109     92.65565     184.9444     369.7052      2.867     9.84     1211.608     65.15359     204.4683        50     2.081     1.798 -59.30   0
       306    985.1509    292.1884 307.5126819  +6.6221156     1083.133     2576.377     2204.744      91.9197     184.7975      369.264      2.164     7.76     1203.798     65.15359     158.1698        16     1.580     1.066  -2.19   0
       307     83.1826    283.2188 307.8883642  +6.5958649     1984.638     5545.157     7618.271     92.36198     184.5768     369.5582      2.855     7.65     1232.013     65.15359     257.4912        42     2.340     1.356 -54.30   2
       308     80.4277    280.8699 307.8895901  +6.5967419     1199.869     2221.037     2568.893     92.36198      184.871     369.5582      1.963     4.63     1232.244     65.15359     167.4131        12     1.294     0.697 -74.43   3
       309    252.6008    279.3739 307.8179890  +6.6030983     11241.65     41799.27      52797.8     92.21479     184.5032     369.4111      2.950     8.22     1221.947     65.15359     1330.436        96     2.309     2.111 -66.22   0
       310    228.0269    280.4540 307.8281793  +6.6018342     2232.343     7766.486     10113.53     92.36198     185.0179     369.5582      2.928     7.96     1224.191     65.15359     285.5016        58     2.064     1.996 -45.44   0
       311    376.6230    274.8149 307.7665283  +6.6091068     16520.24      60429.4     77129.17     92.36198     184.6504     369.5214      2.953     7.94     1213.845     65.15359     1879.148       105     2.369     2.120 -61.36   0
       312    133.8099    276.7054 307.8675156  +6.6002405     1528.747     4125.327     5403.306     92.21479     184.4296     369.3744      2.808    12.02     1228.487     65.15359     186.6453        35     2.341     1.719  79.65   2
       313    130.3138    277.3745 307.8689479  +6.5998479     1161.485      1920.19     2979.181     92.80215     184.6504     369.4479      1.824     5.64     1228.768     65.15359     157.5613        10     1.349     0.714 -69.54   3
       314    281.2574    272.6210 307.8062910  +6.6068383      6522.49     21573.24     30898.71     92.21479     184.7975     369.4111      3.213     8.23     1219.423     65.15359     703.5455       111     2.883     2.231  -9.55   0
       315    715.7487    270.8122 307.6255238  +6.6220180     13271.55     41998.19     50195.41      91.9197      184.724     369.3008      2.716     7.18     1207.228     65.15359     1371.128        90     2.193     1.949 -60.22   0
       316     32.7068    268.7036 307.9098611  +6.6001684     3408.156     11799.29     14323.52     92.65566     185.4579     369.5582      2.834     7.63     1235.576     65.15359     409.6611        63     2.177     1.901 -69.08   0
       317    763.3312    271.2752 307.6057046  +6.6234037     599.9464     1635.863     2258.762     92.80215     185.0179     369.6317      2.955     4.99     1207.294     65.15359     76.98486         6     1.503     0.468  88.11   0
       318    973.5707    265.1427 307.5184084  +6.6328907     819.1215     1654.308     1605.219     92.21479     184.9444     369.5214      2.290     5.91       1202.2     65.15359     124.2892        10     1.386     0.708 -31.35   0
       319     68.3808    265.4512 307.8951252  +6.6027007     641.4149     1577.527     2061.249     92.06737     184.9444     369.4111      2.752     4.52     1233.198     65.15359     119.1271         5     1.219     0.477 -85.32   0
       320    974.9078    251.4194 307.5183120  +6.6385965     1418.178     2999.042      4049.36     92.50893     184.5768     369.4847      2.635     6.06     1201.149     65.15359      172.347        21     1.444     1.124  72.73   0
       321    251.4852    245.7249 307.8195897  +6.6169426     10177.45     37299.05     46797.28     92.80215      185.238     369.7052      2.939     8.07     1222.017     65.15359     1194.697        94     2.335     2.093 -62.45   0
       322    564.6827    248.4466 307.6891492  +6.6262340     685.6127     1644.493     2212.443     92.65566      184.871     369.6317      3.291     6.76     1204.475     65.15359     102.0508         8     1.468     0.874  23.98   2
       323    567.8274    246.9572 307.6878905  +6.6269528     721.9897     1601.768     1553.261     92.21479      184.871     369.4847      1.683     4.07     1204.419     65.15359       125.72         5     1.377     0.344  25.66   2
       324    683.0612    242.0496 307.6400954  +6.6328004      3243.22     10233.74     12590.71     92.65566     184.7975     369.7052      2.775     7.22     1205.278     65.15359     351.0653        57     2.036     1.846 -66.92   0
       325     94.1426    239.6346 307.8852774  +6.6142104     1924.976     6034.007     7318.883     92.50893      184.871     369.6685      2.768     7.66     1231.714     65.15359     272.4554        48     2.042     1.778 -61.53   0
       326    366.3707    235.2741 307.7721290  +6.6250780     1616.875     3671.062     5375.154     92.50893      184.871     369.5949      2.593    10.35     1211.787     65.15359     202.7192        32     2.363     1.265 -72.43   3
       327    362.5969    234.7442 307.7737175  +6.6251711      914.721      2415.45     3494.465      91.9197     184.6504      369.264      2.591     8.47     1211.985     65.15359      146.941        17     2.568     0.780 -79.90   3
       328    331.2939    234.9818 307.7867374  +6.6240315     1207.935     2451.921     4143.774     92.50893     184.5768     369.4847      3.068    10.88       1214.7     65.15359     156.0482        25     2.281     1.580  55.79   2
       329    326.8438    235.2194 307.7885815  +6.6237854     1053.669     2307.514     2807.108     92.06736      184.724     369.4479      2.117     6.38     1215.074     65.15359     142.4398        11     1.595     0.717  61.19   3
       330     82.1940    236.1860 307.8903667  +6.6152344     646.1977     1378.547     1929.787     92.21479     184.5768     369.4479      1.976     3.45      1232.51     65.15359     82.50854         5     1.003     0.343 -46.24   0
       331    975.5413    227.8789 307.5188377  +6.6483292     823.7139     1977.485     1772.898     92.80215      184.871     369.5582      2.325     8.38     1199.456     65.15359     126.3168        11     1.550     1.267 -59.94   0
       332    181.0695    223.3791 307.8496502  +6.6238149     1920.835     6738.292     8779.686     92.21479      184.724     369.5214      2.975     9.46     1225.225     65.15359     262.6509        55     2.199     1.874 -66.13   0
       333     65.5616    223.0927 307.8977316  +6.6200808     1054.502     2319.856     3935.666     92.80215     184.7975     369.7052      3.347     6.85     1233.557     65.15359     129.3777        14     2.035     0.646 -60.00   0
       334    644.4144    221.8260 307.6568607  +6.6398620     2239.644     4144.064     5758.251     92.36198     184.6504     369.5582      2.286     6.11     1203.575     65.15359     244.4867        21     1.599     0.916 -74.50   3
       335    641.3823    222.1775 307.6581108  +6.6396164     2396.104     5587.028     6860.862     92.36198      184.724     369.5582      2.381     8.14      1203.52     65.15359     232.1627        28     2.168     1.015  89.64   3
       336    594.8405    219.3786 307.6775760  +6.6392269     3327.366     11850.57     14759.57     92.21479     184.6504     369.4111      2.881     8.59       1202.6     65.15359     390.3455        58     2.053     1.954 -50.71   3
       337    598.2504    210.6653 307.6764501  +6.6429347      19507.2     65814.64     81467.75     92.50893     184.7975     369.6317      2.848     7.52     1202.206     65.15359     1967.374       100     2.305     2.044 -62.90   3
       338    323.4651    215.0804 307.7906673  +6.6319811     1599.686     4213.136     6591.223     92.94841     184.9444     369.5949      3.314    10.82     1215.018     65.15359      165.516        34     2.171     1.501 -86.60   2
       339    278.6730    203.8937 307.8096871  +6.6351049     1320.167     3603.351     4534.057     92.50893     185.0179     369.6685      2.800    11.30      1219.55     65.15359     152.5522        28     2.111     1.684  49.46   2
       340    661.3179    194.5667 307.6507423  +6.6516684     1376.557     3741.666     4617.018     92.65566     184.7975     369.5949      2.817     8.84     1202.585     65.15359     164.2063        24     1.919     1.137  89.56   2
       341    404.9786    186.4121 307.7577086  +6.6465197     1402.444     4724.591     5780.563     92.21479     184.5768     369.4847      2.951    10.53     1205.733     65.15359     161.9036        35     2.357     1.311 -49.93   2
       342    876.0152    181.1985 307.5618291  +6.6642958     2020.536      4839.41      5660.37     92.21479     184.5032     369.3744      2.442     7.66     1198.687     65.15359     222.4709        31     1.748     1.620  42.68   2
       343    859.1793    181.4841 307.5688272  +6.6636208     1071.986     2971.712     2522.003     92.36198     184.5032     369.5214      2.479     8.87     1199.478     65.15359     129.4722        23     1.549     1.418 -50.41   0
       344    567.2877    179.1723 307.6903974  +6.6548993     748.7287     1951.358     3228.099     92.80215     184.5768     369.4847      3.193     5.90      1200.28     65.15359     104.4171        10     1.374     0.713 -66.72   0
       345    366.5972    179.7692 307.7739073  +6.6479835     600.2655     1670.973     2361.211     92.06737     184.6504     369.3744      2.599     4.92     1209.913     65.15359     81.35095         5     1.070     0.641  26.46   0
       346    370.5974    177.3866 307.7723228  +6.6490995     640.6212     1299.334     2419.185     92.21479     184.5032     369.4479      1.853     3.50     1209.339     65.15359     83.61389         5     1.117     0.316  69.50   0
       347    115.8959    174.7772 307.8784178  +6.6416918     1200.071     4150.573     5146.729     92.65565     184.5768     369.4479      2.883    10.06     1229.568     65.15359     157.0701        35     1.906     1.706 -36.38   0
       348      1.3513    171.9888 307.9261844  +6.6390192     1372.974     1916.336     2238.671     79.90286     146.9643     278.2112      1.370     4.08      1237.42     65.15359     328.1953        12     1.436     0.522 -81.99  24
       349    799.0513    166.5404 307.5943562  +6.6677952     2959.292     8161.057     9233.144     92.65565     184.7975     369.6317      2.592     6.89     1201.541     65.15359     333.1796        51     1.952     1.721 -76.04   0
       350    744.1811    167.2464 307.6171712  +6.6656863     1409.901     4133.366     4261.879     92.21479     184.7975     369.4111      2.614     9.89      1201.58     65.15359     158.2736        34     1.721     1.685 -43.70   0
       351     38.0377    164.1885 307.9111800  +6.6434619     1227.513     4008.253     4719.227     92.06736     184.6504      369.264      2.836     9.31     1234.865     65.15359     167.5034        37     1.968     1.634 -74.47   0
       352    739.0176    156.2700 307.6196894  +6.6700435      722.962     1744.136     1815.698     92.06736      184.724     369.5582      2.454     4.67     1200.971     65.15359     92.80005         7     1.198     0.516  -0.74   2
       353    737.7158    153.5994 307.6203210  +6.6711021     706.8931     1501.563     2549.629      91.7718     184.2822      369.264      2.331     3.52     1200.841     65.15359     111.3384         5     0.760     0.470  78.45   3
       354     65.7941    148.6747 307.9001531  +6.6507883     3706.198     12447.11     15398.57     92.21479     184.2822     369.4847      2.824     7.35     1232.206     65.15359     485.7836        62     2.157     1.879 -71.35   0
       355    395.8007    148.2794 307.7628147  +6.6619457     936.5804     2805.476      3461.83      91.7718     184.1347     369.3376      2.983    10.36     1205.236     65.15359     109.5146        19     1.886     1.587  66.52   2
       356    608.4359    140.2910 307.6745795  +6.6723053     7044.422     23445.64     29412.55     92.80215     184.7975     369.6685      2.873     7.71     1199.175     65.15359     732.1134        77     2.225     1.950 -57.65   0
       357    508.6340    137.1012 307.7162276  +6.6703076     1736.579      5787.76     7534.867     92.65565      184.724     369.8154      2.985    10.86     1199.979     65.15359     211.3098        42     2.344     1.403 -46.32   2
       358    233.8438    133.1771 307.8307338  +6.6627849     3190.562     11378.47     15800.69     92.06736      184.724     369.4111      3.298    10.32     1224.234     65.15359     403.2206        76     2.858     1.956 -42.32   0
       359    413.7487    132.1647 307.7558879  +6.6691905     7586.948     27768.12     34445.24     92.50893      184.871     369.5214      2.921     8.37      1202.62     65.15359      915.209        85     2.282     2.106 -68.86   0
       360    891.1855    131.8938 307.5571696  +6.6851384     1210.422     2771.411     2939.565     92.36198     184.5768     369.4479      2.327     7.01     1194.448     65.15359     159.8397        21     1.636     1.140  88.47   0
       361    222.6471    129.4016 307.8355216  +6.6639694     1116.311     3818.763     5526.366      91.9197     184.5032     369.1537      3.377     9.76     1224.851     65.15359     205.4177        35     1.956     1.825  88.72   2
       362    592.6959    131.4854 307.6814274  +6.6754156      1446.12     3227.111     4928.104     92.65566     185.3113     369.7419      3.523    10.79     1198.975     65.15359     175.2355        26     2.182     1.775 -81.69   2
       363    596.6870    130.6658 307.6797938  +6.6758862     1426.222     2678.708     4675.147     92.65566     185.0913     369.6685      2.835     6.40     1198.984     65.15359     171.7158        14     1.683     0.683  88.48   3
       364      1.6382    132.1628 307.9274136  +6.6554580     878.4953     1257.012     892.8281      84.8499     152.2309     283.9142      1.591     4.96     1235.587     65.15359     140.3379         9     1.175     0.592 -77.40  24
       365    273.6756    127.9340 307.8143322  +6.6662746     1388.962      2044.44     2681.677     92.80215      184.871     369.5582      1.426     0.00     1221.571     65.15359     792.1909         9     1.297     0.756  42.96   0
       366    663.1364    123.6925 307.6523696  +6.6809676     688.2089     1448.212      1833.99     92.65566     185.0913     369.7052      2.369     5.25     1199.002     65.15359     96.98486         6     1.379     0.565  48.56   0
       367    665.0612    120.1760 307.6516867  +6.6824821     650.0975      1259.93     1768.433     92.21479     184.7975     369.5214      2.085     4.07     1198.785     65.15359     103.7164         6     1.324     0.358   5.87   0
       368    151.9694    114.7933 307.8654325  +6.6676400     3910.599     13536.87     16835.56      91.9197     184.6504     369.3744      2.883     7.81     1226.382     65.15359      517.993        71     2.234     1.994 -61.98   0
       369    497.5941    113.2401 307.7216267  +6.6797845     1031.348     2865.907     4382.392      91.7718     184.5032     369.3008      3.050     7.33     1199.668     65.15359     160.9954        16     1.991     0.756 -61.05   2
       370    494.3138    114.3659 307.7229542  +6.6792111     878.8089     1787.615      2491.01     92.65566      184.724     369.6317      2.417     3.38     1199.785     65.15359     122.5973         5     0.729     0.477  75.96   3
       371    897.3869    111.9403 307.5552580  +6.6935754     2190.215     5563.012     6417.027      91.9197     184.7975      369.264      2.494     6.28     1193.055     65.15359     233.4731        36     1.629     1.524 -51.98   0
       372    698.3370    111.6807 307.6381216  +6.6870902     849.2281     1984.899     1961.474     92.80215     184.9444     369.6317      2.239     6.36     1198.208     65.15359      113.415         9     1.397     0.812 -21.28   0
       373    961.9948    108.3647 307.5284845  +6.6971872     1411.544     2981.132     3192.689      91.7718     184.6504     369.3744      2.206     6.20     1191.287     65.15359     172.1865        20     1.450     1.142 -32.88   0
       374    680.3387    105.2165 307.6458308  +6.6891602      3026.39     7192.947     8112.284     92.06737     184.7975     369.4111      2.322     7.27     1197.844     65.15359     328.2325        32     2.160     1.044  78.47   3
       375    683.3456    104.6853 307.6445970  +6.6894791     2673.852      4803.81     5737.812     92.65566      184.871     369.8154      1.935     5.51     1197.832     65.15359     289.0704        23     1.654     0.979 -86.95   3
       376    603.4910    103.9107 307.6778624  +6.6871496     1297.989     2949.461     2673.462     92.65565     185.4579     369.7419      2.333     6.21     1198.509     65.15359     152.5981        15     1.581     0.740  76.96   2
       377    600.5105    105.9994 307.6790327  +6.6861890     1269.445     2371.802     2171.975      91.7718     184.2822     369.3008      2.082     6.31     1198.544     65.15359      153.051        14     1.345     0.832  65.96   3
       378    402.2081    100.5541 307.7617576  +6.6818473     2021.945     7467.673     9291.473     92.06737      184.724     369.2272      2.932     8.53     1204.364     65.15359      242.661        56     2.129     1.881 -50.00   0
       379      3.4416    100.5065 307.9277350  +6.6685773     3709.496        10540      12562.7     92.80215     177.4476     315.7201      2.664     7.39     1233.654     65.15359      457.906        53     2.158     1.643 -82.41  24
       380    298.6832     95.7055 307.8050118  +6.6804027     4742.085     16250.12     21497.64     92.36198     185.3113     369.7787      3.081     7.60     1220.711     65.15359      532.226        75     2.249     2.050 -74.19   0
       381     72.6284     96.0432 307.8990897  +6.6727283     997.4388     3041.926     4190.043     92.21479     184.9444     369.5214      3.380     9.08     1228.641     65.15359     122.3282        20     1.811     1.272  -9.66   0
       382    363.4835     95.2169 307.7780562  +6.6827610      878.113     1719.468     2732.641     92.21479     184.5032     369.5582      2.145     5.44     1210.054     65.15359     132.0808        10     1.272     0.744  20.82   2
       383    365.8443     92.6532 307.7771601  +6.6838971     872.5804     2098.954     2575.208     92.65566      184.871     369.6317      2.351     6.84     1209.646     65.15359     124.6763        10     1.944     0.675  30.25   2
       384    617.1074     84.2124 307.6728576  +6.6957279     3537.187     11760.25     14831.85     92.36198     184.5768     369.4111      3.038    14.52     1197.556     65.15359     372.1772        73     3.078     1.906 -39.53   3
       385    625.5018     88.8169 307.6692084  +6.6941069       4274.8     13773.18     16778.38     92.65566     184.6504     369.3744      2.833     7.53     1197.679     65.15359     437.6246        63     2.107     1.903 -76.82   3
       386    627.0223     81.4701 307.6688228  +6.6971882     1236.063     3491.562     5574.128     92.21479     184.7975     369.5949      3.434     9.75     1197.223     65.15359     174.6207        27     1.911     1.387 -43.48   3
       387    790.6132     90.3344 307.6004289  +6.6989544     718.0086     1780.182     2969.573     92.06737     184.6504     369.5214      2.610     5.45     1194.143     65.15359     104.1757         7     1.490     0.562  21.03   2
       388    225.8459     86.0265 307.8356558  +6.6819697     2343.158     8112.332     11278.73     92.06736     184.9444     369.5214      3.113     8.14     1223.985     65.15359     289.5771        57     2.105     1.916 -63.47   0
       389    387.1061     84.4875 307.7685856  +6.6879731     2907.225     10335.17      12516.5     92.65565     185.3846     369.7052      2.879     7.83     1206.816     65.15359     331.4121        65     2.147     1.997 -59.65   0
       390    649.1102     81.8924 307.6596144  +6.6977468         7731     21049.87     32210.41     92.65566     185.4579     369.6685      3.289     8.18     1196.902     65.15359     828.0063       106     2.905     1.996 -41.61   0
       391    860.3033     85.4676 307.5715831  +6.7032696     928.4143     2245.833     2536.407     92.65566     184.9444     369.6317      2.629     6.23     1192.138     65.15359     144.2645        12     1.435     0.932 -39.60   0
       392    702.7141     84.7081 307.6372067  +6.6983628     719.3983     1516.874     2219.945     92.36198     185.3846     369.7419      2.537     4.22     1196.406     65.15359     105.6193         6     0.756     0.671 -85.45   3
       393    700.7515     81.9507 307.6381164  +6.6994352     770.7908     1584.208     2387.418     92.65565      184.724     369.5949      2.848     9.95     1196.216     65.15359     121.3547        12     1.861     1.483   6.52   2
       394     34.5924     78.6708 307.9155090  +6.6786252     1379.752      3111.68     4009.358     92.06737     184.4296     369.5214      2.417     8.24     1229.915     65.15359     188.6174        23     1.971     1.177 -53.09   2
       395     31.7123     76.9657 307.9167654  +6.6792325     920.8731     1668.922     2254.765     92.65565      184.724     369.6317      2.036     5.36     1229.915     65.15359     143.6779        10     1.258     0.644 -75.51   3
       396    124.3430     75.2879 307.8782672  +6.6830158     1901.515     6261.033     8671.216     92.65566      184.724     369.7787      3.063     8.59      1226.06     65.15359     228.5031        54     2.165     1.832 -75.90   0
       397    857.8749     71.1226 307.5730757  +6.7091072      1112.81     2671.533     3247.522     92.94841     185.1646     369.7052      2.581     8.60     1191.569     65.15359      140.323        21     1.734     1.193 -42.46   0
       398    602.4188     72.5673 307.6793638  +6.7000445      600.554     1121.802     1260.714     92.06737     184.6504     369.4479      1.715     4.37     1197.246     65.15359     101.1407         5     0.983     0.553  46.13   0
       399    942.6068     68.1610 307.5379038  +6.7131322     685.5653     1264.489      1932.09      91.7718     184.5032     369.3008      2.500     5.80     1189.654     65.15359     115.8395         6     1.259     0.751 -56.39   0
       400    765.9707     62.6887 307.6116158  +6.7095432     1336.527     2824.061     4099.561     92.80215     184.5768     369.4847      2.759     7.12     1193.591     65.15359     147.0795        21     1.771     0.939  80.60   2
       401    769.1848     60.8746 307.6103388  +6.7103981     1059.618     2029.964     3298.448     92.06736     184.5768     369.4847      2.423     6.18     1193.397     65.15359     127.0834        13     1.368     0.785 -81.49   3
       402    592.4050     57.1249 307.6840520  +6.7060828     4806.163     15167.19     18792.89     92.21479     184.2822     369.5582      2.795     7.04     1196.821     65.15359     491.1372        71     2.165     1.922 -70.49   0
       403    731.7865     51.5992 307.6262183  +6.7129853     2240.144     6568.104      7950.68     92.21479     184.5032     369.3744      2.718     7.51      1193.53     65.15359     277.6581        44     1.858     1.689 -51.38   0
       404    218.9542     47.2460 307.8398349  +6.6977382     4160.429     14261.27     17286.88     92.65565      184.724     369.6685      2.864     7.63     1223.296     65.15359      545.589        69     2.171     1.983 -60.61   0
       405    734.9493     43.0847 307.6251880  +6.7166028     854.2055     2262.562      2780.97     92.65566     184.7975     369.7419      2.799     7.01     1192.747     65.15359     147.5359        13     1.611     0.855 -40.09   1
       406    469.7013     36.7020 307.7358169  +6.7104326     3080.551     10452.27     12870.06     92.65566     185.3113     369.4479      2.854     7.87      1200.54     65.15359     371.7919        63     2.222     1.889 -75.60   0
       407    552.6457   1014.9082 307.6683661  +6.3096295     911.2881     1615.059      1732.17     92.65565     184.7975     369.7787      1.935     5.45     1259.134     65.15359     117.2773        10     1.135     0.738   2.89   0
       408    780.3505     33.5308 307.6066098  +6.7220485     1115.239     2907.871     3873.215     92.65566     184.7975     369.6685      2.734     8.49     1191.747     65.15359     116.4178        23     1.555     1.295 -57.89   2
       409    317.8128     29.6279 307.7992803  +6.7082988     1255.484     4021.869     6923.073     92.06736     184.6504     369.5214      3.978    10.48     1217.707     65.15359     183.2311        32     2.019     1.516 -43.77   2
       410    820.3818     25.1081 307.5902287  +6.7268491     1628.841     4308.269     4706.743     92.50893     184.5768     369.4847      2.479     7.77     1190.719     65.15359     194.7042        35     1.812     1.520 -33.19   0
       411    993.0213     24.9842 307.5183656  +6.7326114      564.181     1141.307     973.2849     92.21479     184.5768     369.5214      2.043     4.97     1183.604     65.15359     93.62024         5     1.534     0.456  72.27   0
       412    796.8469     21.9457 307.6001320  +6.7273743     907.4771      2634.24     3242.289     92.65566      184.871     369.6685      2.745     8.80     1191.181     65.15359     120.3635        16     1.545     1.401 -13.61   2
       413    882.7721   1011.0718 307.5311801  +6.3221486     931.8085     1637.036     1299.456     92.36198     184.7975     369.5214      1.898     5.01     1256.697     65.15359     122.8417         9     1.008     0.704 -63.31   0
       414    719.0129   1004.3683 307.5995208  +6.3194937     1246.082     1841.819     2037.125     92.06736     184.5768     369.5582      1.687     4.96     1257.726     65.15359     184.4935        17     1.289     1.076 -23.49   0
       415    950.4172   1000.1895 307.5034073  +6.3288747     1263.344     1784.929     2583.318     92.36198     184.5032     369.4847      1.670     4.62     1254.161     65.15359     169.7865        14     1.212     0.886 -44.14   0
       416    471.3097     18.5413 307.7357596  +6.7179780     938.5643     1924.458     2729.758     92.50893      184.871     369.7787      2.115     5.44     1200.622     65.15359      129.536        10     1.245     0.672 -81.31   3
       417    637.6674    997.6417 307.6335823  +6.3195729     1961.559     3503.984     3820.246     92.65566     184.7975     369.7052      2.002     4.51     1258.304     65.15359     290.5881        21     1.347     1.105  87.66   0
       418    504.8310    999.8295 307.6887613  +6.3142633     843.8309     1420.657     1106.896     92.06736     184.5768     369.3376      1.674     5.60      1259.78     65.15359     137.5244         9     1.452     0.608 -32.90   0
       419    467.9589     20.0517 307.7371035  +6.7172436     902.5159      1772.19     2338.412     92.65566     184.9444     369.6317      2.541     5.10     1200.839     65.15359     130.6188         8     0.945     0.778   2.48   3
       420    927.4073    995.8126 307.5131251  +6.3299198     617.4266     967.9495     558.6062     92.21479     184.6504     369.5214      1.673     3.45      1254.14     65.15359     89.07166         5     0.757     0.453 -71.78   0
       421    178.1999    993.3287 307.8248371  +6.3060839     1470.687     3032.911     3018.812     92.06736     184.2822     369.3744      2.127     7.55     1259.311     65.15359     156.0648        20     1.489     1.123 -72.28   0
       422     34.6424    994.1030 307.8845193  +6.3009798     2151.005     4211.486     4197.361     92.65565     184.7975     369.8521      2.084     4.82      1259.66     65.15359     273.7655        27     1.497     1.287  86.24   0
       423     52.1849    993.5543 307.8772416  +6.3017912     1386.829      2608.13     3264.132      91.9197     184.6504     369.3376      2.105     6.64     1259.658     65.15359      163.397        20     1.487     1.061 -15.03   0
       424    799.1076    993.9721 307.5665541  +6.3264350     769.6611      1241.86     1159.164     92.80215     184.5768     369.4847      1.877     4.84     1256.302     65.15359      99.1084         7     1.021     0.649 -28.07   0
       425    175.6340     29.6932 307.8584600  +6.7035353     1634.496     2527.446     3370.945     92.80215      184.724     369.7052      1.352     4.30     1223.429     65.15359     297.1969         8     1.102     0.570 -37.42   3
       426    632.4412    986.9682 307.6361148  +6.3238031     5135.444     9921.029      10623.5     92.21479      184.724     369.4847      2.016     4.87     1257.833     65.15359     556.2307        40     1.686     1.359 -45.13   0
