#   1 NUMBER                 Running object number                                     
#   2 X_IMAGE                Object position along x                                    [pixel]
#   3 Y_IMAGE                Object position along y                                    [pixel]
#   4 ALPHA_J2000            Right ascension of barycenter (J2000)                      [deg]
#   5 DELTA_J2000            Declination of barycenter (J2000)                          [deg]
#   6 FLUX_APER              Flux vector within fixed circular aperture(s)              [count]
#   9 FLUXERR_APER           RMS error vector for aperture flux(es)                     [count]
#  12 FLUX_RADIUS            Fraction-of-light radii                                    [pixel]
#  13 FWHM_IMAGE             FWHM assuming a gaussian core                              [pixel]
#  14 BACKGROUND             Background at centroid position                            [count]
#  15 THRESHOLD              Detection threshold above background                       [count]
#  16 FLUX_MAX               Peak flux above background                                 [count]
#  17 ISOAREA_IMAGE          Isophotal area above Analysis threshold                    [pixel**2]
#  18 A_IMAGE                Profile RMS along major axis                               [pixel]
#  19 B_IMAGE                Profile RMS along minor axis                               [pixel]
#  20 THETA_IMAGE            Position angle (CCW/x)                                     [deg]
#  21 FLAGS                  Extraction flags                                          
         1    616.9893     27.8213 307.6806006  +6.6761914     2396.906     5376.866     6634.948     87.91272     175.9658     352.2122      2.452     6.89     1077.307     62.11401     294.2384        38     2.070     1.298  84.33   0
         2    685.7927     18.5212 307.6523066  +6.6823276     1203.591     2305.784     2031.405     87.91272     175.6849     352.1421      1.897     6.49     1076.277     62.11401     154.5879        18     1.484     0.966 -70.61   0
         3    174.1869     11.4929 307.8652546  +6.6681204     7629.043     15657.13     16297.38     88.05305     175.9658     352.1771      2.095     4.83     1103.215     62.11401     861.1169        48     1.747     1.435 -67.75   0
         4    518.5261      9.6182 307.7221529  +6.6804202       2076.5         4206     4504.876     87.77217     176.1762     352.2823      2.064     5.29     1079.179     62.11401     232.4102        31     1.585     1.344 -53.39  16
         5    919.6577      8.8331 307.5553931  +6.6941190     3747.972     5677.002      5912.91     88.19315     176.3163     352.3173      1.647     3.45     1067.752     62.11401     457.2592        23     1.214     1.091 -65.99   0
         6    456.7793      7.6370 307.7478927  +6.6791746     1315.005     2816.646     3225.266     87.91272     175.9658     348.4767      2.169     6.79     1081.814     62.11401     159.0931        22     1.679     1.168 -35.18  16
         7    720.5945      7.2667 307.6382152  +6.6881357     1375.688     2717.022     2626.436     87.77217     175.8956     345.8808      2.030     5.90     1073.507     62.11401      167.813        20     1.309     1.271 -42.88  16
         8    984.4030      5.1708 307.5285949  +6.6977849     1776.158     2827.022     2749.928     87.77217     175.9658     324.5562      1.638     4.09     1061.521     62.11401     249.5277        20     1.376     0.931 -80.78  16
         9    703.9042      2.3382 307.6453208  +6.6896144     5545.741     8185.361     8512.837     87.49039     155.9544     282.9782      1.631     4.22     1074.452     62.11401     628.6038        26     1.355     1.086 -24.32  24
        10    624.1900      1.9224 307.6784791  +6.6871267     2379.778     3515.261     3333.544     83.74111     149.1564     275.6407      1.536     4.46     1076.327     62.11401     315.7383        16     1.277     0.885 -22.01  24
        11    706.7059   1007.9622 307.6103374  +6.2744214     1157.741     1882.118     2756.494     88.47268     176.1061     352.5275      1.870     4.48     1128.956     62.11401     171.3987         8     0.858     0.665 -54.88   0
        12    886.8025   1022.2122 307.5350364  +6.2745325      1693.62     2214.363     2194.076     87.91272     161.3243     290.1302      1.364     3.18     1126.682     62.11401     265.8127        12     1.078     0.687 -87.05  24
        13    788.9733   1023.6916 307.5756306  +6.2706659     2571.091     2989.545     3236.011     76.49863     139.2241     264.5327      0.971     2.01     1126.882     62.11401     797.0931        10     0.919     0.521   4.58  24
        14    579.6289   1021.3264 307.6626823  +6.2646653     75362.98       111457     116263.4     88.19315     171.3446     304.2547      1.597     3.27     1132.888     62.11401     10485.23        74     1.506     1.242 -60.59  24
        15    236.8922   1007.3372 307.8055396  +6.2589881     1377.932     2019.472     1686.482     88.33302     176.3863     352.4575      1.575     3.51     1133.362     62.11401      209.775        13     1.030     0.883 -69.40   0
        16    435.3556   1006.0029 307.7231357  +6.2661764     714.7347     1132.032     1089.751     87.63139     175.7552     352.0018      1.464     4.07     1132.578     62.11401     119.0206         7     1.267     0.374 -75.71   0
        17    727.8627   1004.7626 307.6016551  +6.2764476      1134.08     1379.965     866.7732     88.33302     176.3163     352.3874      1.409     4.73     1127.854     62.11401     187.1532         9     1.026     0.618 -57.01   0
        18    358.5524   1003.0379 307.7551428  +6.2648338     1935.224     2960.099     3188.162     88.19315     176.2462     352.2823      1.614     4.39     1133.461     62.11401     222.8829        16     1.290     0.860 -41.39   0
        19    540.9502    993.1332 307.6797001  +6.2750173     4069.794      6417.19     6921.678     88.19315     176.1061     352.3173      1.696     3.57     1131.725     62.11401     590.9124        27     1.424     1.040 -77.11   2
        20    538.1006    985.2888 307.6811480  +6.2781617     8177.583     12567.49     13618.75     88.33302     176.7359     352.3524      1.667     3.54     1131.418     62.11401     1052.932        34     1.473     1.079 -70.61   2
        21    745.4114    992.5231 307.5947755  +6.2820867     8363.027     12104.46     12771.99     87.91272     175.8254     352.2122      1.570     3.11     1126.773     62.11401     1125.028        35     1.358     1.091 -72.83   0
        22    511.4363    994.4975 307.6919157  +6.2734687     1043.292      1579.72     1409.128     88.33302     176.1061     352.5625      1.663     3.54     1131.832     62.11401     163.3765         9     1.070     0.617 -61.81   0
        23    291.1606    991.9281 307.7835147  +6.2671675     14529.99     22703.63     24830.57     88.19315     176.2462     352.4575      1.706     3.38     1133.383     62.11401     1952.565        56     1.786     1.231 -50.52   0
        24    806.3920    992.0280 307.5694568  +6.2843219     1128.044     1829.206     2001.713     87.91272      176.036     352.1771      1.536     4.31     1125.292     62.11401     174.1372         9     1.081     0.619 -51.25   0
        25    415.2986    992.2958 307.7319301  +6.2711667     868.5652     1288.185     1723.835     88.33302     176.8058     352.2122      1.539     5.33     1132.417     62.11401     128.0983        11     1.195     0.846 -65.93   0
        26    262.5567    989.3204 307.7954859  +6.2672872      946.134     1430.858     1094.141     88.33302     176.2462     352.3524      1.615     3.99     1133.264     62.11401     147.6953         8     1.020     0.653 -57.24   0
        27    906.6697    985.9441 307.5279986  +6.2901710     9897.479     13977.75     14504.49     88.33302     176.1061     352.3524      1.470     2.99     1123.894     62.11401     1617.873        36     1.394     1.023 -72.96   0
        28    880.3400    982.0617 307.5390682  +6.2908985     13433.76        19549     20871.22     88.33302     176.2462     352.4224      1.533     3.03      1124.28     62.11401     2050.264        44     1.444     1.158 -63.51   0
        29    592.9965    982.6891 307.6584286  +6.2810671     1348.846     2316.879     2423.719     87.77217     175.8956     352.0369      1.833     4.85     1131.291     62.11401     190.2748        13     1.208     0.759 -87.27   0
        30   1002.0909    981.4243 307.4885051  +6.2952095     5558.025     7635.344     7101.123     88.47268      176.036     352.2122      1.432     2.76     1121.658     62.11401     886.8822        26     1.227     0.939 -69.62   0
        31    524.7642    981.0205 307.6868323  +6.2794791     4089.273     6463.639     7195.659     87.77217      176.036      352.107      1.743     3.63     1131.314     62.11401     551.6575        28     1.454     1.143 -20.41   0
        32    634.3771    980.3035 307.6413168  +6.2834324     1460.565     2271.875      2132.97     88.33302     175.9658     352.1771      1.624     4.12     1130.175     62.11401     206.8358        16     1.179     1.013  59.06   0
        33     59.6698    979.9059 307.8800896  +6.2643780     744.0872     1100.219     788.7285     88.19315     176.3163     352.3874      1.497     3.50      1133.24     62.11401     131.0839         5     0.804     0.439  75.44   0
        34    477.7479    977.7908 307.7064742  +6.2792430     2023.766      3313.79     3093.901     87.77217     176.1061      352.107      1.706     3.81     1131.432     62.11401     291.1644        19     1.332     0.903 -64.02   0
        35    912.0792    969.6429 307.5262978  +6.2970828      48335.5     68538.19      71622.2     88.33302     176.2462     352.3524      1.506     3.03     1122.666     62.11401     7251.584        62     1.450     1.161 -65.34   0
        36    219.5376    968.1771 307.8140714  +6.2745783     1790.248     2807.709      3365.41     87.91272     176.2462     352.2823      1.754     3.75     1132.754     62.11401     239.6538        16     1.202     0.860 -69.39   0
        37    618.5481    966.3704 307.6483618  +6.2886584     804.1262     1187.292     772.5378     88.05305     176.3863     352.2823      1.670     4.90     1130.104     62.11401     117.0154         8     0.986     0.689  86.85   0
        38    107.7702    966.9097 307.8605466  +6.2713573     790.4269     1120.102     669.3652     88.47268     175.9658     352.3173      1.472     4.31      1131.93     62.11401     135.9628         6     0.815     0.648 -19.92   0
        39    809.9856    963.4843 307.5689220  +6.2962292     2490.171     3603.222     3344.233     87.91272     175.9658     352.2472      1.578     3.32     1124.046     62.11401     386.5648        24     1.388     0.979 -63.41   0
        40    758.2075    961.2092 307.5905109  +6.2954446     6973.107     10656.47     11690.61     87.63139      176.036     352.2472      1.649     3.24     1125.176     62.11401     935.1499        35     1.505     1.048 -65.90   0
        41    227.7702    960.4454 307.8109123  +6.2780467     1445.922     2145.724     1913.524     87.91272     176.2462     352.2472      1.532     4.85     1132.743     62.11401      195.217        15     1.367     0.798 -63.64   0
        42    544.9722    960.8821 307.6791146  +6.2884701      750.468     1048.487     615.8474     88.19315      176.036     352.3173      1.477     4.20     1130.427     62.11401     121.5667         6     0.888     0.713 -46.34   0
        43    192.3342    960.7021 307.8256253  +6.2767542     772.3182      1201.87     1655.381     88.33302     176.3163     352.4224      2.175     3.67     1132.318     62.11401     121.6028         7     0.992     0.848 -73.93   0
        44    946.4515    956.3258 307.5124633  +6.3037253     7908.981     10903.16     11459.45     88.33302     176.3163     352.4224      1.481     2.95      1120.83     62.11401     1159.706        32     1.346     0.998 -65.28   0
        45     52.8602    958.8618 307.8836302  +6.2728397     2605.831     4050.597     4074.878     88.33302     176.2462     352.4224      1.621     3.66     1133.063     62.11401     351.8571        22     1.270     1.062 -77.85   0
        46    920.1144    948.2514 307.5236767  +6.3061841     2371.975     3335.052     3760.234     88.33302     176.1762     352.4925      1.472     3.10     1120.887     62.11401     362.0533        19     1.173     0.947 -72.88   0
        47    253.1279    944.3408 307.8009212  +6.2855461     4215.003     6705.956     6776.359     88.47268     176.2462     352.3524      1.710     3.66     1132.813     62.11401     505.2983        31     1.439     1.137 -84.41   0
        48    779.8410    944.5599 307.5820818  +6.3030407     1460.552     2173.819     2554.521     88.05304     176.2462     352.2472      1.622     3.65     1123.965     62.11401     243.2831        14     1.136     0.852 -51.08   0
        49    640.9160    944.0584 307.6398189  +6.2986184     4521.383      6923.25     6409.682     88.33302     176.2462     352.4575      1.560     3.38     1127.911     62.11401     608.9501        26     1.385     0.991 -62.40   0
        50    990.3335    943.6654 307.4946553  +6.3104122     756.4293     1148.433     962.8287     88.33302     176.2462     352.4224      1.749     4.19     1118.954     62.11401     106.6122         7     1.093     0.458 -60.49   0
        51    463.0140    942.5759 307.7137817  +6.2932932     973.3652     1362.582     1312.802     88.05304      176.036     352.3173      1.543     5.79     1130.587     62.11401     138.6207        14     1.376     0.937 -70.36   0
        52     21.9504    942.0140 307.8970411  +6.2787601     2208.206     3326.914      3556.11      87.6314     176.1762     352.0719      1.524     3.79     1133.274     62.11401     293.8009        19     1.262     0.955 -74.23   0
        53    872.5385    940.6697 307.5436981  +6.3077327     1000.608     1183.712      826.532     88.47268     176.2462     352.4224      1.288     3.80     1121.931     62.11401     174.1254         8     1.046     0.498 -88.66   0
        54    964.5949    938.2584 307.5055306  +6.3117897     781.4025     1130.226     936.7277     87.77217     176.1061     352.1421      1.429     2.61     1119.052     62.11401     114.1798         5     0.702     0.463 -72.05   0
        55    565.6627    936.6630 307.6713335  +6.2991622     1743.998      2494.15     2660.877     88.33302     176.2462     352.4224      1.632     4.14     1129.407     62.11401      187.012        18     1.199     1.010 -69.27   0
        56    289.3183    937.7723 307.7861075  +6.2894698     848.4139     1296.342     1044.031     88.19315      176.036     352.3173      1.615     5.74      1133.19     62.11401     112.5348         9     1.070     0.868 -51.61   0
        57    996.8625    935.9683 307.4922005  +6.3138079     836.3856     1550.971     1632.949     88.05304     176.3163     352.3524      1.647     6.15      1118.16     62.11401     155.6218        12     1.658     0.711 -69.38   0
        58    604.8005    932.8015 307.6552026  +6.3020627      1172.46     1676.354     1260.723     87.63139     175.7552     352.0369      1.383     3.98     1129.133     62.11401     182.8761        11     1.111     0.702  85.91   0
        59     55.0087    933.2142 307.8836051  +6.2835028     781.0322     1337.559     1701.403     88.05304     175.9658     352.2823      2.019     4.93     1132.508     62.11401     137.5111         7     1.012     0.679  -2.05   0
        60    284.9333    930.8266 307.7881636  +6.2921913     1347.473     1978.335     2769.977     87.91272     176.1061     352.2823      1.644     4.97     1133.113     62.11401     159.1334        14     1.192     0.867 -50.96   0
        61    751.4863    926.8553 307.5944574  +6.3094078      965.205     1510.446     1861.299     88.33302     176.1762     352.5625      1.753     4.00     1124.024     62.11401     141.1227         7     0.907     0.639 -38.08   0
        62    127.5564    926.1658 307.8537038  +6.2888457     490.4596     914.4725     869.8669     88.05304     176.2462     352.2122      1.944     4.80     1131.913     62.11401     100.7567         5     1.073     0.608 -25.01   0
        63    889.0392    923.3161 307.5374244  +6.3154481     7693.142     10970.17     11062.53     88.33302     176.1762     352.3173      1.504     3.03     1120.377     62.11401      1167.73        28     1.291     1.014 -71.40   0
        64    425.0709    920.5168 307.7302891  +6.3011350     2169.744     3159.668     3594.605     88.61211     176.5262     352.4224      1.567     3.58     1130.646     62.11401     263.2563        18     1.182     0.981 -89.58   0
        65    326.7253    919.0041 307.7711995  +6.2984717     8686.383     13949.04     14967.27     87.91272     175.6849     352.2823      1.728     3.63       1132.5     62.11401     1098.366        36     1.487     1.134 -76.27   0
        66    246.8430    917.9312 307.8044238  +6.2962417     6658.722     10789.62     10952.18     88.33302     176.1762     352.4575      1.690     3.54     1132.538     62.11401     774.3273        37     1.469     1.212 -81.84   0
        67    575.1599    912.5381 307.6681994  +6.3094418      1082.84     1441.734     1089.828     88.33302     176.2462     352.4575      1.468     4.63     1128.048     62.11401     155.7104        12     1.245     0.750 -82.01   0
        68    759.2254    911.8029 307.5917475  +6.3158817     720.7424       764.74     656.3605     87.91272     175.8956     352.1771      1.434     4.80     1123.273     62.11401     101.0002         8     1.182     0.552 -71.40   0
        69    904.9191    908.3008 307.5313301  +6.3221772     1111.388     1361.828     1571.832     88.33302     176.7359     352.4925      1.334     3.30     1119.243     62.11401     169.6479        11     1.013     0.706 -72.21   0
        70    137.3923    908.1316 307.8502270  +6.2966225     668.5143     722.5339     953.3802     87.77217     175.9658     352.2823      1.340     4.99     1131.819     62.11401     99.10193         6     1.143     0.616 -13.10   0
        71    861.2077    907.3647 307.5495235  +6.3211096     714.2697     1057.059     336.2199     87.77217      176.036     352.1421      1.561     2.64     1120.556     62.11401     115.3031         5     0.715     0.455  16.58   0
        72    972.1174    904.0982 307.5035501  +6.3261470     808.4113     1224.776     1991.938     88.33302      176.666     352.4925      1.555     3.99     1116.752     62.11401     126.2217         6     0.949     0.479 -50.31   0
        73    741.1882    901.4810 307.5995886  +6.3195435     1638.661     2316.699     2884.826     87.91272     175.8956     352.2122      1.553     4.15     1123.272     62.11401     242.5896        14     1.173     0.820 -73.12   0
        74    565.3687    902.1650 307.6726166  +6.3133988     640.7324     941.5388     510.9664     87.91272     175.9658      352.107      1.545     4.13     1127.403     62.11401     98.93604         5     1.136     0.430 -77.95   0
        75    834.2364    901.7209 307.5609194  +6.3225428     655.5247      744.891     679.7461     88.19315     176.3163     352.3874      1.266     3.81     1121.073     62.11401     109.2446         5     0.865     0.482 -46.15   0
        76    972.5572    897.1976 307.5035987  +6.3290114     1525.676     2134.003     2496.605      87.6314     175.8254     352.0369      1.478     4.69     1116.307     62.11401     214.3212        11     1.218     0.643 -58.66   0
        77    605.6319    897.7711 307.6560357  +6.3165567     636.6523     940.2279     890.8038     87.77217     175.9658     352.1421      1.403     3.46     1126.965     62.11401     106.1622         5     1.156     0.299 -35.91   0
        78    526.2707    897.1854 307.6890289  +6.3141502     1073.012     1706.237     1723.681     87.77217     176.1762     352.2823      1.688     4.67      1127.86     62.11401     155.7729        10     1.063     0.786 -46.35   0
        79    659.8322    894.7831 307.6336165  +6.3195982     2518.336     3894.525     3996.107     87.91272     175.9658     352.2472      1.630     3.78     1124.647     62.11401     350.9885        20     1.327     0.930 -73.43   0
        80   1010.8738    894.1041 307.4877816  +6.3315622     701.6606     1033.099     1108.762     88.05304     176.3863     352.3874      1.466     3.30     1114.515     62.11401     135.6454         6     0.780     0.540 -48.77   0
        81    950.2137    892.8448 307.5130284  +6.3300662     663.1585     1037.289     965.0479     87.63139      176.036      352.107      1.587     3.42     1117.065     62.11401      127.323         5     1.004     0.532 -57.85   0
        82     56.5508    891.2642 307.8843833  +6.3008777     2693.633     4170.565     3955.037     88.19315     176.1061     352.4575      1.678     3.96     1131.868     62.11401     330.4473        20     1.371     0.892 -71.73   0
        83    937.9115    890.2766 307.5182262  +6.3307178     948.9524     1345.384     821.8718     88.33302     176.5961     352.4575      1.423     5.16     1117.463     62.11401     167.3212         9     1.245     0.716  88.01   0
        84    820.5864    891.1436 307.5669460  +6.3264566     966.4401      1330.76     1416.379      87.6314     176.1061     352.0369      1.385     3.99      1121.05     62.11401     131.1481         7     0.846     0.639 -10.91   0
        85    557.0894    891.2401 307.6764243  +6.3176341     534.0641     520.7154     366.2362     88.33302     176.2462     352.4224      1.145     3.35     1126.759     62.11401     101.5552         5     0.984     0.331 -43.27   0
        86    199.9792    890.0350 307.8248360  +6.3061923     1995.677     3195.865     3040.491     87.77217      176.036     352.1421      1.654     3.86     1132.074     62.11401     248.6499        20     1.266     0.989 -52.43   0
        87     74.0786    890.1080 307.8771404  +6.3019429      1806.91     2716.846     2700.094     88.05304     176.5262     352.4575      1.596     3.34     1131.775     62.11401     274.8212        17     1.130     0.984 -77.65   0
        88    339.0366    886.2559 307.7671892  +6.3124071     897.1409      1523.54     1579.745     88.19315     176.2462     352.4224      2.123     6.15     1131.683     62.11401       114.66        11     1.394     0.763 -70.43   0
        89    654.4227    883.9568 307.6362281  +6.3238887     6628.076     10374.59     10798.23     87.77217     176.1061     352.1771      1.656     3.43     1124.433     62.11401     850.0135        34     1.436     1.106 -61.35   0
        90    791.7529    884.7497 307.5791410  +6.3281371     765.2164     972.6074     1223.242     88.33302     176.1061     352.4224      1.235     3.85     1121.661     62.11401     133.6593         5     0.999     0.426 -85.64   0
        91     14.6934    883.2836 307.9020431  +6.3027691     982.8836      1721.18     2241.893     88.05305     176.7359     352.5275      1.897     2.60     1131.896     62.11401     179.9402         7     0.778     0.634 -11.54   2
        92    892.1517    880.1586 307.5375790  +6.3333745     3015.025     4232.585     3877.015     88.33302     176.1762     352.2823      1.477     3.35     1118.486     62.11401     456.3136        17     1.269     0.782 -71.54   0
        93     27.9617    881.1835 307.8966018  +6.3040815     1074.114      1611.81     1813.692     87.91272     176.1061      352.107      1.596     4.18     1131.813     62.11401     152.7689        10     0.898     0.803 -85.88   0
        94    337.4948    877.2309 307.7681343  +6.3160824     14902.59     24382.66     25885.42     88.47268      176.036     352.4224      1.783     3.76     1131.542     62.11401     1758.575        46     1.566     1.246 -67.11   0
        95     71.9370    878.2928 307.8784297  +6.3067501     1266.396     2048.895     2194.795     88.33302     176.3863     352.4575      1.737     5.01     1131.647     62.11401     179.2937        14     1.258     0.851 -51.77   0
        96    208.6310    876.7197 307.8216912  +6.3119807     1146.193     1958.951     1806.801     88.19315     176.2462     352.3524      1.727     4.79     1132.126     62.11401     160.3735        14     1.367     0.801 -52.69   0
        97    415.3262    868.3168 307.7360972  +6.3223658     1007.935     1548.057     1209.723     88.47268     176.5961     352.4575      1.676     5.11     1129.375     62.11401     125.3625        10     0.903     0.875 -41.89   0
        98    100.9563    867.9218 307.8667239  +6.3120059     1639.523     2220.348     2401.349     88.19315     176.2462     352.4224      1.531     3.87     1131.528     62.11401     224.2706        18     1.180     1.023 -77.37   0
        99    668.8596    864.0181 307.6309000  +6.3326041     693.0947     1219.592     1672.671     87.91272     176.1061      352.107      2.208     3.78     1123.172     62.11401     122.0654         5     1.263     0.325 -59.32   0
       100    495.6009    864.8336 307.7028612  +6.3264861     733.0861     1045.512     952.6149     87.34917      176.036      352.107      1.573     5.17     1128.151     62.11401     104.6908         7     1.031     0.734 -86.12   0
       101    853.1769    861.5245 307.5543986  +6.3397731     2244.622     2899.159     3251.729     87.91272     176.1061     352.3173      1.455     3.94     1118.751     62.11401     288.0969        19     1.312     0.908 -71.05   0
       102     84.5543    861.5331 307.8737544  +6.3140941     2314.099     3569.152     4272.828     88.33302     176.1762     352.4224      1.732     3.82     1131.414     62.11401     287.4958        19     1.267     0.967 -62.48   2
       103    882.5687    861.7913 307.5421770  +6.3406408     2188.838     3171.103     3324.797     87.77217      176.036     352.1771      1.513     3.36     1117.882     62.11401     312.8402        17     1.227     0.846 -74.17   0
       104    816.4664    860.7292 307.5696789  +6.3388797     3074.577      4497.25     4823.564     88.33302     176.3163     352.3874      1.597     3.29     1120.089     62.11401     415.2858        21     1.231     1.019 -74.61   0
       105    552.5217    852.3989 307.6796295  +6.3335216     302897.5     496427.5     527163.3      87.4904     175.6147     352.1771      1.790     3.67     1124.836     62.11401     34488.71       170     1.749     1.462 -71.86   0
       106    396.7900    855.0467 307.7442461  +6.3272263     6818.462     11353.67     12054.06     87.77217     176.1061     352.0018      1.776     3.84     1129.466     62.11401     802.1917        36     1.488     1.205 -73.28   0
       107    339.9729    853.4384 307.7679072  +6.3259906     10933.25     18632.62     19595.96     87.91272      176.036     352.2122      1.829     3.80     1130.912     62.11401     1199.041        55     1.683     1.348 -68.31   0
       108    640.8058    855.2729 307.6428506  +6.3352801     1139.235     1911.274      2208.86     87.91272     175.7552     352.2823      1.774     4.63     1123.368     62.11401      179.995        12     1.077     0.998  79.80   0
       109    658.2032    849.8068 307.6358057  +6.3381176     3228.913     5378.805     5785.326     87.63139     175.8956     352.2472      1.788     4.33     1122.561     62.11401     413.2704        29     1.512     1.118 -57.95   0
       110    890.7692    848.4219 307.5392181  +6.3464348     5736.605     8278.211     8629.935     87.77217      176.036     352.2122      1.535     3.11     1116.821     62.11401     865.3456        27     1.328     0.973 -65.77   0
       111    730.2229    846.2408 307.6060007  +6.3419907     745.1171     1216.244     646.7037     87.91272      176.036     352.1421      1.411     3.44     1121.078     62.11401     122.8231         5     0.972     0.352 -43.77   0
       112   1023.5987    842.7455 307.4842150  +6.3531947     3500.164     4600.158     5000.933     77.46092     141.1615     266.2076      1.210     3.10     1110.782     62.11401     802.7061        16     1.362     0.584 -85.29  24
       113    633.2257    843.6102 307.6463924  +6.3398437      3180.29     5393.424     5715.275     87.91272      176.036     352.2472      1.788     3.86     1122.942     62.11401     388.0862        29     1.411     1.188 -60.43   0
       114    821.4719    842.7753 307.5682018  +6.3464607     1594.685     2283.006     2597.569     87.91272     176.1061     352.3173      1.624     3.77     1118.775     62.11401     221.0454        13     1.130     0.755 -62.81   0
       115    625.5815    839.1578 307.6497184  +6.3414274     1703.372     3508.198     4180.109     87.77217      176.036     352.1421      2.479     8.51     1122.867     62.11401     235.6056        29     2.409     0.993 -65.88   0
       116    948.4374    842.0887 307.5154683  +6.3509681     794.6628     1334.309     1206.338     88.33302     176.1762     352.4224      1.652     4.72     1114.679     62.11401     127.9127         7     1.108     0.571 -53.48   0
       117    909.5957    836.2909 307.5318023  +6.3520708     3292.778     4858.524     4653.788     87.91272     175.8956     352.0719      1.576     3.16     1115.691     62.11401      493.759        22     1.341     0.913 -68.46   0
       118    320.4933    836.6489 307.7765672  +6.3322723     714.0664     1404.104      1051.84     88.19315     176.1061     352.5275      1.946     5.02     1130.951     62.11401     107.1516         7     0.983     0.726 -43.18   0
       119    367.8864    832.3298 307.7570213  +6.3356411     2324.747     4173.092     5043.747     88.47268     176.5262     352.4224      1.978     4.95     1129.566     62.11401     277.0889        26     1.518     1.166 -75.83   0
       120    504.1036    822.1402 307.7007662  +6.3444009     2593.831     4530.302     4199.737     88.05304     176.2462     352.4925      1.814     4.12     1125.454     62.11401     321.4373        25     1.406     1.108 -52.20   0
       121    848.8090    820.8469 307.5575788  +6.3564264     1038.842     1437.668     1404.768     87.77217     176.1762     352.0018      1.577     5.40     1116.256     62.11401      164.666        11     1.287     0.640 -55.88   0
       122    551.0581    818.2032 307.6813887  +6.3475943     5346.195     9155.815     9974.371     87.63139     176.1061      352.107      1.812     3.76     1123.996     62.11401     632.2708        33     1.482     1.188 -58.57   0
       123    557.5535    817.1529 307.6787252  +6.3482449     996.2753     1926.483     2190.397     88.33302     176.1061     352.3874      2.188     5.55     1123.757     62.11401     141.6171        10     1.158     0.750  68.58   0
       124    468.8576    816.9679 307.7155854  +6.3453596     1374.526     2402.953     2395.231     88.19315     176.3163     352.3173      1.838     3.74     1126.133     62.11401     215.7262        15     1.108     0.996  69.39   0
       125    886.4252    816.2501 307.5421026  +6.3595764     1533.282     2243.491     1957.272     87.91272     176.2462     352.2823      1.568     3.84     1114.905     62.11401     195.8752        15     1.181     0.835 -62.54   0
       126    111.0104    816.3319 307.8642910  +6.3336469     1167.012     2023.178     1990.567     87.77217      176.036     352.2122      1.873     4.87     1130.334     62.11401     163.0533        12     1.101     0.861 -46.21   0
       127    521.6310    812.1301 307.6938205  +6.3491199     17444.34     29293.76     30581.05     88.19315     176.2462     352.3524      1.792     3.79     1124.544     62.11401     2052.036        47     1.579     1.250 -64.79   0
       128    362.5092    814.6978 307.7598502  +6.3427425     542.8766      895.258     1174.022     88.33302     176.7359     352.3524      1.761     3.68     1129.192     62.11401      101.009         5     1.511     0.257 -49.87   0
       129    935.1025    810.3652 307.5220731  +6.3636256     4081.288     5832.793     6035.684     88.33302     176.1061     352.5625      1.487     3.02     1113.545     62.11401     625.6211        23     1.352     0.891 -67.15   0
       130     32.4339    802.7558 307.8973974  +6.3366179     1499.495     2653.304      2755.88     87.91272     176.2462     352.2823      1.816     5.54     1129.556     62.11401     207.5873        17     1.478     0.890 -63.83   0
       131    314.2892    800.7031 307.7803578  +6.3469089     2666.696     4878.425     5009.346     88.33302     176.7359     352.3874      1.888     4.52     1130.239     62.11401     297.4395        26     1.430     1.139 -59.99   0
       132     14.3862    798.9236 307.9050256  +6.3375948     1908.113      3257.15     3448.549     87.91272     175.9658     352.1771      1.766     4.47     1129.422     62.11401       271.35        23     1.494     1.005 -80.18   0
       133    779.7228    796.5571 307.5871016  +6.3641574      53123.4     81999.93        86018     88.19315     176.2462     352.4224      1.690     3.45     1117.315     62.11401     6588.017        70     1.588     1.241 -65.72   0
       134    718.9836    797.9670 307.6122931  +6.3615517     632.5378     912.2635     1262.742     87.91272     175.9658     352.2472      1.456     3.71     1118.609     62.11401     78.90637         5     0.637     0.621 -88.46   0
       135    237.4171    794.3683 307.8125122  +6.3469519     4477.528     8423.514     11828.53     87.91272      176.036     352.2472      2.814     4.53     1131.065     62.11401     504.1394        45     2.025     1.517 -29.97   1
       136    904.9459    791.7999 307.5352269  +6.3702897      8583.17     13094.55     13563.53     87.49039     175.8254     351.9316      1.584     3.20     1113.201     62.11401      1294.24        33     1.458     1.023 -65.34   0
       137    707.9860    791.1868 307.6170909  +6.3639852     19416.74     32379.82      35199.4     88.19315     175.8956     352.3173      1.789     3.63     1118.304     62.11401      2476.95        50     1.574     1.269 -65.75   3
       138    701.7131    787.6409 307.6198166  +6.3652405     81507.59     131893.3     139714.1     88.33302     176.2462     352.4224      1.763     3.56      1118.19     62.11401     9405.445        89     1.665     1.342 -65.51   3
       139    346.6516    788.6548 307.7673175  +6.3529668     17230.71     30245.89     31979.84     88.33302     176.2462     352.4224      1.898     4.03     1128.513     62.11401     1778.812        57     1.640     1.397 -75.29   0
       140    408.4907    786.5165 307.7416948  +6.3559176     18938.99     32813.32     34826.37     88.05305     176.5262     352.5275      1.898     3.94     1126.688     62.11401      1953.64        57     1.674     1.340 -69.01   0
       141    395.8487    788.5256 307.7468800  +6.3546653     1156.803     2068.304     2294.943     88.33302     176.3163     352.4224      2.019     6.71     1127.127     62.11401     140.3429        15     1.303     0.971 -18.73   0
       142    236.5187    773.1265 307.8136028  +6.3556937     779841.2      2095775      2354026     88.61211     176.5262     352.4575      2.500     5.31     1130.084     62.11401      62906.9       530     2.419     2.076 -81.34   4
       143    642.4943    782.3322 307.6446022  +6.3654585     5609.385     9031.337     9166.339     88.19315     176.4563     352.4224      1.729     3.82     1119.174     62.11401     629.9032        32     1.440     1.152 -59.52   0
       144    431.3482    780.1726 307.7324110  +6.3593013     1423.073     2644.072      2542.35     87.91272     176.3863     352.3173      1.900     5.08     1125.547     62.11401      178.511        18     1.532     0.912 -59.58   0
       145    156.5606    779.5862 307.8466074  +6.3503478     681.0456      1134.86     768.5646     87.77217      176.036      352.107      1.811     4.63     1130.058     62.11401     82.34692         7     1.128     0.539  46.53   0
       146    729.3907    776.9958 307.6086735  +6.3705589     523.9182      765.527     631.3411     87.63139     175.8956     352.2122      1.564     4.79     1117.505     62.11401     73.42297         5     1.008     0.644   0.16   0
       147    677.5775    772.3212 307.6303608  +6.3707625     2305.251     3795.462     3912.564     87.91272     175.8956     352.3524      1.777     4.48     1117.669     62.11401     246.6501        22     1.415     0.992 -67.16   0
       148    595.9773    774.2087 307.6642047  +6.3672615     710.1736     998.2789      1018.36     87.91272     175.9658     352.1771      1.486     3.77     1120.197     62.11401     97.70447         5     0.825     0.495 -52.31   0
       149    146.9758    773.5006 307.8507956  +6.3525396     876.0125     1142.679     1273.291     88.47268     175.9658     352.1771      1.585     5.11     1129.776     62.11401      101.163        10     1.090     0.678 -60.83   0
       150    121.5868    773.4809 307.8613453  +6.3516968     903.2429     1433.961     1705.273     87.91272     175.9658     352.1771      1.751     6.30     1129.517     62.11401     126.0806        12     1.364     0.818 -30.64   0
       151    871.1472    773.0701 307.5499001  +6.3769002     664.0919     1018.352     1232.517     88.19315     176.1061     352.3173      1.558     3.89     1112.912     62.11401      105.271         5     0.819     0.529 -27.07   0
       152    411.4225    769.1584 307.7410618  +6.3631838     44690.45     79623.17      84916.3     87.91272      176.036     352.1421      1.921     4.07     1125.693     62.11401      4742.92        77     1.717     1.420 -68.92   0
       153    945.5873    785.1996 307.5185602  +6.3743669     2243.703     3268.484     3189.225     87.91272     175.8956     352.1771      1.573     3.67     1111.739     62.11401     314.6012        20     1.362     0.890 -74.41   0
       154    954.3820    770.7554 307.5153900  +6.3806244     743.0569     955.0367     1059.884     87.91272     176.1061      352.107      1.350     4.64     1110.679     62.11401     99.27258         8     0.966     0.633 -73.06   0
       155    529.1312    768.1272 307.6921858  +6.3675419     5892.991     10087.23     10359.89     88.47268     176.3863     352.3874      1.837     3.91     1121.332     62.11401      682.925        37     1.503     1.245 -69.05   0
       156    446.0311    766.6733 307.7267649  +6.3653667     3806.465     6618.178     7962.605     88.19314     176.2462     352.3874      1.953     4.31     1124.305     62.11401     430.3658        29     1.435     1.170 -72.53   0
       157    774.3198    764.7368 307.5904156  +6.3771182     10655.92     17087.55     17506.96     88.47268     176.3163     352.3874      1.736     3.52     1115.504     62.11401     1396.131        41     1.512     1.196 -72.55   0
       158    442.5246    760.1241 307.7284427  +6.3679541     1929.908     3579.598      3705.69     88.61211     176.5262     352.4925      1.966     4.74      1124.07     62.11401      228.179        23     1.478     1.089 -83.97   0
       159      4.3885    761.0953 307.9104598  +6.3528804     1062.627     1478.661     1286.972     87.91272     175.6849     314.2748      1.591     4.93     1129.375     62.11401     119.9928        13     1.148     0.884 -64.01  16
       160    796.0660    758.7889 307.5815790  +6.3802987     1264.005     1979.765     2009.356     87.77217      176.036     352.2472      1.690     4.13      1114.33     62.11401     190.2257        15     1.221     0.918 -55.34   0
       161    140.4389    757.1424 307.8540646  +6.3590757     2518.441     4301.017     4665.959     88.33302     176.3163     352.4224      1.895     4.28     1129.249     62.11401     291.1609        24     1.383     1.125 -59.79   2
       162    132.2630    756.8348 307.8574722  +6.3589287     9797.694     17588.99     19645.99     88.19315     176.3163     352.3524      1.955     4.01     1129.208     62.11401     1165.402        51     1.684     1.375 -59.84   2
       163    901.9175    783.2133 307.5367734  +6.3737350     6822.347     10231.36     10750.08     87.91272     175.9658     352.2122      1.569     3.25       1112.8     62.11401     972.6747        30     1.348     1.061 -68.70   0
       164    124.6225    754.1755 307.8607367  +6.3597707     2436.492     4545.349     5964.323     87.77217      176.036     352.3524      2.214     4.89     1129.102     62.11401     279.3875        25     1.491     1.114 -85.89   3
       165    124.6121    748.1360 307.8609452  +6.3622644     1531.701     2881.003     3314.072     87.77217      176.036     352.1771      1.897     5.22     1128.963     62.11401     173.2522        18     1.448     0.886 -89.35   3
       166    919.8197    753.1633 307.5303423  +6.3867402     6497.699     9602.633     9380.677     87.91272      176.036     352.1421      1.557     3.22     1110.882     62.11401     911.9508        28     1.356     1.027 -65.83   0
       167    969.2409    753.0072 307.5098105  +6.3884479      1709.09      2433.99     2891.034     87.63139     175.8956     352.0719      1.535     3.80     1109.151     62.11401      251.665        16     1.247     0.881 -72.57   0
       168    562.4114    750.0869 307.6789643  +6.3761029     1825.714     3314.594     3871.156     87.91272     175.9658     352.2122      1.980     4.71     1119.008     62.11401       224.67        20     1.506     0.916 -56.00   0
       169    675.2130    750.6163 307.6320732  +6.3796471      1469.19     2503.877      3129.53     88.05305     175.8956     352.3173      1.848     4.19     1116.888     62.11401     197.4646        14     1.108     0.855 -44.33   0
       170    410.1539    749.7982 307.7422417  +6.3711364       925.27     1816.766     2035.353     87.63139     175.8956     351.9667      2.336     6.53     1124.752     62.11401     136.2869        10     1.398     0.856  52.33   0
       171    913.9161    745.3653 307.5330571  +6.3897642     2852.463     4362.801     4554.225     88.33302     176.2462     352.3524      1.576     3.76     1110.602     62.11401     416.9417        22     1.414     0.888 -62.82   0
       172    943.5160    744.7304 307.5207781  +6.3910108     3169.464     4399.618     4875.968     88.61211     176.5262     352.4224      1.544     3.27     1109.676     62.11401     414.8657        19     1.153     0.933 -79.10   0
       173    666.4357    744.4326 307.6359284  +6.3819081     1164.997     2255.796     2312.929     87.91272     175.9658      352.107      1.926     6.23     1116.833     62.11401     157.2421        18     1.464     1.033 -38.62   0
       174    974.2675    744.2267 307.5080161  +6.3922411     1950.635      3190.63     3047.188     87.91272     176.1061     352.2823      1.752     3.82      1108.49     62.11401     275.0864        21     1.311     1.054 -74.71   0
       175    813.6724    742.9799 307.5747936  +6.3874136     934.0438     1586.446     1288.628     87.91272     176.1061     352.3524      1.717     5.47     1112.782     62.11401      128.684        10     1.291     0.654 -65.45   0
       176    239.1631    739.6606 307.8136342  +6.3696021     1425.699     2932.442     4465.016     88.33302     176.3163     352.3524      2.881     5.66     1128.491     62.11401     181.5134        21     1.435     1.233  87.31   0
       177    888.8459    740.9003 307.5436249  +6.3907742     612.5818     746.9033     1117.025     88.33302     176.1061     352.6325      1.344     3.80     1111.007     62.11401       107.61         5     0.798     0.520 -39.60   0
       178    932.0718    734.4485 307.5258786  +6.3948763     1090.084     1776.842      1877.25     88.33302     176.3163     352.4224      1.741     5.47     1109.531     62.11401     152.6385        13     1.400     0.775 -69.61   0
       179    155.1237    734.8084 307.8487179  +6.3687907     625.0627      995.524     888.6917     87.91272     175.6849     352.1421      1.685     5.28     1128.617     62.11401      81.3678         7     1.267     0.622  81.18   0
       180    958.4777    732.4898 307.5149712  +6.3965632     2521.194     3816.935     4044.165     88.05305     176.5262     352.4925      1.580     3.37     1108.523     62.11401     343.5715        21     1.352     0.913 -73.70   0
       181    905.7676    733.3353 307.5368469  +6.3944613     1073.396     1541.979     1768.278     88.19315     176.2462     352.3524      1.466     2.87      1110.14     62.11401     175.7961         9     0.833     0.743 -78.17   0
       182    678.6021    731.2717 307.6313153  +6.3877487     712.5554     1264.746     1702.448     87.77217     175.7552     352.2122      2.758     5.70     1115.794     62.11401     103.3083         7     1.669     0.548 -54.09   0
       183   1000.0927    725.9186 307.4978980  +6.4006602     1756.183     2492.563     2079.116     88.05304     176.5961     352.4575      1.496     3.28      1106.98     62.11401     262.4869        12     0.991     0.789 -73.45   0
       184    801.6334    724.9003 307.5804036  +6.3944791     1145.545     1882.963     2008.711     88.33302     176.1061     352.5625      1.894     4.68     1111.952     62.11401     145.8829        11     1.251     0.705 -52.81   0
       185    626.0764    725.7628 307.6533275  +6.3882721     636.7966     1141.981     689.0995     88.19315     176.3163     352.4224      1.804     3.93     1116.884     62.11401     106.9233         5     0.874     0.507 -52.59   0
       186    887.5097    721.7563 307.5448226  +6.3986357     1417.038     2168.815     2528.979     88.33302     176.1762     352.4925      1.723     3.77     1109.857     62.11401     185.3822        13     1.140     0.774 -66.50   0
       187    861.8371    716.8392 307.5556562  +6.3998121     1010.175     1473.501     1455.613     88.05304     176.1061     352.2472      1.760     5.95     1110.084     62.11401     128.8907        12     1.364     0.730 -86.47   0
       188    844.8116    713.2162 307.5628529  +6.4007417     1442.082     2199.226     1681.392     88.05304     175.8956     352.2823      1.620     4.05      1110.22     62.11401     214.3599        17     1.218     0.988 -69.81   0
       189     44.0485    712.2390 307.8956344  +6.3743862     2221.176     3814.714     4499.112     88.19315     176.3163     352.2122      1.941     4.20     1128.361     62.11401     285.0739        23     1.309     1.176 -53.87   0
       190    108.2379    710.5483 307.8690199  +6.3772372     882.1921     1613.296     2072.525     88.05305     176.3163     352.3874      2.086     5.61     1127.544     62.11401     110.1333        10     1.264     0.701  79.44   0
       191    561.8484    706.4018 307.6806689  +6.3941244     531.3765     775.5856     481.9392      87.6314     175.8254     351.9316      1.195     3.48     1116.803     62.11401     86.09131         5     0.795     0.440 -19.07   0
       192    656.4792    700.5605 307.6415414  +6.3996938     5312.348     9064.328     9879.259     88.19315     176.3163     352.3524      1.866     4.03     1114.145     62.11401     584.2761        32     1.505     1.184 -62.76   0
       193    603.2565    699.7015 307.6636872  +6.3982732     1276.547     2120.351     1904.965     88.05305     176.2462     352.5975      1.775     6.12     1116.125     62.11401     151.7781        15     1.390     0.781 -57.38   0
       194    119.7746    696.6002 307.8646978  +6.3833839     2985.077     5557.224     5413.277     87.91272     175.8956     352.1771      1.985     4.42     1126.917     62.11401     371.1235        31     1.504     1.250 -76.17   0
       195    630.1843    696.1660 307.6526162  +6.4006316     1751.414     3150.045     3562.497     87.91272     175.9658     352.2472      1.857     5.14     1114.925     62.11401     198.1056        21     1.331     1.135 -38.33   0
       196    773.2972    692.7000 307.5932606  +6.4068332     18107.13     29886.24     31328.64     88.33302     176.8058     352.2122      1.758     3.68     1110.889     62.11401     2250.263        52     1.577     1.270 -71.77   0
       197    241.1865    694.3759 307.8143228  +6.3883704      523.781      794.564     805.4292     88.05304      176.036     352.3173      1.826     5.25      1125.24     62.11401     87.62878         5     1.426     0.545 -40.70   0
       198    903.4235    692.2674 307.5391989  +6.4113432     3540.393     5341.877     5316.512     87.91272     176.1762     352.3173      1.615     3.39     1107.656     62.11401     519.1525        21     1.311     0.920 -78.80   0
       199    472.8962    692.8705 307.7180886  +6.3967419      1044.82     1808.718      1683.37     88.19315     176.3863     352.3874      1.766     5.75      1119.24     62.11401     123.5312        12     1.253     0.867 -43.31   0
       200    500.7624    692.6529 307.7065162  +6.3977626     645.3211     1222.886      999.096     88.19315     176.3163     352.3874      1.750     5.19     1118.139     62.11401     100.0166         6     1.130     0.673 -14.62   0
       201    247.0106    686.4994 307.8121687  +6.3918180     4897.252     9042.764     9712.411     88.05304     175.8254     352.1421      1.951     4.39      1124.64     62.11401     516.3118        38     1.600     1.308 -70.16   0
       202    653.7980    685.4374 307.6431642  +6.4058497     5546.566     10011.18     10493.97     87.34917      176.036     352.1771      1.866     3.95     1113.063     62.11401     612.0155        38     1.545     1.290 -72.18   0
       203    993.5548    695.6035 307.5016311  +6.4129622     2851.209      4016.38     3545.412      87.6314     175.8956     352.0018      1.528     3.59     1106.595     62.11401     344.8109        19     1.287     0.876 -49.02   0
       204    913.5778    677.7969 307.5354646  +6.4176568     1281.358     1884.369      1878.71     87.91272     175.8956      352.107      1.571     3.60     1106.639     62.11401     190.6204        13     1.097     0.807 -37.84   0
       205    725.5201    674.0333 307.6137425  +6.4129501     3196.762     5592.129     6641.561     88.19315     176.2462     352.3874      1.927     4.17     1110.483     62.11401     395.6292        31     1.583     1.151 -75.57   0
       206    681.0721    674.2752 307.6322055  +6.4113687     908.3895     1547.771     1522.527     88.61211     176.5262     352.3874      1.823     5.83      1111.11     62.11401     103.9398        11     1.218     0.826 -49.02   0
       207    991.8768    670.4199 307.5031727  +6.4233066     9147.318     13402.28     13063.96     87.91272     175.8956     352.3524      1.547     3.16     1105.894     62.11401     1307.426        32     1.351     1.067 -68.39   0
       208    930.3184    670.9841 307.5287362  +6.4210271     2461.427     3660.945     4061.985     87.91272     175.8956     352.2472      1.636     3.46     1106.068     62.11401     347.8452        19     1.220     0.935 -61.39   0
       209     11.0350    670.2628 307.9107728  +6.3906123     1647.055     3107.562     3767.881     88.19315     176.2462     352.3524      2.038     6.26     1128.007     62.11401     175.9038        22     1.553     1.105  10.37   0
       210     69.3410    665.5504 307.8867046  +6.3945146     20636.87     37837.59     40643.33     88.33302     176.2462     352.4575      1.968     4.25     1126.292     62.11401     2326.679        60     1.718     1.410 -72.69   0
       211    499.2489    663.9689 307.7081115  +6.4095575     1108.011     1910.578     1871.536     88.05304     176.2462     352.2823      1.799     6.99     1116.851     62.11401     122.3462        16     1.280     1.069 -70.66   0
       212    920.5242    662.3864 307.5330949  +6.4242520     1119.631     1382.201     1695.997     87.77217     175.9658     352.2122      1.338     4.27     1105.809     62.11401     159.1824        11     1.187     0.632 -45.67   0
       213    539.1216    660.1050 307.6916721  +6.4124846     799.7993     1459.826     832.8021     88.05304     176.5262     352.4224      1.828     5.50     1115.451     62.11401       137.17         8     1.395     0.852 -51.38   0
       214    715.0801    657.5137 307.6186364  +6.4194243     2966.629     5125.819     5231.782     88.05304     176.5961     352.5275      1.845     4.11     1109.718     62.11401     365.7532        26     1.423     1.077 -55.82   0
       215    737.2083    655.7504 307.6094998  +6.4208899     3380.253     5717.144     5827.602     87.77217      176.036     352.0369      1.778     3.72     1109.155     62.11401     402.5975        27     1.339     1.157 -89.03   0
       216    568.7209    653.9253 307.6795797  +6.4160247     2540.059     4491.824     5064.202     88.61211     176.5262     352.4575      1.958     4.55     1114.302     62.11401     290.3475        27     1.512     1.117 -63.73   0
       217    405.0672    654.0743 307.7475830  +6.4104964     1005.466     1720.173     1648.917     88.47268     176.3863     352.3524      2.036     6.26     1119.903     62.11401     108.2047        13     1.086     1.014  -8.65   0
       218    229.5833    653.4195 307.8205278  +6.4048949     1303.203     2496.902       2902.7     88.05305     175.9658     352.2823      2.074     6.02     1123.237     62.11401     158.2166        19     1.456     1.020 -63.36   0
       219   1010.0494    651.7671 307.4962457  +6.4316136     5000.857     7492.216     7602.654     88.19315     176.2462     352.3173      1.575     3.32     1104.048     62.11401     739.2826        26     1.363     0.946 -67.85   0
       220    975.4785    650.8621 307.5106433  +6.4308384     8208.497     12198.62     12699.94     88.61211     176.3163     352.4224      1.592     3.33     1104.484     62.11401     1030.998        35     1.423     1.066 -64.53   0
       221    313.2910    652.7416 307.7857660  +6.4079771     1134.641     2197.991     1998.069     88.19315     176.1762     352.5275      2.047     6.15     1121.554     62.11401     127.8275        14     1.307     0.813 -29.90   0
       222    134.1300    644.5148 307.8604938  +6.4053738     18586.96     35108.14     37212.57     88.47268     176.5262     352.4224      2.008     4.40     1124.435     62.11401     2030.916        58     1.714     1.428 -71.15   0
       223    421.0056    645.2744 307.7412564  +6.4146632      2193.11     4223.096     4408.604     87.91272     175.7552     352.2823      1.989     5.35     1119.033     62.11401     258.8422        25     1.467     1.166 -58.06   0
       224    530.2471    666.3636 307.6951492  +6.4096038     1548.205     2972.131     2944.782     88.05305     176.3163     352.3173      1.921     5.22     1116.007     62.11401     193.9978        19     1.367     1.178 -50.92   0
       225    802.3796    644.8045 307.5827838  +6.4275810     921.6075      1441.64     1310.524     87.91272     175.8956     352.1771      1.690     2.99     1107.696     62.11401     153.8677         7     0.919     0.678 -37.10   0
       226    354.4888    639.0516 307.7691080  +6.4150088     596.4388     1029.209     1122.432     88.33302      176.036     352.4925      1.590     3.99     1119.607     62.11401     101.0024         5     0.912     0.499  87.85   0
       227    970.5049    633.7833 307.5132829  +6.4377262     6744.208     10896.48     11884.69     88.19315      176.036     352.2122      1.766     3.51     1103.299     62.11401     836.3601        37     1.395     1.296  71.41   0
       228    564.0234    629.1703 307.6823653  +6.4260908     36556.96     69632.72     75452.81     87.77217     176.1061     352.2122      2.025     4.38     1112.998     62.11401     3693.963        78     1.780     1.482 -69.63   0
       229     15.6591    632.6972 307.9101230  +6.4062800     970.4724     1607.553     1321.625     88.05305     176.2462     352.5275      1.791     6.33     1126.665     62.11401     124.1224        12     1.266     0.891 -55.91   0
       230   1023.6998    629.3884 307.4913228  +6.4413090     14614.03     19673.42     20686.21     76.01293     139.2241     264.2993      1.284     3.55     1101.309     62.11401      3871.29        26     1.579     0.609  89.44  24
       231    928.5949    630.8314 307.5307994  +6.4375517     552.8242     780.5166     731.9209      87.6314     176.1061     352.1421      1.444     3.47     1104.308     62.11401     79.34766         5     0.782     0.444  70.99   0
       232    171.8735    625.8632 307.8454402  +6.4143410     2148.149     4198.237     4413.544     88.61211     176.2462     352.3874      2.013     5.03      1123.22     62.11401     228.4896        24     1.338     1.262 -69.18   0
       233     64.6311    620.1370 307.8901982  +6.4131100     1034.157     1748.623     2283.917     88.05304     176.3163     352.3524      1.906     4.36     1124.541     62.11401     173.8571        11     1.226     0.900 -36.95   0
       234    461.3081    612.9908 307.7255963  +6.4293419     46607.18     91630.94     99239.64     87.91272     175.8956     352.1421      2.069     4.51     1116.042     62.11401     4593.661        86     1.816     1.526 -67.10   0
       235    646.7455    609.5563 307.6486477  +6.4369508      708.801     944.0869      1049.99     88.33302     176.2462     352.3874      1.569     4.73     1109.094     62.11401     102.7773         7     1.137     0.697 -83.88   0
       236    136.1313    608.2935 307.8608869  +6.4203984      1098.14      1879.87     1411.633     88.19315     176.3863     352.4224      1.792     6.24     1122.579     62.11401      132.189        13     1.257     1.011  -9.02   0
       237    415.3683    606.3040 307.7449131  +6.4305679     778.8712     1370.405     1548.187     88.47268      176.036     352.4925      1.979     4.90      1116.78     62.11401     101.6471         6     1.180     0.576 -64.71   0
       238    607.1832    604.8701 307.6652470  +6.4375663     792.2701     1278.042     1097.665     87.77217     176.1061     352.2823      1.923     5.56     1109.667     62.11401     105.0228         9     1.319     0.661 -10.81   0
       239    306.8349    602.0992 307.7901583  +6.4286741      1481.14     3237.046     4085.385     88.33302     176.1061     352.5625      2.380     7.06     1118.236     62.11401     143.8296        24     1.421     1.264 -43.69   0
       240      4.9032    614.5784 307.9152059  +6.4134011     1349.905     2435.633     2638.476     88.19315      176.036     321.1913      1.933     6.17     1126.468     62.11401     165.3378        17     1.336     1.072 -69.99  16
       241    733.2600    596.4557 307.6131337  +6.4452451     4436.258     7654.626     8227.173     88.47268     176.2462     352.4224      1.843     4.00     1106.185     62.11401      483.923        33     1.598     1.138 -66.33   0
       242    786.8962    591.7045 307.5910023  +6.4489941     11830.97     20386.54     21792.01     88.33302     176.9454     352.2122      1.854     3.81     1105.647     62.11401     1294.895        47     1.620     1.269 -65.97   0
       243    529.2802    591.6921 307.6980660  +6.4404080     854.7001      1602.56     1992.859     88.05305     176.5262     352.4575      2.148     5.49     1112.337     62.11401     114.3735         8     1.325     0.641  53.92   0
       244   1004.1027    592.1178 307.5007167  +6.4560496     1124.576     1611.116      1981.25     88.19315      176.666     352.4575      1.549     3.30     1098.972     62.11401     200.1263        10     0.918     0.768  12.34   0
       245    610.7687    589.7208 307.6642667  +6.4439420     2336.027     4099.809     4193.826     88.19315     176.2462     352.3524      1.830     4.70     1109.172     62.11401     257.4713        24     1.477     1.074 -52.49   0
       246    927.2921    585.6793 307.5328557  +6.4561549     923.3882     1435.544     1385.026     88.05305     176.5262     352.4575      1.624     3.79     1101.998     62.11401     162.6222         8     0.908     0.772 -82.82   0
       247    223.7841    583.7211 307.8252923  +6.4334828     956.8849     2025.965     2383.505     87.91272     175.9658     352.2122      2.319     6.90     1120.603     62.11401     128.9506        11     1.583     0.844  72.87   0
       248    369.4868    583.5410 307.7647481  +6.4384339      670.649     1270.087     1429.463     88.33302     176.3163     352.5275      1.786     4.58     1116.352     62.11401     115.8287         7     1.200     0.498   1.32   0
       249    863.1049    574.8723 307.5598951  +6.4584824     2563.558     3993.052     3945.328     88.19315     176.3163     352.3874      1.685     4.22     1103.896     62.11401     302.0994        22     1.387     0.994 -65.50   0
       250    821.7150    572.3572 307.5771815  +6.4581434     2182.813     3723.255      4043.96     88.33302     176.1061     352.3524      1.759     4.32     1104.535     62.11401     239.1021        25     1.440     1.085 -50.86   0
       251    249.7881    567.5171 307.8150331  +6.4410452     5582.507     11342.85     11836.29     87.91272     175.9658     352.2122      2.101     4.76     1118.709     62.11401     581.5808        46     1.728     1.435 -83.35   0
       252    792.8259    568.2690 307.5893253  +6.4588697     2228.738     3922.007     5311.277     87.91272     176.1061     352.3173      2.183     4.19     1104.972     62.11401      307.962        20     1.249     1.113 -65.46   0
       253    802.2452    563.5836 307.5855680  +6.4611183     132720.9     230374.4     245697.4     87.77217     176.1061     352.1421      1.877     3.87     1104.696     62.11401     15255.78       117     1.747     1.459 -66.86   0
       254    183.9232    562.0297 307.8425904  +6.4411049     41561.82     84721.73     93857.87     88.19315     176.3163     352.4224      2.141     4.92     1120.252     62.11401     4575.514        93     1.881     1.622 -69.97   0
       255    107.9827    558.3282 307.8742742  +6.4400878     4505.249     9073.237     10052.12     87.77217     176.1762     352.2823      2.080     4.98     1121.455     62.11401     513.6516        39     1.673     1.352 -69.94   0
       256    993.8937    554.4279 307.5062234  +6.4712752     845.7244     1091.671     1183.296     88.47268     175.9658     352.2823      1.430     5.14     1097.116     62.11401     129.2386         9     1.160     0.643 -50.40   0
       257    222.7001    554.7651 307.8267211  +6.4454039     610.0764     1099.143     973.1822     88.33302     176.1061     352.5625      1.398     3.38     1118.552     62.11401     98.50928         5     1.184     0.279 -34.20   0
       258    838.8505    550.9757 307.5707779  +6.4675437     3985.339     6601.271     5981.954     87.91272     176.2462     352.2823      1.746     3.82     1103.186     62.11401     511.4027        26     1.429     1.062 -61.98   0
       259    357.3210    549.0782 307.7709668  +6.4522586      11989.4     24758.32     26704.41     88.61211     176.5262     352.5275      2.133     4.85     1115.101     62.11401     1176.856        59     1.788     1.533 -68.71   0
       260    159.5585    547.8140 307.8531963  +6.4461587     1357.278     3060.585     3557.868     87.77217      176.036      352.107      2.390     8.25     1120.543     62.11401     158.6372        23     1.572     1.209   4.08   0
       261    792.8152    544.1585 307.5901398  +6.4688262     4794.488     8423.452     8717.164     87.77217      176.036      352.107      1.845     3.98     1104.305     62.11401     524.0767        34     1.525     1.205 -55.46   0
       262    523.5695    544.0494 307.7020443  +6.4598919     4660.174     9280.845     10170.79     87.91272     176.3163     352.2823      2.114     4.58     1109.405     62.11401     481.7426        40     1.608     1.429 -65.25   0
       263    973.3076    555.3062 307.5147500  +6.4702282     1306.822     2030.097     1910.931     88.33302     176.8058     352.3874      1.670     4.84     1098.089     62.11401      191.863        12     1.161     0.767 -42.55   0
       264    381.9644    541.0674 307.7609955  +6.4563910     903.8479     1991.944     2019.924     88.19315     176.3163     352.4925      2.068     6.81     1113.807     62.11401     111.0741        14     1.419     1.213 -69.49   0
       265    170.7087    537.1623 307.8489226  +6.4509311     4935.116     9721.363     9788.167     88.47268     176.1762     352.4224      2.054     4.72     1119.571     62.11401     584.2714        39     1.644     1.391 -70.92   0
       266     42.4122    535.9814 307.9022794  +6.4471162     3686.763     7254.618     7828.144     88.05304     175.8956     352.2823      2.041     4.64     1121.205     62.11401     451.4645        40     1.705     1.392 -80.06   0
       267    568.3949    536.8931 307.6836557  +6.4643438     1601.827     3332.659       3643.3     87.91272     175.8956      352.107      2.135     5.71     1108.272     62.11401     177.6621        26     1.410     1.340 -20.15   0
       268    809.2781    536.6915 307.5835484  +6.4724581     1052.129     1720.007     2096.781     88.05305     176.5262     352.4224      1.740     5.88     1103.394     62.11401     120.7336        13     1.224     0.890 -45.34   0
       269    265.9241    533.6951 307.8094697  +6.4555524     59132.86     124903.8     136552.1     87.91272     176.4563     352.4575      2.174     4.97     1116.364     62.11401     6243.323        98     1.874     1.631 -68.23   0
       270    788.9807    526.0045 307.5923435  +6.4761955     13250.82     23253.74     24619.56     87.91272     175.8254     352.1771      1.846     3.88     1103.204     62.11401     1514.443        51     1.633     1.315 -63.08   0
       271    965.5898    527.1750 307.5189011  +6.4815890     1628.851     2471.949     2550.013     87.91272      176.036     352.2472      1.715     3.81     1096.872     62.11401     258.5842        15     1.065     1.000 -51.67   0
       272    492.6311    524.4892 307.7155614  +6.4669361     28970.45     61616.37     68505.23     88.47268      176.036     352.3173      2.222     4.84     1108.735     62.11401     2708.195        84     1.847     1.720 -53.43   0
       273    249.7506    528.2151 307.8163763  +6.4572738     966.8339     1794.009     2364.048      87.6314     176.2462     352.0719      1.918     5.21     1116.231     62.11401     129.5648        10     1.196     0.771  -0.41   0
       274    205.2597    521.3206 307.8350991  +6.4586307     1309.375     2463.587     2951.679     88.47268     176.2462     352.3173      2.006     6.31     1117.218     62.11401     173.9222        17     1.578     0.927 -66.39   0
       275    643.0405    523.0369 307.6530986  +6.4725567     745.7723     1219.386     1461.984     88.05304     176.2462     352.2472      1.965     5.48     1105.557     62.11401      104.161         8     1.195     0.709  11.21   0
       276    662.9025    519.4886 307.6449631  +6.4746845     1190.162     2130.205     2261.074     88.33302     176.7359     352.4224      1.878     7.56     1104.511     62.11401     152.3607        16     1.641     0.975 -56.98   0
       277     41.1871    521.3627 307.9032834  +6.4531118     870.5332     1619.871     1946.722     87.77217      176.036     352.0719      2.113     4.62     1120.393     62.11401     128.3037         8     0.915     0.663 -51.31   0
       278    652.5087    519.2012 307.6492926  +6.4744565     2089.069     4114.717     4596.903      87.4904     175.8254     352.1421      2.020     5.20     1104.912     62.11401     223.9678        26     1.401     1.308 -47.99   0
       279    714.8655    518.1061 307.6234128  +6.4769879     1153.782     2379.302     3034.365     88.33302     176.4563     352.4224      2.258     7.18     1103.928     62.11401     125.9001        18     1.388     1.041 -84.11   0
       280    390.1552    515.0717 307.7584684  +6.4674000       1340.9     2372.343     1994.217     88.19315     176.2462     352.3874      1.828     5.24     1111.991     62.11401     144.9137        17     1.229     1.028  11.20   0
       281    321.8612    513.3267 307.7869103  +6.4658360     2620.902     5539.048      6028.98     88.47268     176.2462     352.4224      2.177     5.25     1113.276     62.11401     266.8185        36     1.663     1.405 -79.73   0
       282    137.0318    512.0680 307.8637666  +6.4601649     18230.54     36992.07     39863.19     88.19315     176.2462     352.3524      2.112     4.75     1119.004     62.11401     2054.888        64     1.785     1.515 -73.78   0
       283    501.9576    512.4519 307.7120909  +6.4722186     1526.542     3120.922     3560.348     88.33302     176.2462     352.4224      2.105     5.34     1107.833     62.11401     159.5977        23     1.438     1.146 -35.46   0
       284    864.7737    511.8436 307.5613177  +6.4845669     1285.164     2080.924     1687.504     87.91272     176.3163     352.3173      1.680     4.82     1100.518     62.11401     180.6378        15     1.159     1.029 -38.13   0
       285    102.3095    510.3427 307.8782550  +6.4597130     1943.099     3755.193     3745.454     88.19315     176.1762     352.5275      1.934     5.11     1119.496     62.11401     212.4338        27     1.458     1.300  89.59   0
       286    339.7352    508.4447 307.7796467  +6.4684502      791.852     1222.239     1509.797     88.33302     176.1762     352.3874      1.681     6.49     1112.464     62.11401     99.84888        10     1.204     0.981 -49.71   0
       287    962.4004    506.3960 307.5209237  +6.4900641     4885.391     7424.232     7668.829      87.6314     175.7552      352.107      1.622     3.45     1095.987     62.11401     613.3351        28     1.358     1.041 -66.90   0
       288    535.7038    498.8175 307.6985249  +6.4789761     915.0928     1863.633     1859.509     88.19315      176.036     352.1771      2.011     6.13     1106.599     62.11401      109.589        12     1.074     0.983  84.18   0
       289      2.1146    496.4212 307.9203655  +6.4620998     17781.88      26954.8     28497.35     85.78032     152.1882     279.1125      1.628     4.48     1119.103     62.11401     2230.173        37     1.650     0.972 -84.65  24
       290    433.9807    493.1696 307.7409929  +6.4779099     28770.66     60399.32     65586.13     87.91272      176.036     352.2472      2.147     4.90     1109.486     62.11401     2842.957        75     1.847     1.547 -68.94   0
       291    642.0179    492.8239 307.6545403  +6.4849995     8860.379     17314.43     18126.34     87.91272     176.1061     352.2823      2.052     4.47      1103.77     62.11401     870.6659        47     1.647     1.421 -71.91   0
       292    199.2009    490.8210 307.8386480  +6.4710225     13121.66     28133.47     29720.45     87.91272     175.8956     352.0719      2.148     4.87     1115.761     62.11401     1277.553        58     1.789     1.559 -86.61   0
       293    165.2296    492.5282 307.8527086  +6.4691791     1116.513     2201.392     1954.701     88.19315     176.2462     352.3524      2.030     8.07     1117.366     62.11401     152.3774        23     1.744     1.045 -53.79   0
       294    976.1730    490.9742 307.5157166  +6.4968908     1189.827     1913.628     2157.643     87.77217      176.036     352.2122      1.639     4.17     1094.603     62.11401      159.255        11     1.032     0.781 -76.03   0
       295    816.4749    490.3246 307.5821149  +6.4918458     909.4556     1253.167     575.7474     88.61211     176.5262     352.4925      1.530     4.24      1100.31     62.11401     124.5776         8     0.920     0.786 -81.37   0
       296    563.8673    489.5145 307.6871329  +6.4837582     1942.193     4061.419     4329.598     88.33302     176.5262     352.4224      2.079     5.98     1105.708     62.11401      233.337        27     1.538     1.225 -43.90   0
       297    904.7085    490.2753 307.5454435  +6.4948028     774.8981     1031.703     1216.197     88.33302     176.4563     352.4224      1.585     4.83     1097.728     62.11401     107.0634         7     1.033     0.641  14.28   0
       298    937.6108    486.5826 307.5318919  +6.4974222     4416.441     6927.023     7476.943     88.05305     175.8956     352.2472      1.729     3.38     1096.106     62.11401     579.4459        27     1.371     1.050 -74.42   0
       299    610.7898    485.1269 307.6677786  +6.4871362     4568.709     9078.369     10052.48     87.77217     175.8254     352.2472      2.077     4.65     1104.671     62.11401     485.8539        39     1.609     1.374 -59.45   0
       300     98.6350    485.7943 307.8806126  +6.4697270     900.3628     1902.042      1750.72      87.4904     175.9658     352.1421      2.057     6.90     1118.404     62.11401     116.8403        15     1.425     0.937  68.72   0
       301    960.2161    478.9159 307.5227535  +6.5013400      3286.95     4980.052     5044.365     87.91272     175.8956     352.2823      1.571     3.58     1094.693     62.11401     481.6963        22     1.307     1.001 -73.76   0
       302    523.0317    476.3971 307.7045470  +6.4878117     5106.747     10652.41     11708.62     87.63139      176.036     352.1421      2.141     4.90     1105.251     62.11401     505.3851        44     1.677     1.446 -65.72   0
       303    369.0738    476.6334 307.7685268  +6.4825683     1712.634     3756.643     3474.013     88.19314     176.1762     352.3874      2.176     6.13     1109.629     62.11401     174.1921        26     1.528     1.274 -61.94   0
       304    879.3638    472.1285 307.5565869  +6.5014536     2636.593      4459.48     5473.875     88.19315     176.2462     352.4575      1.865     4.04     1097.852     62.11401     331.0698        25     1.425     1.077 -66.03   0
       305    886.7514    466.6243 307.5537011  +6.5039725     1908.837     3018.915     3647.169     87.91272     176.2462     352.2823      1.725     3.77     1097.137     62.11401     238.9363        18     1.239     0.926 -72.40   0
       306    926.2515    465.7851 307.5373113  +6.5056331     1183.105     1910.541     1439.163      87.6314     176.2462      352.107      1.673     4.02     1095.249     62.11401     192.8999        13     1.127     0.896 -65.05   0
       307    710.7063    462.6736 307.6270055  +6.4997409      2419.33      4467.36     4666.167     88.19315     176.3863     352.3874      1.951     5.37      1100.55     62.11401     257.1226        25     1.532     1.113 -62.78   0
       308    381.9362    461.1141 307.7637046  +6.4894073     2465.627     5337.615     5587.103     88.47268     176.3863     352.3874      2.170     5.98     1107.869     62.11401     233.4757        35     1.856     1.246 -84.96   0
       309     72.7574    461.4504 307.8921910  +6.4789116     1264.029      2538.67     3178.662     88.47268     176.2462     352.3874      2.294     5.93     1117.617     62.11401     135.6044        18     1.309     1.109   7.44   0
       310    609.4809    457.4024 307.6692559  +6.4985417     7048.556     13955.75     15695.78      87.6314     175.7552      352.107      2.088     4.70      1102.55     62.11401      675.469        45     1.747     1.379 -70.24   0
       311    772.3680    453.5987 307.6016815  +6.5055434     12821.48     23467.19     27035.05      87.6314      176.036      352.107      2.031     4.64     1098.892     62.11401     1414.373        68     2.204     1.377 -57.35   0
       312    291.8429    454.3921 307.8013760  +6.4891686     1788.216     3723.564      3685.24     87.77217      176.036     352.0719      2.085     6.63     1108.294     62.11401     210.8209        25     1.526     1.244 -49.37   0
       313    801.4496    450.5958 307.5896948  +6.5077521     1090.551     1960.895     1930.872      87.6314      176.036     352.0018      1.848     7.15     1097.886     62.11401     125.8317        19     1.472     1.207 -79.82   0
       314    375.2530    451.2659 307.7668146  +6.4932506     1077.337     2308.031     2467.397     88.33302     176.1762     352.3524      2.160     6.80     1106.942     62.11401       128.17        16     1.255     1.032 -36.79   0
       315    957.3445    448.7534 307.5249589  +6.5137007     1840.024     2964.302      2533.65     88.33302     176.2462     352.4575      1.720     3.94     1092.945     62.11401     237.7371        17     1.179     0.941 -72.53   0
       316    109.7623    446.0168 307.8773339  +6.4865261     3046.107     6076.033     7174.263     87.91272     176.1061      352.107      2.117     4.81     1116.495     62.11401     372.0863        35     1.622     1.347 -59.62   0
       317    747.6660    444.8439 307.6122430  +6.5083358     1841.402     3123.143     3284.996     88.33302     176.1762     352.4224      1.800     4.51      1099.07     62.11401     227.0813        21     1.276     1.155 -88.01   0
       318   1011.2436    443.4567 307.5027331  +6.5176798     3859.569     6430.215     6054.205     88.19315     176.2462     352.4224      1.788     3.83     1090.936     62.11401     438.7024        30     1.377     1.236  15.63   0
       319    267.6667    443.2163 307.8118015  +6.4929742     1082.491     2133.899     2429.853     87.77217     176.1061     352.2823      2.041     5.90     1108.451     62.11401     150.1205        14     1.185     1.021 -68.54   0
       320    345.6974    440.8956 307.7794486  +6.4965444     1928.115      4176.85     4633.359     88.33302     176.8756     352.2122      2.218     6.49       1106.5     62.11401     232.4634        30     1.644     1.313 -76.95   0
       321    701.4254    438.1491 307.6316879  +6.5095593       1172.6     2290.898     2113.217     87.91272     176.2462     352.2823      2.005     7.39     1099.522     62.11401      122.354        18     1.399     1.242  73.03   0
       322    465.0852    429.1013 307.7302253  +6.5054071     908.9694     2248.685     2465.554     88.33302     176.7359     352.4575      2.241     8.31     1101.918     62.11401      113.735        17     1.649     1.171  52.24   0
       323    827.6587    428.3235 307.5795492  +6.5178226     1049.143     1917.667     2025.205     88.47268     176.2462     352.3524      1.905     5.65     1095.981     62.11401     118.1837        12     1.088     0.827 -27.54   0
       324    813.5374    427.5305 307.5854455  +6.5176799     1560.105     2842.092     2599.987     88.33302     176.2462     352.4575      1.925     5.24     1096.143     62.11401     184.8997        20     1.344     1.107  87.52   0
       325    710.6589    425.6336 307.6282710  +6.5150356     11237.11     21005.96     22591.44     88.19315     176.3163     352.3524      1.998     4.36     1098.834     62.11401     1180.077        48     1.639     1.385 -76.65   0
       326    631.5648    421.7319 307.6612776  +6.5140091     1736.559     3727.829     4323.313     88.19315     176.3163     352.4925      2.261     5.81     1099.505     62.11401     197.3551        28     1.534     1.309 -30.76   0
       327    604.0859    416.8266 307.6728643  +6.5151180     9508.051      23667.4     30109.43     88.47268     175.9658     352.2472      2.676     6.67     1099.292     62.11401     943.0869        83     2.436     1.740  38.12   0
       328    935.8754    415.3636 307.5350030  +6.5267758     3440.667     5499.824     5480.566     88.19315     176.3163     352.4224      1.702     3.89      1091.26     62.11401     420.2109        25     1.389     1.081 -72.90   0
       329    375.0805    411.5634 307.7682260  +6.5096403      18965.2     41066.33     44319.46     88.19315     176.3163     352.3524      2.200     5.15     1103.066     62.11401     1820.006        68     1.838     1.574 -73.95   0
       330    121.3280    411.4412 307.8736967  +6.5011919      1658.38     3009.616      2654.93     88.19315     176.2462     352.4575      1.971     5.83     1114.334     62.11401     230.0382        20     1.447     1.080 -77.85   0
       331    891.0972    410.7581 307.5537703  +6.5271881     1295.648     2369.116     2991.077     88.33302     176.1061     352.6325      2.449     4.45      1093.14     62.11401     220.2288        16     1.397     0.946 -77.74   0
       332    904.6952    405.8530 307.5482828  +6.5296661     4470.383     7271.405     7583.131     88.19315     176.1762     352.6675      1.745     3.89     1092.176     62.11401     496.8774        30     1.478     1.120 -72.92   0
       333     54.4743    407.7068 307.9016086  +6.5004913     967.4719     2057.684     2458.969     88.19315     176.3863     352.3524      2.317     6.79     1116.132     62.11401     125.1273        13     1.501     0.860 -11.69   2
       334     53.0255    405.6821 307.9022793  +6.5012788     669.9458      1273.71     1781.979     88.19314     175.9658     352.3874      1.635     4.00      1116.07     62.11401      137.037         5     1.519     0.302 -32.04   3
       335    232.6885    402.1998 307.8277250  +6.5087406     9177.668     19873.75      21669.7     87.49039     175.6849     352.0018      2.192     5.01     1107.581     62.11401     1013.675        57     1.828     1.532 -77.62   0
       336    956.1739    393.7926 307.5272894  +6.5363590      858.257     1365.535     1446.553     87.77217     176.1061     352.2122      1.819     3.74     1089.467     62.11401     167.0321         6     1.223     0.514 -36.01   0
       337    132.8959    390.7970 307.8695872  +6.5101048     3558.469     7424.348     8024.717     88.05304     175.8956     352.0369      2.133     5.10     1112.709     62.11401     432.0256        37     1.669     1.382 -68.30   0
       338    345.5606    391.9195 307.7811586  +6.5167647     848.4935     1813.704     2428.951     88.33302     176.3163     352.3173      2.391     6.75     1102.386     62.11401     98.15479        12     1.479     0.863   4.46   0
       339    237.8864    390.0192 307.8259762  +6.5139447     945.6975     2050.297       1830.2     88.05304     175.9658     352.2472      2.043     6.59     1106.701     62.11401     124.7548        13     1.505     0.888 -51.49   0
       340    818.6450    388.0309 307.5846495  +6.5341620     720.2501     1483.531       976.82     87.91272     176.3163     352.2122      2.013     5.68     1093.356     62.11401     125.8645         7     1.364     0.667 -58.50   0
       341    155.0141    386.9265 307.8605252  +6.5124447     1857.916     3901.435     4820.439     87.77217     175.9658     352.2472      2.319     5.75     1110.945     62.11401     201.7144        27     1.525     1.255  85.23   0
       342    550.4421    385.2953 307.6962233  +6.5263485     800.4114     1433.594     1527.678     88.33302     176.1762     352.5275      2.144     6.47     1097.332     62.11401     119.4083         9     1.174     1.002 -56.89   0
       343    378.7050    381.4536 307.7677356  +6.5221955     1427.285     2987.493     3256.007     88.19315     176.1762     352.6675      2.148     7.18     1100.448     62.11401     164.9102        21     1.528     1.126 -83.11   0
       344    967.0378    380.4994 307.5232196  +6.5422099     891.8858      1807.23     2167.494     88.33302     176.1061     352.6325      2.158     2.78     1088.051     62.11401     143.2869         6     0.767     0.500   1.02   0
       345     28.6627    375.8695 307.9134143  +6.5127720     2250.861     4824.818     5494.644     88.33302     176.2462     352.4575      2.207     5.76     1115.202     62.11401     278.7893        34     1.824     1.330 -55.57   0
       346    432.2767    374.8684 307.7456907  +6.5267063      4904.89     10546.57      11492.2     88.47268     176.3863     352.3524      2.230     5.32     1098.402     62.11401     437.3466        43     1.735     1.447 -68.62   0
       347    772.7587    372.1896 307.6042555  +6.5391756     9679.713     18410.72     19316.29      87.6314      176.036      352.107      1.967     4.40     1093.029     62.11401     1073.863        47     1.665     1.350 -62.02   0
       348    764.7888    373.6778 307.6075183  +6.5382955     1449.472      2825.39     3488.345     87.91272     175.8254     352.2122      2.141     6.40     1093.387     62.11401     197.5497        22     1.545     1.058 -65.45   0
       349   1016.5649    367.2920 307.5030752  +6.5493104     3484.275      5112.11     5125.184     88.47268     176.1061     352.4224      1.636     3.37     1084.347     62.11401     432.4772        23     1.340     0.991 -80.09  16
       350    181.3712    363.2465 307.8503710  +6.5231068     556.2002     1043.473     1305.182     87.91272     176.3163     352.2472      2.134     4.78     1108.225     62.11401      81.0835         7     1.541     0.421  50.89   0
       351    480.4335    358.7149 307.7262187  +6.5349866     2155.963     4651.854     4522.309     88.33302     176.1061     352.3524      2.160     5.82     1095.417     62.11401     205.7028        32     1.596     1.405 -78.44   0
       352    452.8505    359.2051 307.7376673  +6.5338623     1437.252     3043.052     2810.492     87.63139      176.036     351.9667      2.076     6.84     1096.416     62.11401     157.7164        23     1.381     1.304  28.06   0
       353    838.1320    355.0962 307.5776558  +6.5484118     27020.74     48993.65     53231.89     88.19315     176.3863     352.3874      1.958     4.12     1091.067     62.11401     3085.766        71     1.813     1.388 -70.98   0
       354    609.8768    347.4315 307.6727937  +6.5439687     1942.569     3877.426     3954.644     88.19315     176.3163     352.3173      2.055     5.63     1093.671     62.11401     199.4386        26     1.412     1.308 -88.01   0
       355     18.6813    347.3796 307.9185276  +6.5242016     801.8918     1723.865     1939.165     88.05305     175.8956     352.3173      2.173     6.17      1114.51     62.11401     113.3588         9     1.240     0.862  52.08   0
       356    694.5964    341.1273 307.6377901  +6.5493981     58162.98     112705.6     122389.1     87.77217     175.7552     352.2122      2.043     4.48     1092.786     62.11401      6043.55        95     1.819     1.547 -67.38   0
       357    852.7971    342.6496 307.5719779  +6.5540400     962.4258     1267.386     1117.805      87.6314     175.8956     351.9316      1.504     4.08     1090.524     62.11401     130.2943         9     0.882     0.775  77.62   0
       358     74.3683    340.2983 307.8956219  +6.5289948     859.1074      1628.79     1878.895     88.33302     176.1061     352.5275      1.956     7.12     1113.868     62.11401     124.5516        13     1.431     0.993  -8.71   0
       359    556.9222    337.9171 307.6951259  +6.5461301     1745.183     3682.441     3669.833     88.47268     176.5262     352.4925      2.109     5.56      1093.59     62.11401     192.1462        28     1.535     1.266 -72.64   0
       360     94.3325    336.7401 307.8874444  +6.5311340      4276.15     8723.499     8959.856     88.47268     176.1762     352.3874      2.132     5.10     1113.523     62.11401     459.4398        40     1.660     1.421 -80.39   0
       361    540.4433    333.9794 307.7021084  +6.5472060     4841.587     10261.27     10990.61     87.77217     176.1061     352.2122      2.178     4.90     1093.501     62.11401     471.8239        44     1.638     1.506 -85.58   0
       362    403.2849    329.2756 307.7592794  +6.5445647     16924.67     36884.59     40902.67     88.47268     176.5961     352.4575      2.223     5.19     1096.604     62.11401     1570.503        70     1.897     1.570 -69.77   0
       363    269.3741    331.4672 307.8148669  +6.5391783     1693.818     3427.739     3897.422     87.91272     176.1061     352.2823      2.160     6.17     1103.154     62.11401     191.7987        23     1.330     1.304 -17.01   0
       364    510.9674    328.5815 307.7145426  +6.5484506     818.3824     1731.167     1176.584     87.77217      176.036     352.2472      2.129     7.09     1093.387     62.11401     138.2531        11     1.847     0.763 -65.71   0
       365    383.1027    327.1375 307.7677406  +6.5447726     744.4933     1757.537     2356.359     88.05304     176.3863     352.4575      2.444     4.29     1097.092     62.11401     124.6014         7     1.102     0.684 -48.46   0
       366    482.9580    325.0020 307.7263060  +6.5489929     724.2659     1629.391     2000.337      87.6314     175.8956     352.0719      2.145     5.91     1093.418     62.11401     110.4954         8     1.308     0.761  54.44   0
       367    798.0377    321.6961 307.5954446  +6.5608697     690.0023     1133.457     1533.639     88.33302     176.1061     352.5275      1.889     5.53      1090.26     62.11401     115.6406         8     1.360     0.633  35.55   0
       368    492.4328    319.6281 307.7225487  +6.5515287     5877.184     12461.09     13627.12     87.77217     175.9658     352.1421      2.191     5.05     1093.054     62.11401     569.8824        50     1.733     1.542 -58.56   0
       369    761.6031    318.3623 307.6107022  +6.5610326     2376.132     4389.471     4913.716     87.34917     175.9658     352.1771      1.985     4.84     1090.454     62.11401     271.4666        26     1.483     1.134 -80.61   0
       370    916.5250    318.3106 307.5463041  +6.5662119     795.1082     1178.158      1120.95     88.33302     176.5961     352.4925      1.692     5.16     1086.422     62.11401     112.7688         7     1.083     0.694  88.99   0
       371    154.8061    310.1501 307.8632083  +6.5441423     802.7618     1729.877     2062.955     87.77217      176.036     352.0018      2.085     5.16     1108.499     62.11401     123.7892         6     1.148     0.655   4.09   0
       372    382.3199    303.8954 307.7688504  +6.5543444      4997.58     10656.59      11600.3     88.05304     176.5262     352.4925      2.169     5.12     1096.219     62.11401     505.5619        42     1.699     1.440 -70.42   0
       373    238.3629    304.5218 307.8286675  +6.5492668     1213.769     2647.091     2888.865     88.19315     176.3163     352.3874      2.097     6.99     1103.736     62.11401     188.3821        21     1.437     1.307 -64.77   0
       374    750.0817    299.6769 307.6161198  +6.5683651     41328.04     76752.52     82445.13     88.61211     176.5262     352.5275      1.993     4.28     1089.841     62.11401     4302.988        76     1.756     1.465 -67.16   0
       375    421.7691    299.5717 307.7525982  +6.5574492     1479.536      3052.05     2742.627     87.77217     175.9658     352.1421      2.071     6.61     1094.663     62.11401     162.3918        21     1.517     1.099 -47.40   0
       376    984.8542    296.5811 307.5186288  +6.5774578     1491.024      2269.77     2363.802     87.77217     176.2462     352.1771      1.680     4.12     1082.686     62.11401     201.7517        14     1.134     0.892 -60.20   0
       377    925.9047    295.7922 307.5431608  +6.5758233      2090.37     3674.409     3811.793     88.05304     175.8254     352.1771      1.799     3.87     1084.161     62.11401     242.4065        25     1.341     1.131 -71.50   0
       378    570.0000    296.0161 307.6911012  +6.5638702     643.6005     1557.375      1587.77     87.77217     175.6849     352.0719      2.179     4.67     1090.007     62.11401     104.1589         5     1.430     0.433 -51.23   2
       379    408.4572    294.8671 307.7582904  +6.5589468     1441.459     2995.443     2687.246     88.47268     176.1762     352.3524      2.107     7.93     1094.959     62.11401     156.8207        21     1.347     1.304  52.13   0
       380    829.6340    288.7359 307.5834178  +6.5755334     912.3732     1541.973     1970.594     88.19315     176.2462     352.3874      1.945     4.52     1088.877     62.11401     114.7738        10     0.948     0.782 -52.66   0
       381    185.0003    286.1742 307.8514686  +6.5550553     1637.155     3474.407     3811.502     87.91272     175.8956     352.1771      2.214     6.14     1106.405     62.11401     196.5397        27     1.536     1.308 -70.30   0
       382    748.4790    284.2458 307.6173049  +6.5746842     4705.555     8348.107     8684.023     88.33302     176.2462     352.3524      1.922     4.10     1089.098     62.11401     527.7478        36     1.557     1.249 -73.90   0
       383    438.6111    286.6398 307.7460336  +6.5633526     782.7966     1476.603     1691.811      87.6314      176.036      352.107      2.123     4.98     1093.253     62.11401     94.87817         6     1.007     0.696 -15.78   0
       384    765.0663    282.3864 307.6104721  +6.5760048     1878.645     3568.207     3550.758     87.77217      176.036     352.3173      1.961     4.77     1088.961     62.11401     226.4731        23     1.471     1.086 -80.07   0
       385     81.4241    283.5941 307.8946085  +6.5526472     864.7014     1581.217     1548.641     87.77217     175.9658     352.2122      1.975     5.90     1112.343     62.11401     100.0769        10     1.186     0.827 -19.87   0
       386    354.3299    276.6808 307.7814037  +6.5646463     1256.214     3259.192     3559.037     88.61211     176.5961     352.4224      2.521     6.70     1096.201     62.11401     160.2024        26     1.603     1.372  43.86   0
       387     68.3348    277.4513 307.9002571  +6.5547446     942.7482     1868.585      1546.88     88.33302     176.1762     352.4224      1.973     7.99     1112.726     62.11401     132.1132        14     1.528     1.170 -15.59   0
       388   1003.0548    273.1318 307.5118492  +6.5877466     5464.277      8284.64     8937.931     88.33302     176.1061     352.3173      1.596     3.25     1080.781     62.11401     747.8483        29     1.345     1.058 -79.19   0
       389    481.6606    272.9964 307.7285987  +6.5704256     1303.259     2793.531     2668.492     87.63139     175.9658     352.0719      2.123     7.72     1089.809     62.11401     169.8923        19     1.414     1.180 -87.58   0
       390    243.8411    268.7253 307.8276001  +6.5642324     3895.554     8513.895     9781.309     88.19315     176.2462     352.4224      2.242     5.51     1102.475     62.11401      474.162        41     1.782     1.399 -80.56   0
       391    378.0240    259.6332 307.7721299  +6.5724789      1075.61     2382.592     2111.799     87.77217      176.036     352.1771      2.215     7.42     1094.376     62.11401      123.941        19     1.418     1.087 -56.40   0
       392    964.3724    258.0459 307.5284363  +6.5926906     904.7949     1557.366     1935.819     87.77217     176.3163     352.2823      1.870     4.60     1080.587     62.11401     157.9462         8     0.991     0.629  89.97   0
       393    148.1267    255.6202 307.8678291  +6.5664362     1376.719     2918.028     2946.465     87.91272     176.1762     352.3173      2.110     5.61     1107.744     62.11401     164.8062        19     1.291     1.178 -82.76   0
       394    301.2015    255.5017 307.8042034  +6.5716140     797.1285     1436.586     1298.803     87.77217     175.9658     352.0369      1.732     4.67       1098.2     62.11401      116.601         6     0.983     0.630  85.24   0
       395    557.4750    250.5746 307.6978387  +6.5822174     1439.476     3084.353     2929.968     87.91272      176.036     352.3524      2.157     6.88       1086.5     62.11401     158.1569        25     1.565     1.355 -85.60   0
       396    900.9339    250.1012 307.5550755  +6.5938614      1401.14     2495.885     2322.647     88.33302     176.3863     352.3874      1.995     5.90     1082.601     62.11401     184.3055        19     1.498     1.173  68.39   0
       397    720.8662    248.3857 307.6299898  +6.5885727     3592.869     7132.018     7058.048     87.77217     176.1061     352.3173      2.054     4.77     1086.956     62.11401      414.231        35     1.581     1.361 -65.95   0
       398    661.7755    248.4718 307.6545514  +6.5865667     1400.738     2792.603     3181.884     87.91272     176.1061     352.3173      2.108     6.18     1086.812     62.11401      165.641        18     1.298     1.147  -8.54   0
       399    916.4348    240.6228 307.5489497  +6.5982914      866.296     1485.153     1990.031     87.77217     175.9658     352.1421      1.729     4.44     1081.125     62.11401     112.6151         7     1.145     0.489  85.49   0
       400    220.8266    233.7637 307.8383485  +6.5778986     1673.254     3634.708      3736.92     87.77217      176.036     352.1771      2.220     6.54     1103.327     62.11401     192.6678        28     1.748     1.190 -66.02   0
       401    862.9515    232.6938 307.5714501  +6.5997860     1621.041     2635.059     2874.551     88.19315     176.1061     352.5275      1.778     5.77     1083.214     62.11401     182.4067        16     1.206     1.053  89.34   0
       402    753.7073    232.0497 307.6168867  +6.5964134     1353.469     2427.528     2466.985     88.19315     176.1061     352.5625      1.938     4.68     1085.852     62.11401      191.578        17     1.120     1.084  -3.73   0
       403    454.5997    223.4687 307.7415180  +6.5899739     14967.32     32927.43     37099.38     87.77217      175.685     352.1771      2.285     5.41     1086.675     62.11401     1459.616        81     2.268     1.623 -51.52   0
       404    780.3431    222.7330 307.6061270  +6.6011484     10412.08      19226.5     21362.71     88.47268     176.1762     352.3524      2.007     4.27     1085.085     62.11401     1132.953        53     1.718     1.429 -50.25   0
       405    142.9251    216.8131 307.8713042  +6.5822869     1533.174     3179.297     3377.658     87.77217     175.8956     352.1771      2.093     5.12     1107.239     62.11401     191.4935        25     1.514     1.275 -81.19   0
       406    917.0164    212.9845 307.5496358  +6.6097244     1107.273      1895.04     2433.614     88.05304     175.8956     352.3173      2.106     6.33     1079.495     62.11401     162.7257        15     1.273     1.022 -12.73   0
       407    578.4368    209.2513 307.6905169  +6.5999821     3202.093     6836.097     7433.037     88.19315     176.2462     352.3173      2.123     5.19     1083.826     62.11401     320.9147        35     1.632     1.358 -76.16   0
       408    299.3037    210.6755 307.8065065  +6.5900614     837.6069     1456.855     1419.279     87.91272     176.3863     352.4575      1.891     6.02     1098.558     62.11401     114.6219        10     1.166     0.873  79.12   0
       409    541.2976    209.2013 307.7059579  +6.5987625     1511.202     3098.189     3067.248     87.77217     175.8956     352.0018      2.061     6.56     1083.698     62.11401       150.61        24     1.627     1.056 -41.62   0
       410    383.1445    208.6676 307.7717216  +6.5936965      966.713     1900.227     1921.023     88.47268     176.1061     352.3173      2.041     7.10     1091.528     62.11401     122.3289        14     1.477     0.957 -57.47   0
       411    885.3813    205.9355 307.5630242  +6.6115828     9640.477     16425.71     17581.25     87.91272     176.2462     352.2122      1.831     3.84     1080.277     62.11401     1200.871        43     1.529     1.281 -64.66   0
       412    939.2468    206.4170 307.5406144  +6.6131760      2334.33     3911.718     4025.024     87.77217     176.1762      352.107      1.770     4.19     1078.459     62.11401     303.2819        24     1.452     1.034 -67.02   0
       413     11.7407    202.6480 307.9263147  +6.5837340     18373.16        36817     41276.29     88.33302     176.2462     352.4575      2.126     4.66     1114.209     62.11401     2103.862        70     1.866     1.549 -70.65  16
       414    972.0681    203.6191 307.5270634  +6.6154229     8874.553     14228.61     14877.97     87.91272     176.1061     352.2823      1.698     3.54     1077.265     62.11401     1191.148        40     1.480     1.186 -76.30   0
       415    683.4664    203.9224 307.6470335  +6.6056873     2212.131     4206.037     5101.847     88.47268     176.3163     352.3524      2.207     4.87     1084.712     62.11401     239.7603        27     1.415     1.301 -75.02   0
       416    560.3428    206.3405 307.6981369  +6.6005799       655.53      1020.41     973.7722     88.47268     176.1762     352.4224      1.761     5.29     1083.643     62.11401     83.82654         5     1.057     0.747  27.00   0
       417    258.3657    203.5494 307.8237651  +6.5916331     765.1373     1318.584      1295.89     88.19315     176.2462     352.2823      1.849     6.12     1101.247     62.11401     120.2339        10     1.424     0.739 -59.99   0
       418    492.2176    198.5668 307.7267196  +6.6015145     1241.288     2620.669     2937.147     87.91272      176.036     352.2472      2.201     8.02     1083.919     62.11401     162.0295        22     1.423     1.265 -31.57   0
       419    824.1114    194.9828 307.5888641  +6.6140661     1700.589     2972.043     3411.238     88.05304     175.9658     352.2472      1.795     4.45     1081.743     62.11401     231.5975        21     1.389     1.003 -86.11   0
       420    504.1739    195.0820 307.7218667  +6.6033530     1722.083     3661.701     3860.729     88.19315     175.9658     352.3874      2.145     5.23     1083.682     62.11401     179.4792        25     1.354     1.258  80.55   0
       421    735.6385    191.8531 307.6257503  +6.6124109      30643.6     57962.18     62362.16     88.19315     176.3163     352.3874      2.011     4.28     1083.718     62.11401     3326.814        69     1.730     1.481 -69.07   0
       422    876.3599    194.1458 307.5671707  +6.6161512     1777.161     3079.912      3484.81     88.19315     176.2462     352.3874      1.987     5.10     1079.747     62.11401     217.3553        20     1.415     1.028 -41.00   0
       423    338.8096    191.2936 307.7907384  +6.5993876     4306.879     10583.67     13136.05     87.91272     175.8254     352.2122      2.611     6.50     1095.106     62.11401      439.651        57     2.244     1.500 -73.71   0
       424    969.4270    190.4303 307.5286039  +6.6207817     2680.671     4213.837     4504.891     87.77217     175.9658     352.2122      1.740     3.76     1076.863     62.11401     341.4451        25     1.447     1.017  82.95   0
       425    903.4883    188.9321 307.5560676  +6.6192071     6558.273     11002.57     11664.08     88.47268     176.4563     352.4224      1.803     3.81     1078.801     62.11401     807.5636        36     1.498     1.206 -67.86   0
       426    447.1091    188.1381 307.7458236  +6.6043133     3326.555     7347.662     8115.053     88.33302     176.3863     352.4575      2.268     5.45     1085.445     62.11401     340.0804        42     1.720     1.511 -54.91   0
       427   1007.4736    189.2896 307.5128247  +6.6225176     1590.894     2401.752      2003.81     88.33302     176.5262     352.4224      1.561     3.90     1075.499     62.11401     235.6885        15     1.179     0.952 -68.65   0
       428    221.5552    184.8454 307.8396994  +6.5981236     656.6508     1210.771       1281.1     88.33302     176.2462     352.3874      2.031     5.14     1103.069     62.11401      82.6604         6     1.294     0.577 -18.14   0
       429    104.6214    179.6098 307.8884856  +6.5963649     3374.773     6828.629     7568.825     87.91272     175.9658     352.1771      2.151     4.99     1108.966     62.11401     388.1329        38     1.753     1.345 -73.69   0
       430    274.8148    176.1790 307.8178520  +6.6034866      22235.8     49098.95     53744.67     88.05304     175.9658     352.2823      2.222     5.13     1101.262     62.11401     2338.829        71     1.881     1.593 -72.55   0
       431    250.1855    177.2139 307.8280556  +6.6022343     4494.001     9638.199     9378.421     88.05304     175.8956     352.3173      2.150     5.19     1102.099     62.11401     465.9823        42     1.648     1.469 -59.87   0
       432    924.2356    178.4645 307.5477935  +6.6242201     744.0438     1352.428     1442.005     88.19315     176.1762     352.4224      1.702     5.89     1077.926     62.11401     129.9453         7     1.464     0.740 -43.47   0
       433    703.6448    175.2289 307.6396103  +6.6182094     810.9363     1407.225     1625.205     87.91272     176.3163     352.2823      1.825     6.48     1083.259     62.11401     108.2053        10     1.516     0.778 -68.96   0
       434    398.8816    171.6046 307.7664304  +6.6095282     32520.43     71710.07     79250.59     87.77217     175.7552     352.0719      2.243     5.13     1087.669     62.11401     3529.404        88     1.919     1.660 -67.24   0
       435    154.8878    173.0035 307.8678136  +6.6007789     2689.141     5930.977     6399.306     87.77217     175.8956     352.0369      2.224     5.25     1105.545     62.11401     363.5963        36     1.723     1.341 -63.73   0
       436    302.8730    169.3888 307.8064174  +6.6072302     11826.43     26297.55     29338.24     87.77217     175.8254     352.2472      2.235     5.15     1099.353     62.11401     1260.484        60     1.842     1.576 -71.54   2
       437    310.3647    169.2299 307.8033084  +6.6075466      1615.27     3564.547     4357.034     87.91272     175.9658     352.1771      2.348     5.90     1098.497     62.11401      181.272        23     1.515     1.218   2.93   3
       438    415.8665    172.1900 307.7593497  +6.6098545     883.4225     1869.027     1766.817     87.77217      176.036     352.2472      2.206     7.50     1085.588     62.11401     106.7908        14     1.412     1.114 -13.69   0
       439    738.0587    167.7315 307.6255555  +6.6224528     25315.77     47430.28     50109.07     88.47268     176.1762     352.3874      1.980     4.35     1082.349     62.11401     2656.031        66     1.708     1.477 -66.36   0
       440    786.4456    168.4225 307.6054159  +6.6237799     1076.926     1939.428     2610.193     87.91272     176.2462     352.2122      2.147     5.81      1080.93     62.11401     132.8654        13     1.199     0.891  82.45   0
       441    686.6747    169.3169 307.6468643  +6.6200849     821.6352     1553.975     1742.627     88.47268     176.5961     352.4575      2.439     5.43      1083.27     62.11401     122.8031         9     1.010     0.824 -32.61   0
       442     55.1129    165.1238 307.9095564  +6.6006854     6595.576     13440.99     14350.47     88.33302     176.5961     352.4925      2.117     4.68     1111.781     62.11401     775.9752        48     1.708     1.476 -73.30   0
       443     89.8186    163.1880 307.8951949  +6.6026495     962.9423     1872.198     2439.966     87.91272     175.8956     352.2823      2.252     5.42     1109.455     62.11401     128.5715        10     1.277     0.650 -64.03   0
       444    996.4880    162.0210 307.5183067  +6.6334134     1010.532      1467.79     1744.883     88.33302     175.9658     352.2472      1.607     5.58      1074.87     62.11401     142.4788         9     1.227     0.716 -53.04   0
       445    997.3566    148.0358 307.5184148  +6.6392177     2102.464     3285.718     3676.516     88.05304     176.1762     352.1771      1.636     4.14     1073.711     62.11401     307.6788        19     1.298     0.968 -78.93   0
       446    588.8870    144.3897 307.6883576  +6.6271159     1334.954       2888.7     3268.949     87.91272     175.8956     352.2122      2.161     6.88      1082.19     62.11401     181.8616        21     1.512     1.176 -86.24   0
       447    273.6929    142.4450 307.8194584  +6.6173794     20576.21     44356.95     49204.98     88.33302     176.1762     352.5275      2.221     5.08     1101.913     62.11401     2163.123        69     1.874     1.590 -73.76   0
       448    334.1688    143.9752 307.7942656  +6.6187724     743.2868     1509.755      1495.85     87.77217     176.1061     352.1771      2.122     5.24     1095.296     62.11401     106.6125         7     1.266     0.612  87.19   0
       449     18.9216    140.9374 307.9254203  +6.6094577     3144.108     6720.011     7314.896     88.61211     176.3163     352.3874      2.236     5.30     1113.479     62.11401     369.5292        38     1.754     1.374 -80.32   0
       450    705.3366    138.8819 307.6401300  +6.6332757     6096.027     11288.12     12519.28     88.47268     176.3163     352.3874      1.992     4.43     1081.214     62.11401     638.1902        41     1.618     1.357 -68.12   0
       451    116.2843    136.1327 307.8851088  +6.6147096     3551.149     7185.198     8088.698     88.61211     176.5262     352.4224      2.152     4.79     1106.607     62.11401     418.5286        35     1.613     1.331 -76.31   0
       452    576.8798    135.1758 307.6936599  +6.6305200     635.9656     1114.195     998.3569     87.91272      176.036     352.3874      1.602     4.25     1081.777     62.11401     118.4457         5     1.067     0.484  52.05   0
       453    386.8617    132.1128 307.7727603  +6.6254342     2527.001     5943.265     6678.871     88.47268     176.4563     352.4224      2.395     6.05      1088.19     62.11401     273.9407        42     1.812     1.513  82.61   0
       454    454.8867    133.5940 307.7444302  +6.6270974     912.9587     1980.423     1471.902     87.77217     175.8956     352.0719      2.135     7.24     1083.449     62.11401     124.8817        14     1.421     1.033 -40.54   0
       455    687.9995    132.8661 307.6475403  +6.6351818     6135.351     5985.239     5944.995     87.49039     175.7552      352.107      0.582     1.14     1081.086     62.11401     3368.821        10     0.603     0.444 -78.77   0
       456    351.2408    131.3044 307.7875962  +6.6245762     2217.176     4572.156     4811.001     88.33302     176.1762     352.5625      2.158     5.67     1092.626     62.11401     234.0314        27     1.652     1.111 -59.92   0
       457    104.3381    132.6791 307.8901919  +6.6157350     825.7883     1425.472      1777.65     88.47268     176.3163     352.3874      1.776     5.03     1107.023     62.11401     122.2588         7     1.189     0.602  73.84   2
       458    106.7692    131.0893 307.8892350  +6.6164730     1079.921      1897.62     2116.513     88.47268      176.036     352.3173      1.940     3.65     1106.783     62.11401     170.3523        10     1.047     0.708 -81.05   3
       459    997.9244    125.0569 307.5189497  +6.6487260     1527.145     2165.211     2145.552     88.33302     176.1762     352.3173      1.490     3.67     1071.755     62.11401     216.1699        14     1.147     0.819 -78.66   0
       460    203.2740    119.9885 307.8494921  +6.6242933     3932.514     8134.361     8682.162     87.77217     175.8254     352.2122      2.137     4.89     1103.464     62.11401     431.1985        40     1.648     1.434 -74.74   0
       461    664.8754    118.7313 307.6576299  +6.6402476     4608.414     8725.861     9692.662     88.47268     176.3863     352.3874      2.021     4.50     1080.464     62.11401     463.4186        39     1.601     1.347 -66.42   0
       462     85.8443    119.7475 307.8983177  +6.6204544     1387.759     3071.044     4097.087     88.33302     176.2462     352.3874      2.568     7.84     1107.479     62.11401     192.3066        25     1.686     1.320 -43.56   0
       463    813.1345    118.7026 307.5959915  +6.6452013      849.235     1420.992     1495.358     88.33302     176.3163     352.4224      1.733     5.98     1077.742     62.11401     103.2197        11     1.376     0.731 -20.36   0
       464    616.9890    115.9496 307.6776323  +6.6397985     6551.231     13872.67     15688.25      87.6314     176.1061     352.0719      2.194     5.29     1080.983     62.11401     656.7805        52     1.888     1.474 -72.42   3
       465    620.5601    107.4513 307.6764338  +6.6434271     39401.23     77224.12     83772.59     88.33302     176.2462     352.3874      2.072     4.65     1080.465     62.11401      3889.29        78     1.792     1.547 -66.58   3
       466     14.9246    115.3242 307.9279496  +6.6199001     807.0251     2189.142     3529.554     88.61211     176.5262     352.4925      3.451     8.70     1112.937     62.11401     105.1708        14     1.533     1.379 -75.43   0
       467    344.3241    111.6002 307.7911371  +6.6324814     2453.874     5792.988     6948.217      87.4904     175.5443     352.1421      2.410     6.68     1093.268     62.11401     248.3384        38     1.979     1.381 -62.05   0
       468    525.9684    111.4289 307.7156262  +6.6386260     1207.867     2476.219     2454.825     87.77217     175.9658     352.1421      2.125     7.00     1081.494     62.11401     145.4071        19     1.438     1.142  35.75   0
       469    299.8790    101.2729 307.8099633  +6.6352582     2400.006     5118.208     5900.451     88.61211     176.5262     352.3524      2.251     5.75     1100.176     62.11401     243.9091        31     1.612     1.336 -77.01   0
       470      2.3309     84.0346 307.9342451  +6.6323977     29464.01      55901.8     72664.02     87.49039     155.6374     282.9346      2.489     6.31     1112.838     62.11401     6353.947       168     3.585     1.878  89.74  24
       471    671.3268     95.0115 307.6557462  +6.6502580     1092.795     2074.418     2264.705     87.77217     175.8254     352.2122      1.934     4.60      1078.85     62.11401     142.4897        12     1.032     0.883 -59.77   0
       472    685.0635     91.5893 307.6501502  +6.6521294     2371.414     4344.643     4474.757     87.77217      176.036     352.2472      1.953     4.45     1078.591     62.11401     283.4476        24     1.363     1.140 -85.38   0
       473    426.7461     82.5722 307.7578508  +6.6472260     2688.565     5841.013     5992.187     88.05305     176.3163     352.2823      2.178     5.57     1084.291     62.11401     308.8531        34     1.557     1.467  85.48   0
       474    899.1193     77.8242 307.5616155  +6.6649451     3247.157     5605.362     5491.866     88.05304     175.9658     352.3173      1.847     3.93     1072.117     62.11401     444.1875        31     1.552     1.187 -71.91   0
       475    880.9235     78.9601 307.5691427  +6.6638704     1662.041     2777.652      2581.26     88.19315     176.2462     352.4575      1.750     4.14     1072.785     62.11401     242.5308        19     1.301     0.977 -59.65   0
       476    591.3469     76.3752 307.6896262  +6.6552850     1268.705     2431.138     2428.782     87.77217     176.2462     352.2823      1.951     5.88     1079.681     62.11401     134.2228        16     1.217     1.053  86.09   0
       477    390.1444     74.2804 307.7733478  +6.6494258     1344.803     2927.212     2984.591     88.47268     176.2462     352.4224      2.161     7.42     1087.756     62.11401     143.0925        23     1.580     1.181 -81.76   0
       478    138.0293     71.5032 307.8782563  +6.6421272     2307.071     4852.459     5320.803     88.47268     175.9658     352.3874      2.135     6.26     1103.962     62.11401     264.2513        27     1.591     1.206 -71.29   0
       479     19.9280     69.1152 307.9274352  +6.6391495     9391.838     18844.59     22241.97     88.47268     176.5961     352.4224      2.212     4.61     1110.685     62.11401     1105.793        59     1.828     1.493 -76.53   0
       480    286.6697     69.7690 307.8165194  +6.6478252     942.3641      2157.21     2763.902     88.19315     176.2462     352.3524      2.744     6.87     1102.033     62.11401     109.5935        14     1.174     1.128   5.54   0
       481    755.1422     68.0602 307.6218056  +6.6641823     711.7346     1216.282     1261.469     88.47268     176.1762     352.4224      1.624     4.26      1076.08     62.11401     130.8677         5     1.068     0.484 -21.02   0
       482    821.4924     63.6221 307.5943681  +6.6682256      5415.52     9052.432     9650.897     88.33302      176.036     352.2122      1.828     3.91     1074.191     62.11401     656.2338        36     1.474     1.275 -74.27   0
       483    766.7133     63.9715 307.6171321  +6.6662564     2718.398     4921.783     4867.565     88.47268     175.8956     352.2472      1.896     4.58     1075.602     62.11401     325.2419        31     1.591     1.189 -65.72   0
       484     60.2452     61.0324 307.9109480  +6.6438409     2390.003     4712.901     4735.867     88.05304     176.3163     352.2122      2.034     5.43     1107.271     62.11401     284.7107        31     1.680     1.267 -75.51   0
       485    528.9014     62.1015 307.7160697  +6.6590939     873.2262     1587.071     2026.977     88.33302      176.666     352.2122      1.843     5.62     1080.406     62.11401     103.9182         9     1.249     0.714  46.73   0
       486    421.4187     59.9935 307.7608277  +6.6563717     642.5027     1294.094     1502.982     87.91272     175.8956     352.2122      2.210     4.69     1085.052     62.11401     84.11584         5     1.101     0.568 -12.05   0
       487    584.4802     58.1193 307.6930963  +6.6625945     801.8441     1636.912      1988.56     88.61211     176.5262     352.5625      2.390     6.13     1079.217     62.11401     93.30652        11     1.517     0.696 -47.67   0
       488      3.0135     56.6086 307.9348908  +6.6437458     1913.071      3851.57     4802.597     87.91272      164.357     294.0611      2.304     5.25     1111.434     62.11401     219.8931        28     1.528     1.273 -63.62  24
       489    401.7473     53.8848 307.7692124  +6.6582363     616.9962     1504.232     1646.304     88.33302     176.1762     352.5625      2.665     5.16      1086.89     62.11401     108.1641         6     1.020     0.737  74.06   2
       490    761.2267     51.4879 307.6198332  +6.6712287     1437.743     2687.329     3510.037     88.47268     175.9658     352.2823      2.238     5.49     1074.827     62.11401     184.6074        21     1.533     1.025 -73.65   0
       491     75.8559     51.9684 307.9047652  +6.6481077     745.7264      1130.98     861.7491     88.19315     176.2462     352.3173      1.644     6.17     1105.781     62.11401     112.1619         9     1.171     0.913  87.81   0
       492     99.6956     50.8427 307.8948923  +6.6493726     792.7918     1451.356     1190.863     88.33302     176.1762     352.5275      2.234     5.30     1104.165     62.11401     115.8353         8     0.959     0.827  17.17   0
       493     88.0210     45.3511 307.8999318  +6.6512485     6592.597     13657.11     14612.87     87.77217     176.3163     352.2472      2.128     4.90     1104.707     62.11401     792.5581        47     1.768     1.426 -66.10   0
       494    417.2840     45.1690 307.7630470  +6.6623551     1757.798     3452.324     3324.622     88.33302      176.036     352.2472      1.981     4.85     1085.683     62.11401      202.094        23     1.374     1.154 -10.50   0
       495    630.7042     37.2519 307.6745806  +6.6727547     13819.55     26873.99     29053.67     88.19315     176.1762     352.6675      2.064     4.51     1077.617     62.11401     1414.664        60     1.760     1.476 -68.68   0
       496    254.4523     39.7230 307.8309293  +6.6591533     998.6517     2164.462     3546.635     88.47268     176.3163     352.3874      3.353     7.58     1102.645     62.11401     114.1316        15     1.285     1.251 -64.01   0
       497    530.4387     33.3382 307.7164002  +6.6710231      3808.18      7617.75     8076.825     88.33302     176.2462     352.4224      2.090     5.12     1079.739     62.11401     360.6328        38     1.676     1.332 -59.11   0
       498    248.9996     33.8642 307.8333943  +6.6613900     1329.899     2720.876     3931.981     87.49039     175.8956      352.107      2.409     6.16     1102.738     62.11401      150.062        18     1.403     1.052 -39.33   1
       499    209.4959   1020.8561 307.8164643  +6.2524882     2247.491     3112.172     2737.144     88.19315      174.769     311.2748      1.482     3.27     1133.132     62.11401     297.6688        15     1.121     0.830 -78.99  16
       500    436.1336     28.9688 307.7557568  +6.6696754     15767.13      33120.1     35928.16     88.05304     176.2462     352.3173      2.161     4.91      1084.15     62.11401     1621.311        61     1.810     1.519 -70.85   0
       501    256.7528     29.3877 307.8303222  +6.6634982     6317.954     13432.94     15051.12      87.6314     176.1061     352.0719      2.188     4.98     1102.589     62.11401      674.739        46     1.700     1.469 -68.02   0
       502    913.8946     28.8055 307.5571186  +6.6856795     1755.398     2771.294     3353.763     88.05304     175.8956     352.1421      1.632     4.64     1068.962     62.11401     225.9261        15     1.174     0.914 -66.18   0
       503     22.1784     28.9701 307.9278598  +6.6558023      1783.78     3517.772     3256.255     87.77217      176.036     352.2472      2.025     4.55     1108.772     62.11401     260.7458        23     1.335     1.222 -74.47   0
       504    244.7351     26.0888 307.8354301  +6.6644578      2106.19     4325.402     4687.343     88.33302     176.4563     352.3874      2.100     5.80     1102.812     62.11401     239.1567        31     1.583     1.363 -89.78   0
       505    298.7243     24.6566 307.8130322  +6.6668578     573.3367     903.8582     995.1833     88.33302     176.1762     352.2823      1.707     3.42     1100.355     62.11401     86.06677         5     1.202     0.281 -54.72   0
       506    934.2779     19.2982 307.5489626  +6.6902838      923.168      1466.78     1413.867     87.91272     176.5262     352.4224      1.627     5.77     1067.592     62.11401     130.2214        11     1.325     0.709 -55.61   0
       507    427.5656   1018.2362 307.7259598  +6.2608643     3987.037     6216.536     6830.826     88.05305     175.9658     341.6067      1.694     3.67     1132.909     62.11401     537.3031        28     1.485     1.022 -65.34  16
       508    712.5804   1017.8730 307.6075638  +6.2705243     7664.539     11315.05     11679.74     87.91272     176.1762     344.8441      1.580     3.17     1129.176     62.11401     1050.501        33     1.407     1.027 -63.89  16
       509    568.8030   1016.9731 307.6673263  +6.2661018      4224.48     6794.831     7755.475     87.77217     175.9658     350.7016      1.722     3.57     1132.708     62.11401     598.0581        30     1.508     1.074 -75.99  16
       510    704.7399   1017.2920 307.6108407  +6.2705030     1317.966     1795.951     2134.666     88.19315     176.1762     349.1846      1.543     2.96     1129.528     62.11401     221.6201        13     1.018     0.799 -49.52  16
       511    744.8046   1012.8813 307.5943438  +6.2736593     1378.086      2441.02      3471.47     87.77217     175.7552     352.0719      1.933     4.05     1127.559     62.11401     230.4783        15     1.332     0.798 -59.57   0
       512    952.1487   1007.3134 307.5083871  +6.2828582     7598.093     10477.68     10242.43     88.33302     176.1061     352.4575      1.452     3.00      1124.54     62.11401     1179.042        27     1.314     0.904 -73.91   0
       513    552.6582   1008.4628 307.6743200  +6.2690775     455.1969     512.7903    -79.73531     88.47268     176.1762     352.4224      1.405     5.60     1132.325     62.11401     94.74805         5     1.259     0.703 -49.21   0
       514    711.8297   1005.5296 307.6082904  +6.2755967     2934.128     4332.341     4835.172     88.19315     176.2462     352.3173      1.626     3.73     1128.624     62.11401     422.6759        20     1.335     0.857 -71.83   0
