#   1 NUMBER                 Running object number                                     
#   2 X_IMAGE                Object position along x                                    [pixel]
#   3 Y_IMAGE                Object position along y                                    [pixel]
#   4 ALPHA_J2000            Right ascension of barycenter (J2000)                      [deg]
#   5 DELTA_J2000            Declination of barycenter (J2000)                          [deg]
#   6 FLUX_APER              Flux vector within fixed circular aperture(s)              [count]
#   9 FLUXERR_APER           RMS error vector for aperture flux(es)                     [count]
#  12 FLUX_RADIUS            Fraction-of-light radii                                    [pixel]
#  13 FWHM_IMAGE             FWHM assuming a gaussian core                              [pixel]
#  14 BACKGROUND             Background at centroid position                            [count]
#  15 THRESHOLD              Detection threshold above background                       [count]
#  16 FLUX_MAX               Peak flux above background                                 [count]
#  17 ISOAREA_IMAGE          Isophotal area above Analysis threshold                    [pixel**2]
#  18 A_IMAGE                Profile RMS along major axis                               [pixel]
#  19 B_IMAGE                Profile RMS along minor axis                               [pixel]
#  20 THETA_IMAGE            Position angle (CCW/x)                                     [deg]
#  21 FLAGS                  Extraction flags                                          
         1    166.3606     22.2559 307.8654783  +6.6681096      5821.15     14041.34     16728.66     91.50043     182.6386     364.9869      2.573     5.84     1187.962     64.34127      697.182        62     2.126     1.662 -36.32   0
         2    911.4468     19.7017 307.5557080  +6.6940230     2637.977     5812.753     7078.251     91.50043     182.4208     365.2408      2.440     6.90     1148.039     64.34127     309.2614        39     2.024     1.327 -49.31   0
         3    510.8026     20.4491 307.7223018  +6.6803715     1529.035     3563.715     4630.654     90.77365     182.1301     364.5511      2.534     6.20     1159.211     64.34127     204.6134        30     1.753     1.289 -56.64   0
         4    712.8854     18.8724 307.6383146  +6.6877596     1037.764      2483.67     2580.692      91.6451     182.9285     365.0594      2.556     8.03     1154.152     64.34127     135.9349        17     1.731     1.041 -23.13   0
         5    448.7971     19.1621 307.7481316  +6.6788328     836.4586     1983.268     1599.562     90.48131     182.2755      364.769      2.213     7.43     1164.407     64.34127     100.0936        12     1.534     1.007 -55.54   0
         6    976.3027     16.0286 307.5288599  +6.6976942     1427.212     2848.405     3191.287      91.6451     182.2755     365.0232      2.125     6.86     1142.359     64.34127     181.6135        23     1.534     1.152 -17.94   0
         7    695.9073     12.4909 307.6455927  +6.6898290     4122.996     9785.663     11534.05     91.50043     183.1456     365.0594      2.523     5.94     1153.868     64.34127     439.3976        53     2.036     1.586 -34.36  16
         8    616.3531     11.5771 307.6787087  +6.6875553     2076.012     5011.341     5552.952     91.06506      182.566      364.878      2.457     7.00     1155.641     64.34127     247.9354        37     1.920     1.459 -20.62  16
         9    416.6073      8.0648 307.7618971  +6.6823396      3306.72     7935.093     9488.683     90.91947     182.2755     363.4593      2.529     6.26     1168.831     64.34127     367.0896        55     2.133     1.593 -33.20  16
        10     17.6289      7.8400 307.9278207  +6.6690762     4741.972     10802.22     12600.03     91.06506     182.2755     362.3642      2.471     5.66     1191.289     64.34127     563.0693        58     2.246     1.501 -37.06  16
        11    313.0438      3.3983 307.8051247  +6.6808048     6539.873     15428.84     17996.34     90.77365     174.5535     310.5918      2.418     6.22     1180.542     64.34127      751.231        56     2.220     1.472 -26.00  24
        12     86.4922      3.5499 307.8993315  +6.6731567     1507.695     3343.886     4252.116     91.35555     176.2152     313.3942      2.632     8.19     1188.366     64.34127     181.0482        26     1.771     1.508 -15.02  24
        13     77.8551      3.0447 307.9029405  +6.6730758     845.7469     2104.405     2658.521     91.50043     171.0268     305.3005      2.520     8.80     1188.589     64.34127     125.4553        17     2.247     0.962 -27.82  24
        14    378.9796      1.8563 307.7777571  +6.6836458     1137.929     1984.033     1441.917      86.4379     153.9895     284.2224      1.667     6.53     1172.061     64.34127     158.3687        16     1.582     0.757 -12.80  24
        15    530.3314    996.0517 307.6809352  +6.2781946     6170.549     11573.48     13903.08     91.35554     182.4208     364.9506      2.137     4.90     1222.365     64.34127     793.5944        46     1.993     1.178 -35.56   0
        16    737.0344   1023.3378 307.5941127  +6.2738123     853.8289      1197.51     1163.809     84.42202     150.9485     280.8937      1.624     4.96     1220.615     64.34127     156.2122         9     1.264     0.551 -27.83  24
        17    898.8510    996.4872 307.5277810  +6.2902787     7263.859     12787.17     13424.12     91.50043     182.4208      365.132      1.930     5.22     1213.885     64.34127     1035.724        44     1.955     1.029 -32.14   0
        18    872.5430    992.6457 307.5388439  +6.2909909     10147.46     18489.69     20591.89     91.50043      182.566     365.0594      1.996     5.46      1215.07     64.34127     1294.889        49     2.033     1.112 -32.33   0
        19    585.0325    993.4280 307.6582937  +6.2811012     1045.313     2007.237     2307.989     90.91947     182.2755     364.8054      2.135     6.65     1220.805     64.34127     146.8586        14     1.465     0.888 -38.49   0
        20    994.2657    992.0489 307.4882806  +6.2952794     4292.771     7549.731     8420.716     91.35555     182.4208     365.0232      1.908     5.14     1209.592     64.34127     584.1248        35     1.986     0.957 -34.55   0
        21    516.8456    991.8387 307.6866826  +6.2794846     2885.661     5969.726     7042.407     91.21042      182.566     364.9143      2.228     5.49     1222.474     64.34127     336.2892        33     1.837     1.176 -30.49   0
        22    625.7252    991.1096 307.6414627  +6.2834141      1118.35     2157.333     2413.917     91.50043     182.7836     365.0957      2.093     7.21     1219.642     64.34127     136.9828        16     1.501     0.970 -27.26   0
        23     50.2927    991.2972 307.8805680  +6.2641159     624.8745     1408.739      1674.45     91.50043     183.1456     364.9506      2.017     4.51     1227.168     64.34127     83.30664         6     1.047     0.553  55.12   0
        24    469.7374    988.2664 307.7063798  +6.2793884     1558.527     2969.958     3630.749     91.50043      182.566     365.0232      2.146     6.19     1223.075     64.34127     209.6915        20     1.618     0.982 -47.26   0
        25    904.2839    980.2311 307.5260747  +6.2971715     36233.88     64792.38     71899.84     91.50043     182.3482      364.878      1.961     4.96     1212.797     64.34127     4881.744        75     2.081     1.171 -34.51   0
        26    211.4524    979.0121 307.8140224  +6.2745824     1184.672     2143.284     2051.925     90.77365     182.4934     364.6964      1.914     7.01     1226.291     64.34127     172.9266        18     1.514     1.044  -7.60   0
        27    801.9777    974.2838 307.5687915  +6.2962273     1997.918     3294.102     3835.862     91.35554     182.2028     364.9143      1.844     5.64     1215.422     64.34127     274.3312        21     1.703     0.884 -39.33   0
        28    750.4183    971.8063 307.5903019  +6.2955354     5101.472     9738.175     10831.73     91.06506     182.2028     364.8416      2.063     5.44     1216.793     64.34127     653.6042        45     2.040     1.159 -38.47   0
        29    220.0009    971.1394 307.8107392  +6.2781188     998.0265     2135.785     2418.436     90.62759     182.3482     364.6601      2.181     5.54     1226.061     64.34127     148.2985        11     1.406     0.615 -28.45   0
        30    184.4265    971.2049 307.8255192  +6.2769019     903.3286       1501.7      1706.46     90.91947     182.3482     364.8416      1.800     4.47     1226.139     64.34127     144.4209         7     0.914     0.736 -18.32   0
        31     44.8352    969.4811 307.8835820  +6.2729407     1928.011     3841.204     4661.976     91.35555     182.6386     365.0232      2.215     6.05     1226.767     64.34127     230.8699        28     1.893     1.039 -37.19   0
        32    938.5758    966.9811 307.5122735  +6.3037816     5709.487     10022.88     10618.22     91.21042     182.4208     364.9506      1.914     5.11      1210.75     64.34127     757.9519        37     1.932     1.006 -37.42   0
        33    912.2066    958.7488 307.5235111  +6.3063051     1846.781     3260.036     3592.626     90.91947     182.3482     364.5874      1.906     4.77      1211.44     64.34127     253.7505        21     1.560     0.943 -31.51   0
        34    245.1733    955.0137 307.8008298  +6.2856188     2973.666       5667.4     6102.104     91.21042     182.3482     364.9506      2.061     4.79     1225.669     64.34127     374.9243        32     1.744     1.177 -39.33   0
        35    771.4845    955.2269 307.5821108  +6.3030820     1181.748     1897.188     1836.392      91.6451     182.2755      364.878      1.688     5.61     1215.096     64.34127     155.2192        12     1.232     0.720 -35.33   0
        36    633.1147    954.6532 307.6396322  +6.2987134     3382.357     6211.475     6616.941     91.50043     182.4934     365.2046      2.017     5.33     1218.273     64.34127     415.7007        32     1.932     0.981 -32.88   0
        37    454.8699    953.3290 307.7137484  +6.2933182     764.8421     1390.771     1117.695     91.50043     182.7111     364.9869      1.901     7.09     1222.673     64.34127      100.307        11     1.695     0.830 -46.89   0
        38     13.9137    952.6400 307.8970068  +6.2788582     1686.281     3139.981     3586.936     91.50043      182.566     365.0232      2.020     6.68     1226.627     64.34127     191.7106        20     1.600     0.937 -41.67   0
        39    864.8586    950.9771 307.5434514  +6.3079411     682.8176      1324.78     1685.878     91.06506      182.566     364.8416      2.291     6.08     1212.525     64.34127     97.77991         9     1.618     0.643 -49.67   0
        40    557.7603    947.3041 307.6711967  +6.2992372     1117.031     1793.131     1579.149     91.50043     182.4208     365.1683      1.867     6.28     1220.038     64.34127     139.3306        12     1.414     0.783 -33.64   0
        41    989.4507    946.8765 307.4918128  +6.3137720     721.1611     1264.984     1422.877     91.35555     182.6386     365.0232      1.921     3.48     1207.875     64.34127     140.6715         6     1.009     0.449 -32.87   0
        42    596.4151    943.3283 307.6552685  +6.3021670     860.6097     1565.102     2038.768     90.91948     182.4208      364.878      2.264     5.87     1219.193     64.34127     102.9257         9     1.323     0.733 -32.87   0
        43    276.2209    941.9380 307.7883746  +6.2920556     962.1915     1885.688     2982.035     91.06506      182.566      364.878      2.104     6.12     1225.326     64.34127     142.4744        12     1.392     0.801 -16.43   0
        44    881.3309    933.9319 307.5371844  +6.3155266     5594.203     10180.13     10969.75     91.50043     182.7111     364.9869      1.974     5.03     1210.962     64.34127     726.9279        42     1.912     1.147 -36.26   0
        45    417.4086    931.4097 307.7300628  +6.3011186     1446.018     2708.421     3214.513     90.91948     182.3482     364.9143      2.122     7.91     1222.961     64.34127      171.557        20     1.897     0.922 -48.59   0
        46    319.0262    929.5648 307.7710092  +6.2985949      6592.75      13681.4     15477.49     90.77365     182.2755      364.769      2.255     5.24     1224.438     64.34127      778.801        54     2.165     1.294 -38.27   0
        47    239.1193    928.6542 307.8042457  +6.2963001     4921.519     10009.79     11486.85     91.50043      182.566     365.0957      2.241     5.10     1224.887     64.34127     587.3029        48     2.046     1.335 -29.02   0
        48    566.4921    923.6957 307.6683718  +6.3092762     807.0432     1313.718     957.4843     91.50043     183.1456     364.9869      1.657     5.47      1219.15     64.34127     127.4336         9     1.528     0.553 -52.60   0
        49    896.6094    919.5593 307.5313226  +6.3219689     872.5983      1489.45     1452.079     90.77365     182.3482     364.6964      1.984     5.44     1209.689     64.34127     138.5029        10     1.322     0.632 -53.70   0
        50    264.5051    918.7349 307.7940353  +6.3012445     3524.242     4699.088     4604.236     91.50043     182.7111     365.0594      1.466     4.55     1224.755     64.34127     1176.282        11     1.606     0.367  75.75   0
        51    395.5316    917.6253 307.7396240  +6.3060799     592.3555     882.4685     813.8238     91.06506     182.4208     364.9143      1.667     4.06     1222.873     64.34127     102.4303         5     0.948     0.496  86.23   0
        52    732.8511    912.6465 307.5996128  +6.3193787       1254.2     2473.349     2863.195      91.6451     182.4208     365.0957      2.233     7.87     1213.555     64.34127     161.8372        19     1.969     0.880 -57.11   0
        53    963.5352    915.3727 307.5036510  +6.3259202     764.7615     1105.197     1735.691     91.06506      182.566     364.9143      1.497     4.33     1207.158     64.34127     103.0502         7     0.988     0.540 -29.41   0
        54    964.5961    907.7641 307.5034681  +6.3290971     1030.199      1806.86     2626.573     90.48131     182.4208     364.8054      2.377     5.61     1206.607     64.34127     157.2229        12     1.562     0.567 -38.75   0
        55    518.7540    907.9997 307.6887448  +6.3141657     808.5571     1580.819      1359.34     90.62759     182.2755     364.5147      2.113     6.76     1220.002     64.34127      113.077        11     1.443     0.890 -22.85   0
        56    651.8430    905.6179 307.6335172  +6.3195842      1881.88     3705.569     4090.967     90.91947     182.4208      364.769      2.082     7.06     1215.392     64.34127     214.6144        24     1.825     1.015 -32.10   0
        57    192.1050    901.1037 307.8247236  +6.3061032     1586.588     3049.046     2787.561     91.50043     183.2179     364.8416      2.105     6.87     1224.647     64.34127     188.6722        24     1.680     1.187 -53.40   0
        58     65.5483    901.5327 307.8772996  +6.3016897     1222.546     2519.018      2714.96     91.35555     182.4934     364.9869      2.205     8.34     1225.258     64.34127     151.5236        22     1.716     1.132 -35.54   0
        59    646.6117    894.5795 307.6360667  +6.3239679     4907.413     9625.729     10424.86     91.06506     182.2029     364.9143      2.083     5.32     1215.125     64.34127     531.7573        38     1.898     1.115 -31.97   0
        60    226.5423    896.8591 307.8105580  +6.3090076     564.8691     927.6002     923.3302      91.6451     182.4934     365.0594      1.918     4.22     1224.464     64.34127     87.69568         5     0.924     0.549 -42.68   0
        61      6.1035    893.5219 307.9022756  +6.3030056     839.5671      1846.83     1395.852     91.21042     182.7836     347.5096      2.178     8.45     1225.291     64.34127     114.6914        17     1.632     1.223 -47.74  16
        62    883.9927    890.8530 307.5375401  +6.3334030     2081.369     3817.963     4669.738     90.91947     182.3482     364.6601      2.039     5.14     1207.972     64.34127     289.3632        24     1.685     0.980 -35.40   0
        63     19.2829    891.9404 307.8968531  +6.3041003     930.9376     1503.203     1741.571      91.6451     182.6386     365.0594      1.952     5.24     1225.188     64.34127     117.2361         7     1.045     0.743  -6.00   0
        64    329.7230    887.8196 307.7679885  +6.3161888     10642.72      22247.1     26607.05     91.06506     182.2755     364.9869      2.278     5.25     1223.751     64.34127     1192.303        65     2.162     1.383 -35.89   0
        65     64.1115    888.7759 307.8783330  +6.3069087     973.6153     1903.241     2004.978     91.50043     182.3482      364.878      1.908     6.27     1224.969     64.34127     137.6115        12     1.509     0.902   5.93   0
        66     48.6049    901.9352 307.8843265  +6.3009560     2033.914     4201.928     5299.394     90.77365     182.2028      364.769      2.412     5.79     1225.336     64.34127     218.0521        31     1.718     1.297 -35.45   0
        67     93.2114    879.0967 307.8665716  +6.3118798     1022.424     2000.268     1573.789     91.21042     182.2028     364.8054      1.786     5.95      1224.69     64.34127     183.2106        11     1.659     0.600 -40.28   0
        68    407.7698    878.3508 307.7358774  +6.3227050     833.0964     1467.148     1622.979     91.06506     182.6386     364.9143      2.038     5.31     1221.024     64.34127     131.8506         8     1.190     0.669 -27.31   0
        69    487.2425    875.7870 307.7029376  +6.3264155     656.8978     1238.134     1923.745     90.77365     182.3482     364.7327      2.507     4.83     1219.731     64.34127     91.00757         5     1.289     0.513 -64.13   0
        70    874.7243    872.5103 307.5420146  +6.3406690     1525.856     2957.362     3347.137     91.50043      182.856     365.0594      2.115     7.53     1206.982     64.34127     219.9299        22     1.882     0.877 -32.73   0
        71    845.2346    872.1825 307.5542817  +6.3398243     1723.102     2893.229     3512.575     91.06506     182.3482     364.8054      1.858     4.97      1207.88     64.34127     215.9178        21     1.487     0.967 -42.59   0
        72    808.7443    871.4232 307.5694728  +6.3389247     2369.738     4547.912     4934.681     91.06506      182.566     364.8054      2.073     5.51     1209.057     64.34127     277.9137        28     1.758     1.046 -28.59   0
        73     76.3926    872.0506 307.8738017  +6.3142258     1650.453     3371.073       4070.1     90.91947     182.3482     364.6237      2.348     7.37     1224.569     64.34127     214.5929        24     1.894     0.880 -36.21   0
        74    544.7783    862.9665 307.6794632  +6.3336279     220736.4     456682.8     526520.2     90.91947     182.3482     364.8054      2.263     5.31     1218.258     64.34127     24319.21       173     2.299     1.565 -34.27   0
        75    388.9671    865.6816 307.7441234  +6.3273083     5069.288     10721.24     12373.53     91.35554     182.4934     364.9869      2.331     5.55     1221.456     64.34127      594.217        54     2.174     1.337 -35.86   0
        76    332.2130    864.0549 307.7677646  +6.3260845     8149.673      17330.1      20655.6     90.77365     182.4934     364.7327      2.363     5.20     1223.424     64.34127     981.7432        61     2.155     1.394 -39.05   0
        77    632.6957    865.8199 307.6428284  +6.3353795     748.0377     1408.885     1567.616     91.35555     182.3482     364.8054      2.064     4.40     1214.384     64.34127     114.4893         5     1.223     0.451 -59.85   0
        78    650.6373    860.1561 307.6355647  +6.3383157     2536.265      5170.91     6254.711     91.21042      182.566     364.8416      2.237     5.90     1213.328     64.34127     296.1305        32     1.878     1.150 -39.38   0
        79    882.8164    859.0780 307.5391074  +6.3464842      4116.47     7400.605     8648.608     91.06506     182.2755      364.878      1.964     4.78     1205.926     64.34127     510.3528        30     1.728     0.984 -33.30   0
        80    625.3328    854.2032 307.6462836  +6.3399308     2253.721     4571.482     5178.241     90.77365     182.2028      364.769      2.165     7.06     1213.995     64.34127     249.4633        27     1.811     1.031 -37.10   0
        81   1016.4580    853.1957 307.4837642  +6.3533506     3785.265     6612.421     7220.707     90.77365     182.4208      364.769      1.943     4.96     1201.176     64.34127     515.2874        30     1.925     0.891 -33.00  16
        82    813.3896    853.2484 307.5681595  +6.3465838     1075.275      1955.68     2132.141     90.91947     182.4208     364.6601      2.155     5.62     1207.703     64.34127     149.8596        13     1.290     0.853 -49.00   0
        83    618.1089    849.0212 307.6494622  +6.3418299     1641.432     3391.253     4857.659     91.35555     182.3482     364.8416      2.672     7.51     1213.931     64.34127      182.495        24     1.660     1.123 -36.94   0
        84    901.8159    846.8779 307.5316251  +6.3521531     2394.616     4665.607      5022.74     91.06506     182.2755      364.878      2.120     5.65     1204.733     64.34127     293.9198        26     1.804     1.017 -25.35   0
        85    311.6289    848.0559 307.7768649  +6.3320027     672.9436     1351.426     1668.054     91.21042     182.6386     364.9143      2.261     4.26     1223.307     64.34127     112.4054         5     1.163     0.445  79.90   0
        86    359.6852    843.0845 307.7570632  +6.3356608     1712.073     3806.242     4621.187     91.21042     182.7111     365.0957      2.346     6.81     1221.724     64.34127     191.0178        28     1.705     1.189 -43.65   0
        87    496.3531    832.4958 307.7006263  +6.3445946     1893.397     4240.545     4918.733     91.35555     182.4934     365.2046      2.380     6.67      1217.32     64.34127     219.6554        30     1.818     1.194 -34.97   0
        88    840.0933    831.5593 307.5577978  +6.3564272     792.1471     1295.388     2098.668      91.6451     182.4934      365.132      1.901     5.62     1205.733     64.34127     105.7738        10     1.023     0.871  71.10   0
        89    543.6030    828.8577 307.6811132  +6.3476725     3593.917     8019.527     10616.07     90.77365     182.4208     364.7327      2.739     6.24     1215.952     64.34127     454.6968        54     2.694     1.329 -19.78   0
        90    460.7433    828.5208 307.7155610  +6.3450479     926.8816     1873.143     1675.614     91.50043      182.566     365.0232      1.985     6.91      1218.06     64.34127     107.5925        12     1.628     0.821 -39.39   0
        91    878.1866    826.8864 307.5421242  +6.3596228      1086.32     1734.205     1486.165     91.06506     182.3482     364.9143      1.687     4.48     1204.596     64.34127     173.7256        12     1.065     0.998 -38.29   0
        92    102.7431    827.1856 307.8643860  +6.3336326     855.3198     1581.895     1867.731     90.77365     182.4208     364.6601      1.932     4.31     1223.102     64.34127     153.1926         6     1.218     0.435  87.89   0
        93    513.8209    822.7017 307.6937003  +6.3492212     12552.94     26184.18     30243.97     91.35555     182.3482      364.769      2.263     5.27     1216.339     64.34127       1356.8        67     2.168     1.416 -37.95   0
        94    927.1439    821.0290 307.5219755  +6.3636678     2957.567     5253.473     6078.757     91.06506     182.6386     364.9143      1.971     4.55     1202.417     64.34127     385.8596        29     1.742     0.979 -34.07   0
        95    306.5045    811.6640 307.7802367  +6.3468576     1910.703     4010.144     4081.254     91.35555     182.7111     365.0594      2.246     7.74     1222.661     64.34127      222.123        27     1.900     1.076 -27.61   0
        96     25.5459    812.9552 307.8969539  +6.3369223     928.3024     1828.241     2067.422     91.50043      182.566     365.0594      2.332     7.00     1222.528     64.34127      106.304        14     1.724     0.798 -40.55   0
        97    771.9710    807.1880 307.5869383  +6.3642252     38291.12     76223.67     85991.45     90.91947     182.3482     364.9143      2.151     5.20      1205.64     64.34127     4232.876        82     2.183     1.342 -34.73   0
        98      6.5351    809.7202 307.9049649  +6.3376208     1419.921     2459.279     2395.838     91.78954     182.6386     351.8661      2.002     7.44     1222.418     64.34127     155.4178        18     1.674     1.031 -15.44  16
        99    229.2038    805.1898 307.8125832  +6.3469465     3171.354      7612.67     10752.88     90.91947     182.2028      364.878      3.049     6.93     1223.825     64.34127      322.114        45     2.120     1.465 -30.46   0
       100    700.0494    801.8250 307.6170126  +6.3640463     14260.88     29276.94     34684.93     91.06506     182.6386     364.9143      2.260     5.38     1208.685     64.34127     1525.518        64     2.241     1.306 -34.00   3
       101    693.9197    798.3112 307.6196797  +6.3652932     58454.52     120144.4     139669.6     91.21042      182.856      365.132      2.249     5.37     1208.731     64.34127     6178.257       103     2.255     1.480 -34.62   3
       102    897.1846    802.3307 307.5350617  +6.3703934     6409.124     12202.48     13509.78     90.91947     182.4208     364.9143      2.051     5.31     1202.619     64.34127     748.0797        43     1.921     1.141 -31.23   0
       103    338.9145    799.3300 307.7671882  +6.3530333     12624.72     27435.39     32442.71      91.6451      182.856     365.0594      2.376     5.55     1220.443     64.34127      1365.48        71     2.228     1.486 -33.56   0
       104    400.7668    797.0676 307.7415595  +6.3560332     13814.99     29761.45     34686.23     91.35554     182.6386     365.0232      2.347     5.60     1218.598     64.34127     1502.997        79     2.275     1.516 -35.11   0
       105    388.1776    799.1978 307.7467190  +6.3547333     752.6058     1540.022      1094.63     91.06506     182.2028      364.769      1.973     5.17     1218.975     64.34127     107.2551         8     1.519     0.498 -13.93   0
       106    937.6025    796.0540 307.5184759  +6.3743277     1386.203     2754.168     2703.678     90.77365     182.3482     364.5874      1.993     6.92     1200.827     64.34127     178.3412        21     1.753     0.924 -33.47   0
       107    894.0333    793.7249 307.5366635  +6.3738422     5127.827     9482.439     10787.32     91.35554      182.566     364.9869      2.006     4.98     1202.283     64.34127      601.489        43     1.917     1.150 -35.31   0
       108    634.5786    793.0168 307.6445230  +6.3655032     4124.569     8555.712     9047.252     91.21042     182.2755     364.9506      2.229     5.66     1210.046     64.34127     420.4121        43     1.978     1.284 -40.98   0
       109    228.9136    783.6422 307.8134399  +6.3558338     775166.3      2350575      2960287     91.50043     182.4208     365.0232      2.836     8.41     1222.923     64.34127     63268.79       563     2.836     2.085 -38.34   4
       110    669.2732    783.1057 307.6304404  +6.3707511     1570.844     3311.746     3293.886     91.35555     182.7111     365.0232      2.163     7.40     1208.875     64.34127      180.193        26     1.747     1.139 -42.77   0
       111    423.1957    791.4198 307.7324306  +6.3591139     1002.352     2319.323     2529.417     91.06506     182.2028     364.8054      2.318     7.82     1217.607     64.34127     120.3406        17     1.488     1.262 -46.31   0
       112    403.6838    779.7913 307.7409364  +6.3632640     32827.13     71701.19     84785.84     91.06506     182.2028     364.8416      2.381     5.41     1217.371     64.34127      3426.24        93     2.315     1.545 -34.85   0
       113    114.3362    783.4284 307.8610646  +6.3520878     695.4034     1245.205     836.6521     91.06506     182.6386     364.9506      1.868     6.29     1222.024     64.34127     92.83215         7     1.319     0.843 -15.74   0
       114    521.3443    778.7632 307.6920703  +6.3676146     4333.124      9274.28     10554.09     91.35555      182.566     365.0594      2.319     5.56     1212.955     64.34127     461.5264        50     2.083     1.387 -35.60   0
       115    438.3833    777.4574 307.7265945  +6.3653860     2559.075     6356.662      7604.97     90.91948     182.4934     364.7327      2.592     6.53      1216.01     64.34127     260.0105        45     1.997     1.462 -28.42   0
       116    766.5023    775.2990 307.5902949  +6.3772107     7830.856     15728.22     17818.71     91.50043     183.0009     364.8417      2.180     5.45     1203.554     64.34127     840.0206        55     2.149     1.259 -36.67   0
       117    434.2787    770.9804 307.7285212  +6.3679234     1267.792     3002.664     3586.718     91.06506     182.2028     364.9869      2.510     7.25     1215.719     64.34127     166.9594        23     1.561     1.282 -48.93   0
       118    787.3197    769.9648 307.5818238  +6.3801057     847.5843     1700.959     2225.432     91.35554     182.6386     365.0594      2.080     5.34     1202.623     64.34127     154.5955         8     1.125     0.715 -44.07   0
       119    116.7427    764.7881 307.8607020  +6.3598648     1870.061      4111.72     6190.179     90.77365     182.4208     364.6964      3.014     6.34     1221.652     64.34127      194.423        27     1.629     1.271 -32.80   3
       120    124.4120    767.5834 307.8574191  +6.3589674     7041.592      15667.8     19190.92     91.21042     182.2029     364.9143      2.493     5.57     1221.877     64.34127     751.9611        63     2.229     1.504 -35.27   3
       121    132.1639    768.0104 307.8541828  +6.3590507     1768.211     3932.714      5010.49     90.91947     182.3482      364.769      2.498     6.17     1222.051     64.34127     244.2753        27     1.711     1.199 -24.10   3
       122    960.9396    764.0485 307.5098619  +6.3883182     1263.134     2444.012      2936.22     91.50043     182.4934     365.0957      2.540     6.78      1199.22     64.34127     159.1871        19     1.709     0.866 -45.60   0
       123    912.0235    763.8390 307.5302005  +6.3867802     4745.816     9179.575     10472.54     91.06506     182.2755      364.769      2.097     5.54         1200     64.34127      578.908        43     2.026     1.141 -32.42   0
       124    555.0000    761.0490 307.6786857  +6.3760511     1258.927     2658.532     3098.637     90.62759     182.1301     364.4784      2.365     5.75     1210.027     64.34127     165.0564        13     1.360     0.755 -62.01   2
       125    552.6794    760.9697 307.6796529  +6.3760064     989.3166     1642.441     2311.022     91.35554      182.566     364.9869      1.719     4.29     1210.093     64.34127     148.2246         7     1.186     0.441 -67.77   3
       126    667.7272    761.3605 307.6318226  +6.3796784     1020.822     2121.858      2549.48     91.35555      182.566     365.0957      2.278     6.11     1207.348     64.34127     127.8573        14     1.303     0.973 -40.27   0
       127    116.6334    758.5687 307.8609601  +6.3624291      1373.62     2924.266     3407.664     90.91948     182.2755     364.7327      2.335     6.26     1221.507     64.34127     186.1993        20     1.395     1.119 -40.30   1
       128    966.1158    755.1791 307.5080112  +6.3921524     1560.173      2847.12     2726.972     91.21042     182.2028     364.9143      1.909     4.36     1198.821     64.34127     249.7748        17     1.332     1.024 -39.61   0
       129    905.9140    755.7062 307.5330158  +6.3899353     2246.001     4240.078     4143.116     91.50043     183.0732      365.132      1.986     5.32     1199.733     64.34127     281.8916        26     1.690     1.049 -32.57   0
       130    935.6407    755.1196 307.5206801  +6.3911650     2408.448     4256.307     4209.572     91.50043      182.566     364.9506      1.851     6.03     1199.063     64.34127     272.6149        24     1.858     0.837 -33.67   0
       131    658.3276    754.9929 307.6359460  +6.3819946     905.0151     1466.313     1583.357     91.06506     182.0574     364.9506      1.913     4.64     1207.085     64.34127      125.325         6     0.807     0.756 -27.33   0
       132    804.7241    753.3418 307.5751547  +6.3875483     684.6472     1079.549     643.1323      91.6451      182.566     364.9869      1.715     4.17     1201.204     64.34127     92.95166         6     1.069     0.465   5.56   0
       133    231.3907    749.8979 307.8135631  +6.3698495     1003.133     1975.313     3392.278     91.21042     182.1301      364.769      2.414     5.86     1221.116     64.34127     124.5447        11     1.113     0.867 -67.46   0
       134    923.6608    745.4292 307.5259882  +6.3947684     728.1215     1276.468      1205.76     91.21042      182.566     364.9869      1.972     5.29     1198.772     64.34127     105.8889         7     1.200     0.659 -39.69   0
       135    950.2203    743.4800 307.5150150  +6.3964553     1913.814      3462.13     4113.608     91.21042     182.2029     365.0232      1.981     6.18     1198.451     64.34127     264.5825        23     1.816     0.921 -40.78   0
       136    897.5989    744.1381 307.5368646  +6.3944358     669.4923      1531.01     2087.907     90.77365     182.3482     364.6601      2.515     5.72      1199.24     64.34127     120.6195         9     1.998     0.461 -45.01   0
       137    147.5442    744.8317 307.8485833  +6.3691359     511.2906     1046.686     664.8485     91.35555      182.566     364.9506      2.355     5.32     1221.838     64.34127     80.30542         5     1.470     0.544 -49.13   0
       138   1023.2183    737.6002 307.4848728  +6.4013063     4682.826     5959.837      5674.16     85.04738     152.2592     282.6333      1.347     3.46     1197.844     64.34127     747.0228        19     1.330     0.757 -78.62  24
       139    992.3882    736.5611 307.4977226  +6.4007122     1367.905     2355.856     2703.452     90.91948     182.3482     364.6964      1.960     6.60     1197.978     64.34127      184.402        18     1.626     0.821 -30.09   0
       140    879.8326    732.6078 307.5446405  +6.3986065     1078.049     2191.149     2579.854     90.91947     182.4208     364.8054      1.958     6.83     1198.868     64.34127     134.5305        14     1.725     0.759 -47.05   0
       141    836.3719    723.8867 307.5630010  +6.4007630     1112.143       1808.3     1600.662      91.6451     182.2755      364.878      1.946     5.45     1199.043     64.34127     162.0669        12     1.392     0.603 -50.33   0
       142     36.2070    723.0389 307.8956009  +6.3744050     1610.309      3377.94     4146.779     90.62759     182.2028     364.6964      2.362     5.62     1219.691     64.34127     196.1138        26     1.543     1.259 -19.61   0
       143    648.6174    711.2999 307.6414685  +6.3997125     3848.153      8119.31     9290.918     91.50043     182.4208      364.769      2.296     5.77      1204.16     64.34127     390.0474        45     2.065     1.346 -36.94   0
       144    595.3078    710.2695 307.6636614  +6.3983618     947.2958     2005.726     1802.226     91.50043     182.7111     365.0232      2.122     7.35     1205.363     64.34127     97.33545        16     1.589     0.952 -43.07   0
       145    111.8860    707.4664 307.8646810  +6.3833699     2302.368      5044.86      5610.55     91.50043      182.856     365.0957      2.341     5.95     1219.442     64.34127     247.1569        37     1.972     1.237 -41.18   0
       146    985.2927    706.6662 307.5016857  +6.4128208     1885.872      3543.15     4153.303     91.35555     182.7836     365.0232      2.104     6.22     1195.562     64.34127      239.588        27     1.957     0.975 -36.49   0
       147    622.1997    707.1757 307.6525892  +6.4005354     1350.117     3084.749     3744.556     91.06506     182.2028     364.8054      2.403     8.11     1204.403     64.34127     152.8003        24     1.709     1.075 -35.75   0
       148    765.5658    703.2911 307.5931314  +6.4069124     13355.55     26939.47     31175.64      91.6451     182.4208     365.0232      2.221     5.48     1199.487     64.34127     1363.358        68     2.224     1.341 -34.86   0
       149    895.3945    703.0003 307.5391772  +6.4113489      2610.94     5105.968     5659.185     90.77365     182.2028     364.8054      2.140     5.18     1196.519     64.34127     328.2568        31     1.776     1.086 -33.95   0
       150    464.0183    704.5539 307.7184253  +6.3963436     922.3972     1955.195     2226.319     90.91947     182.4208     364.7327      1.998     6.00     1210.187     64.34127     118.2524        11     1.554     0.651 -23.61   0
       151    239.2229    697.0668 307.8121128  +6.3919253      3668.29     8502.996     10419.26     91.06506      182.566     364.9506      2.525     6.01     1216.918     64.34127     375.4457        52     2.120     1.479 -31.88   0
       152    646.1161    696.2059 307.6430218  +6.4058616     4343.954     9398.639     11835.85     90.91947     182.2028      364.769      2.457     5.57     1203.169     64.34127     468.9142        51     2.073     1.407 -31.70   0
       153    717.6276    684.8444 307.6136843  +6.4129340     2341.014     5004.117     5468.582     91.06506     182.6386     364.9143      2.238     6.09      1200.32     64.34127     261.8904        34     1.840     1.319 -38.24   0
       154    905.0298    689.1303 307.5356429  +6.4173961     754.8808     1631.265     1607.556     91.35555      182.566     364.9506      2.291     6.52     1195.322     64.34127     101.9622         7     1.344     0.887  47.68   0
       155    984.0805    681.0632 307.5030579  +6.4233524      6619.99     12394.59     13770.32      91.6451     182.6386     365.0232      2.007     5.22      1193.45     64.34127     781.5995        43     1.974     1.109 -32.01   0
       156    922.4060    681.5382 307.5286779  +6.4211083     1628.204     3154.763     3402.646     90.77365     182.3482      364.769      2.054     6.88     1194.435     64.34127     213.8136        23     1.754     0.919 -45.83   0
       157      3.3576    680.8751 307.9106968  +6.3907129      1181.69     2555.356      2846.14     91.35554     174.4016     310.1649      2.288     8.29     1219.672     64.34127      141.364        20     1.429     1.345   1.89  24
       158     61.6807    676.1963 307.8866170  +6.3945994     14878.38     33849.52     39872.07     90.91947     182.0574     364.6964      2.424     5.48     1218.615     64.34127     1669.247        80     2.234     1.602 -36.57   0
       159    522.8146    676.9053 307.6949292  +6.4097213     1133.314      2628.29     3299.815     91.21042     182.2755     364.8054      2.604     7.48     1206.483     64.34127     173.8988        20     1.689     1.228 -20.12   0
       160    491.3504    673.5471 307.7081217  +6.4100584     845.3017     1922.753     2065.269      91.6451     182.4208     365.0594      2.476     6.67     1207.019     64.34127     117.6583        11     1.431     0.872  -5.11   0
       161    707.4753    668.4880 307.6184604  +6.4193498     1988.043     4093.087     4801.363     91.50043     182.9285      365.132      2.273     6.58     1199.647     64.34127     211.2275        31     1.838     1.160 -41.80   0
       162    911.8781    673.4297 307.5333292  +6.4241067     798.6061     1103.325     1188.057     91.35555     182.6386     365.0232      1.531     3.81     1194.021     64.34127     106.6262         7     0.861     0.614 -77.75   0
       163    729.5762    666.5093 307.6093411  +6.4209025     2505.646     5284.888     6735.728     91.50043     182.3482     364.8417      2.520     6.93     1198.944     64.34127     284.2408        37     2.128     1.203 -33.75   0
       164    560.5405    664.6035 307.6796674  +6.4160588     2040.286     4421.745     4972.339     90.77365     182.4208     364.7327      2.244     5.99     1204.473     64.34127     206.1261        32     1.755     1.268 -36.92   0
       165    396.8702    666.2103 307.7476423  +6.4099343     750.6793      1438.83     1189.285     90.91947     182.2755     364.8416      2.265     4.66     1211.129     64.34127     101.9733         7     1.161     0.531 -37.16   0
       166    221.7743    664.6853 307.8204713  +6.4047118     943.8487      1744.98     2243.813      91.6451     182.2755      364.878      1.862     4.70      1214.83     64.34127     136.8232         9     0.926     0.748  75.47   0
       167   1002.3191    662.4020 307.4961094  +6.4316633      3543.53     6703.871     7028.228     90.77365     182.0574     364.7327      2.041     5.52     1191.603     64.34127     417.0524        33     1.924     1.040 -38.24   0
       168    967.8157    661.3826 307.5104863  +6.4309389     5955.191     11543.48     12872.33     91.21042     182.2028     364.9506      2.099     5.28     1192.202     64.34127     677.3269        43     1.968     1.149 -34.89   0
       169    304.2599    664.2864 307.7862008  +6.4076347     634.3569     1353.152     1768.281     91.50043     182.7111     365.1683      2.552     4.40     1213.697     64.34127     105.8918         6     0.799     0.689  13.61   2
       170    126.4347    655.1006 307.8604253  +6.4054785     13996.74      31795.7     37336.15     91.50043     182.4208     365.2046      2.435     5.47     1216.692     64.34127     1443.006        79     2.296     1.589 -37.48   0
       171    413.1406    655.8327 307.7412336  +6.4147625     1604.937     4046.671     5411.651     91.35554     182.6386     364.9869      2.783     7.30     1209.712     64.34127     177.5314        33     1.914     1.307 -31.93   0
       172    793.1248    655.5828 307.5832975  +6.4275285     726.2685     1347.602     1069.471     90.91947     182.2755     364.9143      1.713     5.06     1196.075     64.34127     86.03308         7     1.210     0.598  57.68   0
       173    962.6234    644.4276 307.5132197  +6.4377674     5027.757     10435.91     11780.62     90.91948     182.4208     364.8416      2.209     5.05      1191.16     64.34127     549.1289        49     1.928     1.393 -27.04   0
       174    556.2796    639.8057 307.6822831  +6.4261559     27477.07     62499.59     75220.67     91.06506     181.9846      364.769      2.443     5.70     1203.116     64.34127     2709.567        96     2.341     1.607 -33.81   0
       175      8.1881    643.6770 307.9099629  +6.4062335     681.6395     1396.557     1710.307     91.06506     182.1301      364.042      2.359     4.20     1218.382     64.34127     116.8895         6     0.782     0.644  77.02   0
       176   1017.9556    639.5068 307.4903860  +6.4416360     69244.21     129886.4       143851     91.50043     182.4934     356.8012      2.034     5.16     1189.281     64.34127      8188.44        96     2.117     1.309 -35.72  24
       177    163.7012    636.8514 307.8455601  +6.4142611     1530.889     3354.736     3066.595     91.50043      182.566     365.2771      2.220     7.26     1215.483     64.34127     198.1465        24     1.609     1.208 -29.95   0
       178     56.0631    632.3724 307.8904517  +6.4125056     787.8586     1878.626      2495.58     91.06506      182.566     364.9506      2.474     5.70      1216.48     64.34127     101.3248         9     1.476     0.620  27.93   2
       179    453.5226    623.6406 307.7255463  +6.4294027     35171.71     81273.94     98313.24     91.35555      182.566     365.0594      2.510     5.75      1206.42     64.34127     3616.715       105     2.369     1.675 -33.83   0
       180    128.5261    618.9210 307.8607935  +6.4204868     848.6136     1434.897     1205.132     91.78954      182.856     365.0957      1.683     4.92     1214.463     64.34127     121.4738         7     1.279     0.536 -68.60   0
       181    298.2714    613.2520 307.7904325  +6.4285065     1105.699     2911.673     3976.234     91.35555      182.566     365.0594      3.123    10.48     1208.912     64.34127     126.0209        26     1.874     1.635   9.74   0
       182    725.4813    607.0557 307.6130649  +6.4453152     3281.976     7070.486     7769.674     91.50043      182.566     365.0594      2.310     6.03     1193.755     64.34127     343.0597        39     2.019     1.198 -33.47   0
       183    779.0745    602.2849 307.5909492  +6.4490685     8607.077     18150.32     21156.24      91.6451     182.9285     365.0594      2.328     5.68     1192.594     64.34127     872.9501        60     2.195     1.377 -33.58   0
       184    995.4545    603.4636 307.5009618  +6.4557721      767.148      1253.54     1441.718      91.6451     182.4934     364.9869      2.009     5.31     1186.994     64.34127     117.4103         9     1.224     0.651 -37.79   0
       185   1018.3465    601.3427 307.4915176  +6.4574076     1482.335     2796.908     3356.938      91.6451      182.566     353.1814      2.177     5.00     1185.887     64.34127     210.4769        19     1.499     0.989 -33.22  16
       186    602.9726    600.5867 307.6642097  +6.4439061     1630.541     3740.941     4216.303     91.06506     182.3482     364.9143      2.400     7.25     1198.992     64.34127     179.2833        26     1.690     1.189  -8.85   0
       187    522.0661    601.9333 307.6977948  +6.4406527     636.1583     1335.515     2093.459     91.50043      182.566     365.0594      2.140     3.61     1202.436     64.34127     93.85925         5     1.009     0.371 -56.63   0
       188    919.2134    596.4623 307.5328924  +6.4561313      620.879     1083.189      1684.88     90.91947     182.3482     364.8054      1.512     3.40     1189.501     64.34127     98.23364         5     0.741     0.451  21.27   0
       189    215.9692    594.1102 307.8252960  +6.4336578     764.2743      1426.33     907.6054      91.6451     182.3482     364.9869      1.763     3.94     1211.936     64.34127     123.9359         5     0.861     0.515 -61.29   0
       190    854.7508    585.7010 307.5600546  +6.4584327     1844.369     3957.326      4763.55     91.50043     182.4934     365.2408      2.359     7.06      1190.95     64.34127     200.4543        29     1.903     1.092 -41.21   0
       191    813.3740    583.1390 307.5773419  +6.4581148     1533.022      3210.41     3683.199     91.06506      182.566     364.9143      2.159     6.45     1191.469     64.34127     170.3492        21     1.398     1.181 -24.41   0
       192    242.1183    578.1169 307.8149734  +6.4411360      4265.02     9916.737     12012.75     91.21042      182.856      365.132      2.535     5.79     1209.246     64.34127     502.3845        58     2.226     1.541 -34.99   0
       193    794.3528    574.2621 307.5855505  +6.4611476     96751.19       210117     245763.8     91.35555     182.4208     365.0957      2.348     5.67     1191.371     64.34127      9593.77       163     2.598     1.594 -32.31   0
       194    176.1544    572.7079 307.8425770  +6.4411623     31265.62     74995.45     93332.48     91.50043     182.4934     365.1683      2.603     6.00     1210.974     64.34127     3189.652       112     2.429     1.771 -37.23   0
       195    100.2863    569.0304 307.8742381  +6.4401404     3356.928      7790.44     9739.868      91.6451     182.2755     364.9143      2.579     5.94     1212.433     64.34127     405.3673        52     2.210     1.473 -31.75   0
       196    965.2504    565.8058 307.5147951  +6.4703188     755.1496     1669.391     1957.956     90.91947     182.3482     364.5874      2.476     4.49      1185.35     64.34127     138.9862         7     1.665     0.343 -34.23   0
       197    830.9022    561.4482 307.5707923  +6.4676541     2680.853     5824.052     6268.103     91.50043     182.4934     365.2046      2.283     6.15     1190.299     64.34127     307.2352        36     1.929     1.225 -37.69   0
       198    349.5865    559.8038 307.7709273  +6.4522902     8944.583     21831.16     26347.12     91.06506     182.2028      364.878      2.582     6.07     1205.135     64.34127      935.142        80     2.335     1.687 -31.86   0
       199    151.9108    558.6802 307.8531339  +6.4461427     981.8654     2371.658     3231.226     91.21042     182.7836      365.132      2.896     8.38     1210.715     64.34127      139.314        16     1.883     1.041 -50.73   0
       200    784.9604    554.8894 307.5901134  +6.4688344     3383.247     7340.881     9274.074     91.50043      182.566     365.0594      2.439     5.59     1190.681     64.34127     337.0924        43     1.981     1.335 -37.56   0
       201    515.7620    554.7278 307.7020239  +6.4599337     3414.924     7906.022     9606.751     91.35555     182.4934     365.0957      2.530     6.10     1199.189     64.34127     373.3837        50     2.133     1.430 -34.68   0
       202    163.0698    547.8519 307.8488657  +6.4509872     3548.329     8495.793     10622.75     91.35555     182.4208     364.9869      2.649     6.25     1209.646     64.34127     373.5189        51     2.099     1.520 -37.15   0
       203    258.2005    544.3639 307.8094417  +6.4556104     44632.51     108179.1     134064.2     90.48131     182.3482     364.8054      2.616     5.92     1205.797     64.34127     4781.767       122     2.465     1.771 -37.42   0
       204     34.6642    546.5814 307.9022829  +6.4472106     2714.345     6698.355     8633.264     91.06506      182.566     364.8417      2.789     7.05     1211.822     64.34127     365.8447        50     2.262     1.579 -39.83   0
       205    548.0018    541.7847 307.6890630  +6.4663533     591.0696     1253.739     1771.965     91.06506     182.1301     364.8054      2.500     4.69     1196.805     64.34127     76.58496         5     1.227     0.508 -68.66   0
       206    560.5162    547.7625 307.6836572  +6.4643023     1381.291     3056.701     4016.548     91.50043     182.4934     364.9506      2.438     8.30     1196.672     64.34127     147.1523        24     1.821     1.059 -33.32   0
       207    781.2271    536.5826 307.5922876  +6.4762692     9525.728     21043.95     24603.83     91.06506     182.3482     364.9143      2.359     5.61     1189.782     64.34127     944.4314        69     2.243     1.480 -33.34   0
       208    957.3764    538.0032 307.5190118  +6.4815374     1140.439     2001.749     1783.823     91.06506     182.2028     364.8417      1.848     6.80      1183.65     64.34127     140.8179        15     1.315     0.986 -31.35   0
       209    484.9020    535.0797 307.7155218  +6.4670170     22167.42     54537.36     69184.88     91.35555     183.0009     365.0594      2.649     5.94     1198.852     64.34127      2066.93       108     2.468     1.810 -29.61   0
       210    197.6648    531.9994 307.8350275  +6.4586905     1006.562     2405.506     2921.273     90.62759     182.2029     364.7327      2.502     9.28     1206.743     64.34127     143.6417        19     1.929     1.247 -41.21   0
       211    644.6002    530.4438 307.6492932  +6.4742556     1795.714      4209.77     5637.545      90.6276     182.1301     364.5874      2.907     6.86     1192.865     64.34127     189.6818        32     1.780     1.343 -45.08   0
       212    800.8856    547.2488 307.5837529  +6.4725190     778.3792     1607.908     1969.875     91.50043     182.4934     365.0594      2.288     6.61     1190.342     64.34127     105.4191        10     1.296     0.947  -4.60   0
       213    706.8094    529.0820 307.6234787  +6.4768897     895.1619     2154.287     2603.358     91.06506     182.1301     364.8416      2.365     5.23     1190.612     64.34127     108.0942         9     1.315     0.588 -28.97   0
       214    382.2733    526.6804 307.7584703  +6.4670588     980.4424     2081.847     2221.345     91.78954      182.856     365.0957      2.112     6.35     1201.192     64.34127     156.3893        11     1.661     0.682  -7.51   0
       215    129.2603    522.7505 307.8637780  +6.4602194     13601.46     32770.75     39923.09     91.50043     182.4934     365.0957      2.583     5.83     1209.239     64.34127     1459.984        85     2.324     1.736 -37.49   0
       216    314.2020    523.9854 307.7868589  +6.4658970     1949.529     4660.523     5554.618     91.06506     182.2028     364.8054      2.470     8.46     1202.681     64.34127     227.8729        37     2.068     1.293 -32.70   0
       217    494.3763    523.0568 307.7119933  +6.4722974     1243.653     2923.347     3008.219     91.06506      182.566     364.8054      2.389     8.09     1197.407     64.34127     174.4482        21     1.550     1.209 -69.02   0
       218     94.4519    521.3643 307.8782943  +6.4596259     1202.065     2894.092     3629.298     91.35555      182.566     364.9506      2.571     8.38     1210.641     64.34127     136.8127        21     1.695     1.158 -35.62   0
       219    857.2596    522.3531 307.5611633  +6.4846732     760.5057     1542.386     787.2393     91.50043      182.566      365.132      1.871     6.68     1187.066     64.34127     135.9845        11     1.768     0.708 -39.72   0
       220    954.6198    517.0417 307.5208691  +6.4901012     3474.989     6989.579     7806.009     90.91947     182.3482     364.8054      2.192     6.50     1182.757     64.34127      407.467        41     2.113     1.274 -35.60   0
       221    527.4830    509.3349 307.6986984  +6.4790676     822.8875     1793.681     1929.136      91.6451      182.856     365.0957      2.234     5.99     1195.207     64.34127     99.17615         9     1.323     0.764  -2.08   0
       222    426.2391    503.8320 307.7409735  +6.4779611     21675.48     52980.14     65281.41     91.06506     182.3482     364.8054      2.588     6.02     1197.719     64.34127     2242.465        95     2.402     1.719 -35.85   0
       223    634.1534    503.4118 307.6545562  +6.4850693     6675.095     15478.03     18509.79     90.91947     182.3482     364.6964      2.467     6.22     1192.043     64.34127     620.0325        65     2.220     1.542 -35.32   0
       224    191.4842    501.4878 307.8386398  +6.4710817     10304.36     24879.37     31387.22     91.21042     182.7836     365.0957      2.705     6.03     1204.614     64.34127     1044.398        89     2.379     1.814 -35.94   0
       225    156.9332    502.3061 307.8529742  +6.4695873     894.2661     2079.355     2751.372     91.35554     182.7836     365.0232      2.764     6.40     1206.288     64.34127     112.7383        10     1.255     1.023 -66.44   0
       226    968.4552    501.7552 307.5156360  +6.4968726     723.3352     1289.003     1554.825     91.50043      182.566     365.0232      1.956     4.79     1181.599     64.34127      116.562         6     0.963     0.675 -31.67   0
       227    555.9119    500.1889 307.6871919  +6.4837921     1340.644     3369.487      4369.29     91.06506     182.2755      364.878      2.909     9.19     1193.841     64.34127     147.6442        26     1.738     1.356 -23.44   0
       228    929.6364    497.5551 307.5319167  +6.4973177     3199.854     6604.441     7433.559     91.21042     182.4934     364.9143      2.227     5.90     1182.803     64.34127     332.6277        39     2.025     1.233 -38.74   0
       229    602.9468    495.7577 307.6677898  +6.4871898      3461.83     8191.671     10013.32     91.50043     182.6386     365.0594      2.611     6.39     1192.605     64.34127     374.5747        51     2.165     1.469 -34.68   0
       230    952.3196    489.5845 307.5227571  +6.5013622     2261.839     4252.286     4184.094     91.06506     182.2755     364.8054      1.992     6.05     1181.634     64.34127      254.182        24     1.666     0.999 -41.84   0
       231    515.2832    487.0699 307.7045287  +6.4878540     3904.567     9121.176     11384.15     91.78954      182.856     365.0594      2.609     6.39     1193.765     64.34127      396.626        55     2.213     1.529 -39.47   0
       232    360.6557    487.2069 307.7688039  +6.4826352     1309.081     3194.507     3827.489     90.91947     182.4208     364.6964      2.569     8.57     1198.051     64.34127     138.6553        24     1.780     1.346  -8.30   0
       233    871.4235    482.8464 307.5566170  +6.5014568     2023.352     4454.183     5441.486     91.06506      182.566      364.878      2.546     6.66     1183.111     64.34127     251.4871        32     1.904     1.157 -34.90   0
       234    219.4445    482.2071 307.8276761  +6.4799782     577.5215     949.5768     1141.364     90.91947     182.3482     364.6601      2.124     5.02     1201.868     64.34127     87.19666         5     1.141     0.626  27.78   0
       235    879.0420    477.0470 307.5536466  +6.5041047     1436.603     3001.037     3722.529     91.50043      182.566      364.878      2.564     7.03     1182.602     64.34127     157.9818        23     1.730     1.053 -38.53   0
       236    918.5244    476.3232 307.5372570  +6.5057155     641.8861     1570.567     1475.929     91.78954      182.856     365.0957      2.255     6.04     1181.749     64.34127     102.2218         8     1.736     0.592 -28.62   0
       237    702.5898    473.4867 307.6271242  +6.4997050      1591.74     3543.588     4113.387     91.06506     182.2029     364.8417      2.432     7.08     1187.916     64.34127     189.9768        26     1.789     1.199 -29.57   0
       238     64.2598    472.6009 307.8925136  +6.4787481     1204.765     2644.877     3253.456     90.77365     182.2755     364.6601      2.474     8.21      1208.66     64.34127     147.6388        18     1.587     1.187 -79.91   0
       239    374.0542    471.6295 307.7637658  +6.4895147     1889.902     4636.126     5508.053     91.21042     182.6386     364.9143      2.500     6.74     1196.217     64.34127     211.0095        33     1.772     1.337 -23.66   0
       240    601.6146    468.1392 307.6692842  +6.4985492     5276.016     12440.56     15655.79     90.91947     182.4934     364.7327      2.571     6.12     1190.844     64.34127     582.5487        63     2.239     1.552 -40.01   0
       241    764.5433    464.2937 307.6016809  +6.5055630     9396.523     21153.09     26060.09     91.35555      182.566     365.2408      2.515     6.19     1185.398     64.34127     963.0144        76     2.474     1.482 -41.71   0
       242    284.1698    465.0508 307.8013560  +6.4892269     1287.916     3133.952     3990.331     91.06506     182.7111     364.9143      2.662     7.92     1197.479     64.34127     152.6595        26     1.716     1.379 -35.02   0
       243    792.5772    461.7801 307.5901118  +6.5075336     836.7573     1915.609      1752.75     91.21042     182.4208     364.9506      2.221     7.63     1184.691     64.34127     108.1002        13     1.511     1.077 -13.44   0
       244    949.2449    459.6757 307.5250504  +6.5136099     1336.205     2565.326     3180.748     91.35555     182.6386     365.0594      2.077     6.18     1178.986     64.34127      169.696        21     1.649     1.013 -42.11   0
       245    367.5608    461.1966 307.7668212  +6.4936055     773.6301     1666.519      2162.07     90.48131     182.2755     364.6964      2.342     6.26     1195.228     64.34127     90.35535         9     1.070     1.030  -6.78   0
       246    101.8268    456.6584 307.8774430  +6.4865893     2307.483     5912.742     6956.526     91.06506     182.6386     364.8416      2.560     6.79     1206.763     64.34127     269.3884        43     1.967     1.559 -11.28   0
       247    739.6930    455.4373 307.6123132  +6.5083929     1382.148     2940.707      3128.74      91.6451     182.4208     365.0957      2.236     6.05     1185.663     64.34127     163.3998        26     1.547     1.258 -23.44   0
       248   1003.2756    454.2352 307.5027721  +6.5176503     2939.184     6294.976     7226.448     91.35555     182.6386     365.0232      2.281     5.52     1176.023     64.34127     336.6259        39     1.860     1.277 -25.89   0
       249    337.4125    451.5570 307.7796834  +6.4965783     1537.813     4026.914     4713.943     90.77365     182.3482     364.7327      2.659     8.38     1195.054     64.34127     166.6128        35     1.977     1.503 -49.56   0
       250    260.7293    454.0251 307.8114771  +6.4929954     760.5926     1666.177     1921.563     91.06506     182.4208     364.9506      2.296     3.09     1198.016     64.34127     141.3425         6     0.881     0.495  53.11   0
       251    693.9140    449.2065 307.6315571  +6.5094415      997.528     2084.821     2771.067     90.91947     182.2028     364.7327      2.690     6.16     1187.235     64.34127     109.9471        12     1.159     0.920 -74.66   0
       252    820.1088    439.1001 307.5794366  +6.5178141     890.3024     1584.028     1525.768     91.50043     183.0009     364.9869      1.955     5.90      1182.19     64.34127     111.7144         9     1.311     0.748  88.17   0
       253    702.8692    436.3077 307.6282730  +6.5150658     8094.938     18716.53      22576.5     91.50043     182.7111     365.0232      2.453     6.18     1186.343     64.34127     773.7734        65     2.263     1.507 -32.96   0
       254    805.4918    438.2785 307.5855415  +6.5176672      1243.87     2500.083     2125.666     91.21042     182.7836     365.0957      2.062     6.90     1182.375     64.34127     162.8085        17     1.604     0.832 -15.90   0
       255    623.5061    432.6813 307.6613906  +6.5139195       1322.2     3379.592     4006.466     91.21042      182.856      365.132      2.560     9.12     1187.601     64.34127     140.5452        26     1.830     1.269 -23.87   0
       256    596.2087    427.4756 307.6729164  +6.5151592     7712.729     20783.96     29752.83     91.06506     181.9846     364.8054      3.090     7.11     1187.285     64.34127     829.4962        99     2.543     2.111  15.49   0
       257    927.8083    426.2818 307.5350961  +6.5266866     2492.894     5076.512     5132.489     91.06506     182.1301      364.878      2.150     6.19     1176.197     64.34127     271.9027        33     1.940     1.124 -39.15   0
       258    113.4690    422.4211 307.8737750  +6.5011155     1333.195     3073.741     4026.171     91.06506     182.4934     364.9143      2.651     6.89      1203.73     64.34127     175.1599        23     1.547     1.240 -62.72   0
       259    883.2789    421.9586 307.5537561  +6.5269921     1003.944      2198.16     2955.967     91.35554      182.566     365.0232      2.429     7.82     1179.305     64.34127     122.5355        16     1.609     1.062 -39.25   0
       260    896.7838    416.3965 307.5483303  +6.5297376     3016.655     6623.482     7465.041     91.06506     182.1301     364.8416      2.384     6.17     1177.766     64.34127     320.4695        39     1.974     1.267 -32.88   0
       261     47.0922    417.1559 307.9015484  +6.5010653     781.8318      1760.25     2456.808     91.50043     182.4934     365.1683      2.443     6.63     1207.143     64.34127     114.9659        10     1.499     0.823   7.43   0
       262    224.9706    412.8091 307.8277510  +6.5088171     6939.825     17210.24      21397.9     90.91947     182.3482     364.8054      2.635     6.07     1198.225     64.34127     742.6985        74     2.330     1.692 -36.99   0
       263    367.2810    422.2744 307.7682662  +6.5096671     14556.07     36056.73     45007.14     91.78954      182.856     365.0957      2.681     6.01     1191.228     64.34127     1581.272        89     2.371     1.771 -37.17   0
       264    335.6440    402.9370 307.7820787  +6.5165942     517.9178     1408.837     2165.946     91.50043     182.4934     365.0957      3.055     4.43     1190.634     64.34127     89.34351         4     0.961     0.581 -50.91   2
       265    125.1900    401.6212 307.8696141  +6.5100962     2629.396     6360.415     7503.567     91.06506     182.2755     364.8054      2.528     6.43     1202.381     64.34127      291.899        46     2.030     1.544 -36.99   0
       266    147.3136    396.9206 307.8605778  +6.5127779     1329.941     3074.516     4068.587     91.21042     182.9285     365.1683      2.520     5.85     1201.254     64.34127     162.0255        21     1.418     1.169 -46.71   0
       267    370.2429    391.8919 307.7680720  +6.5223109     1206.997     2526.251     3147.078     91.50043      182.566      365.132      2.396     7.48      1188.33     64.34127     170.3093        18     1.580     1.051  12.68   0
       268    424.5172    385.7398 307.7457180  +6.5266639     3622.029     8975.233     11024.96      91.6451     182.6386     365.0594      2.690     6.63     1185.894     64.34127     416.3585        55     2.209     1.543 -37.56   0
       269     21.1935    386.6272 307.9133602  +6.5128019     1718.002     4190.208     5147.621     90.91947     182.4208     364.8054      2.586     7.21      1206.59     64.34127     233.7266        34     2.021     1.297 -40.92   0
       270    764.8980    382.9381 307.6042998  +6.5391672     7192.353     16440.62     20277.61     91.21042     182.6386     365.0957      2.486     6.01     1180.021     64.34127     708.3201        69     2.332     1.490 -31.48   2
       271    755.9811    384.8077 307.6079435  +6.5380985     1197.605     2384.245     2725.921     91.06506     182.2028     364.8416      2.122     6.87     1180.636     64.34127     143.3546        16     1.400     0.946  -9.90   3
       272   1008.5162    377.9306 307.5031817  +6.5493314      2601.14     5163.174     5428.126     91.78954      182.856     365.0594      2.186     5.46     1168.292     64.34127     276.4025        32     1.862     1.082 -34.35   0
       273    472.7256    369.4337 307.7262318  +6.5350061     1614.784     3609.193     4227.338     91.35555      182.566     364.9869      2.373     6.50     1183.483     64.34127      205.655        26     1.688     1.322 -16.52   0
       274    444.2477    370.0558 307.7380502  +6.5337986     1197.228     2992.065      2903.99     91.50043      182.566      365.132      2.363     8.33     1184.075     64.34127     157.4124        23     1.633     1.320 -20.99   0
       275    830.3276    365.7032 307.5776824  +6.5484602     19482.49     44176.14     52302.57     91.21042     182.7836     364.9869      2.411     5.78     1176.697     64.34127     1955.114        81     2.242     1.553 -43.09   0
       276     10.6829    359.1859 307.9186696  +6.5237796     582.6836     1324.992     1607.714     91.06506     182.2755     364.8054      2.263     3.89     1204.857     64.34127     93.22339         6     1.077     0.403  76.54   0
       277    686.8134    351.7524 307.6378255  +6.5494445     42285.39       100738     121903.1     90.77365     182.4208     364.7327      2.520     5.97     1178.124     64.34127     4264.133       116     2.374     1.714 -35.68   0
       278    602.1619    358.2689 307.6727986  +6.5439334      1442.08     3208.786     3527.819     91.35555      182.566      365.132      2.344     6.86     1182.202     64.34127      158.868        23     1.606     1.143 -21.66   0
       279    548.8426    349.1015 307.6952790  +6.5459409     1177.407     3004.962     3449.434     91.50043     182.4208     365.2771      2.507     7.27      1180.72     64.34127     158.4014        22     1.798     1.213 -47.15   0
       280     86.6506    347.6905 307.8874816  +6.5310724      3273.24     7920.864     9289.901     91.50043     182.3482     365.2046      2.583     6.52     1202.226     64.34127     362.4926        52     2.076     1.588 -38.47   0
       281    532.5471    344.8001 307.7022006  +6.5471734     3640.847     8940.087     11344.38      90.6276     181.9846     364.4784      2.606     5.98     1180.315     64.34127     386.2256        57     2.124     1.614 -32.49   0
       282    395.5491    339.9847 307.7593228  +6.5445886     12513.59     32082.19     40711.62     90.77365     182.6386     364.7327      2.699     6.34     1182.813     64.34127     1383.072        92     2.439     1.785 -37.03   0
       283    261.9612    342.3180 307.8147822  +6.5391599     1246.014      3123.94     3366.598     91.50043     182.6386     364.9506      2.486     7.67     1191.169     64.34127     162.4634        24     1.636     1.301 -86.59   0
       284    375.2517    338.6012 307.7678087  +6.5444818      699.888     1450.937      2668.98     90.77365     182.1301     364.5147      3.055     4.91     1183.787     64.34127     98.26904         5     1.104     0.619 -65.92   0
       285    484.5840    330.3328 307.7226351  +6.5515466     4139.395     10712.84     13231.74     90.91948     182.4208     364.9143      2.726     6.78     1179.291     64.34127     428.4854        64     2.355     1.627 -33.81   0
       286    753.4930    328.8528 307.6108810  +6.5611199     1680.656     4012.974      4757.94     91.35555     182.4934     365.2771      2.524     6.60     1175.767     64.34127     178.6388        32     1.754     1.316 -29.73   0
       287    147.1096    321.9844 307.8632263  +6.5437114     599.4209     1446.278     998.7881     91.21042     182.3482     364.8416      2.716     5.51     1198.177     64.34127     107.0514         6     1.466     0.584 -44.79   0
       288    374.3807    314.7284 307.7689858  +6.5543097     3513.967     9224.266     11319.98     91.06506     182.4208     364.9506      2.650     6.49     1182.514     64.34127     357.1434        58     2.199     1.641 -28.48   0
       289    229.7330    316.2119 307.8290733  +6.5488607     1088.175     2773.623     3739.038     90.91947     182.3482     364.9143      2.727     7.75     1191.554     64.34127     143.5647        18     1.587     1.189 -68.85   0
       290    742.2761    310.2998 307.6161759  +6.5684072     29725.09     69797.66     83273.86     90.91947     182.7111     365.0232      2.472     5.80     1174.457     64.34127      3009.21       103     2.340     1.656 -39.42   0
       291    728.2176    313.6002 307.6219089  +6.5665764     622.3539     1204.573     1439.196     91.06506     182.0574     364.6601      1.303     3.51     1174.904     64.34127     109.5433         5     1.179     0.301  53.36   0
       292    414.1927    309.9686 307.7525959  +6.5576049     1080.484     2956.428     3195.858     90.91947     182.3482      364.769      2.497     9.45     1179.364     64.34127     136.5953        22     1.871     1.332 -31.13   0
       293    976.5017    307.4398 307.5188847  +6.5773751     1155.745     2164.606     2170.573     91.50043     182.4208     365.2771      1.996     7.29     1164.854     64.34127     112.9504        19     1.637     0.909 -37.18   0
       294    400.3894    306.2447 307.7584619  +6.5586815      1051.54      2780.82     3796.323     90.91947     182.4208     364.6964      2.724     7.99      1180.07     64.34127     134.9666        16     1.557     1.146  13.20   2
       295    822.3754    299.3556 307.5832438  +6.5755912     608.2354      1060.95     1469.965     90.91947      182.566      364.878      1.892     3.42     1172.063     64.34127      96.4718         5     1.052     0.321 -68.82   0
       296    177.3923    297.5052 307.8514738  +6.5548326     1148.833      2493.88     2849.177     91.21042     182.1301     364.8054      2.354     6.17      1194.96     64.34127     149.7925        13     1.468     0.728 -58.31   0
       297    740.7089    294.9743 307.6173489  +6.5746830     3183.505      7616.45      8887.57      91.6451     182.2755     364.8416      2.444     6.52     1173.219     64.34127     326.8379        45     2.077     1.392 -31.31   0
       298    917.4988    306.7629 307.5434406  +6.5756948     1385.074     3050.899     3279.193     91.50043     182.4208     365.2408      2.358     9.13     1169.304     64.34127     162.8661        24     1.794     1.295 -44.31   0
       299     73.4356    295.0635 307.8947773  +6.5523585     708.8776     1464.021     1678.918     91.35554      182.566     365.0594      2.264     5.59      1201.44     64.34127     95.81982         7     1.199     0.735  41.97   0
       300    756.7538    292.5664 307.6107595  +6.5762113     1455.582     3610.392      4399.74     91.21042      182.566     364.9506      2.521     9.42     1172.761     64.34127     153.4053        31     1.731     1.429 -23.20   0
       301     59.8996    289.2033 307.9006055  +6.5543244     827.1722     1505.693     1258.483     91.21042     182.2755     364.6237      1.989     5.26     1201.728     64.34127     99.61218         8     0.993     0.786  82.45   0
       302    346.4270    286.4989 307.7815719  +6.5650314     890.1055     2709.542     3969.104      91.6451     182.2755     364.9869      3.111     5.21     1182.964     64.34127     124.8783        11     1.154     0.936  -6.07   2
       303    995.1376    283.6604 307.5119429  +6.5878126     3994.202     7982.697     9465.104     91.50043      182.566     365.0594      2.209     5.83     1161.671     64.34127     487.6731        40     2.065     1.137 -36.10   0
       304    472.7485    284.2801 307.7291265  +6.5701668     906.8247     2452.213     3303.551     91.50043      182.566     365.0232      2.667     8.98     1173.977     64.34127     134.4788        17     1.567     1.438 -81.66   0
       305    236.0857    279.4425 307.8276892  +6.5642550     3060.588     7355.106     9629.268     91.50043     182.4208     365.0232      2.733     6.36     1190.023     64.34127     361.9675        49     2.068     1.527 -33.71   0
       306    370.5104    270.9308 307.7720903  +6.5722642      815.743     1990.697     2281.193      91.6451     182.7836     365.0232      2.214     5.30     1179.958     64.34127     124.8186         9     1.608     0.493 -66.44   0
       307    293.0634    266.6245 307.8044378  +6.5714533     693.9081     1489.782     1401.789     91.06506      182.566     364.9869      2.311     4.27     1185.094     64.34127     103.7643         6     1.100     0.472 -69.60   0
       308    140.6573    266.1138 307.8678206  +6.5665636     911.7715     2217.969     2534.058     91.50043      182.566     365.2046      2.547     7.17     1196.678     64.34127     104.3888        12     1.249     1.151  31.83   0
       309    549.2604    261.8702 307.6980782  +6.5819727     1067.247     2707.655     3373.612      91.6451      182.566     365.0594      2.646     9.65      1169.45     64.34127     124.0637        21     1.975     1.315 -66.48   0
       310    892.7828    260.8012 307.5552786  +6.5938515     1041.394     2403.335     3302.783     91.06506     182.0574     364.6601      2.617     7.90     1166.594     64.34127     124.6667        17     1.363     1.280 -16.80   0
       311    713.0278    259.0185 307.6300818  +6.5886078     2596.511     6369.074     7387.611     91.06506     182.3482     364.9143      2.520     6.83     1170.077     64.34127     279.1147        37     1.922     1.320 -43.71   0
       312    654.5334    259.3398 307.6543927  +6.5865268     1138.504      2774.06      3200.59      91.6451     182.4934     365.0232      2.506     7.03     1169.722     64.34127     134.9388        17     1.682     0.823 -32.14   0
       313    908.5257    251.9873 307.5490319  +6.5980140     666.5204     1481.634      1515.78     90.91947     182.2028      364.769      2.434     4.67     1165.108     64.34127     85.38342         5     1.048     0.590 -16.43   0
       314    213.6549    245.2289 307.8381850  +6.5776308     1167.342     2764.974     3508.182     91.21042     182.6386     364.9143      2.697     7.47     1191.618     64.34127     143.4399        18     1.610     0.971 -69.65   2
       315    855.3807    243.0872 307.5714325  +6.5999224     923.3687     1949.908     2256.554     91.21042     182.2755      364.878      2.578     7.11     1166.262     64.34127     121.5065        13     1.526     0.929 -21.34   0
       316    746.0394    244.3331 307.6168552  +6.5957705     727.5739     1818.894     2593.975     91.35554     182.4934      365.132      2.640     4.43     1168.827     64.34127     112.2688         6     1.122     0.497  -8.18   2
       317    446.8500    234.1925 307.7416034  +6.5899832     10970.23     28287.49     36822.66     90.91947     182.2755     364.6237      2.788     6.54     1171.219     64.34127     1260.487       104     2.683     1.820 -38.52   0
       318    772.4789    233.4160 307.6062328  +6.6011581     7542.786     17262.67     21277.71     91.06506     182.2755     364.8417      2.500     6.10     1167.841     64.34127     797.5364        66     2.325     1.516 -31.21   0
       319    135.0291    228.1388 307.8714602  +6.5820545     1171.814     2736.811     3547.021     91.21042      182.566     364.9506      2.733     6.79     1196.136     64.34127     160.3667        19     1.685     1.138 -21.66   0
       320    908.8184    223.5067 307.5498776  +6.6097836     885.6861     1612.371     1833.404     91.35555     182.2755     364.9143      2.029     5.75     1162.578     64.34127     111.9215        10     1.245     0.748  -4.06   0
       321    570.5774    220.0846 307.6906388  +6.5999369     2337.913     5870.029     7172.335     91.35554     182.2755     364.9143      2.613     7.06      1166.12     64.34127     239.1941        47     2.111     1.572 -38.80   0
       322    534.1868    219.3751 307.7057943  +6.5990161      951.585     2327.362      3006.54     91.21042     182.3482     364.9506      2.800     8.78     1166.054     64.34127     123.3344        15     2.089     1.031 -46.62   2
       323    931.4236    217.2040 307.5406919  +6.6131371     1702.485     3401.043     3597.187     91.06506     182.2755     364.8416      2.108     8.21     1161.449     64.34127     189.7572        24     1.917     0.983 -37.69   0
       324    877.5699    216.5277 307.5631084  +6.6116267      6840.98     14978.61     17224.41     91.35555      182.566     364.9869      2.341     5.82     1163.114     64.34127     688.0392        57     2.068     1.444 -29.78   0
       325    375.9358    219.1786 307.7716015  +6.5938137     824.2695     1916.046     2220.451     91.06506      182.566      364.878      2.307     5.92     1175.893     64.34127     113.5266        10     1.107     0.894 -14.53   0
       326    964.2803    214.3499 307.5271262  +6.6154069      6284.03     13095.47     15152.68     91.50043     182.6386     365.0232      2.266     5.53     1159.794     64.34127     669.3574        51     2.040     1.329 -37.82   0
       327      4.1121    213.3136 307.9263993  +6.5837873     13573.26     32911.21      39030.3     91.21042     181.1821     321.8607      2.523     5.97     1203.143     64.34127     1582.981        77     2.270     1.690 -46.51  24
       328    675.4487    214.5777 307.6472200  +6.6057060     1546.878     3805.727     4486.282     91.06506     182.6386     364.9143      2.533     7.04     1166.347     64.34127     209.3121        32     1.695     1.590 -59.39   0
       329    484.4116    209.6796 307.7268216  +6.6013584     1006.474     2261.605     2742.025     91.06506     182.2029     364.8417      2.482     7.32     1165.981     64.34127     125.1659        15     1.356     1.107 -20.05   0
       330    291.0660    210.4145 307.8071890  +6.5945952      5302.05     5371.427     5079.049     90.91947     182.4208     364.9506      0.824     2.66     1184.998     64.34127     2350.215         7     0.977     0.344 -53.45   0
       331    495.9905    206.2082 307.7221255  +6.6031782     1182.182     2896.465     3517.428     90.91947     182.3482      364.878      2.434     7.86     1165.814     64.34127     139.7769        22     1.800     0.961 -51.11   0
       332    869.2534    205.3833 307.5669453  +6.6159518     1016.049     2679.872     3280.833     90.91947     182.6386     364.6964      2.533     4.82     1162.733     64.34127      154.687         8     1.308     0.610 -52.07   2
       333    815.9512    206.0614 307.5890865  +6.6138993     1283.437     2851.923     2744.685     91.50043     182.4934     365.0957      2.227     6.98      1165.35     64.34127     163.1862        18     1.442     0.946 -44.71   0
       334    727.8607    202.5087 307.6258371  +6.6124347     21720.71     51024.55     61149.59     91.35554     182.6386     365.0957      2.500     5.95     1166.269     64.34127     2180.612        91     2.320     1.660 -34.04   0
       335    330.9798    202.0564 307.7908787  +6.5993808     3310.239     9305.749     13168.33     90.91947      182.566     364.8054      3.051     8.16     1179.986     64.34127     323.2002        68     2.530     1.751 -53.29   0
       336    961.1613    201.3535 307.5288644  +6.6206697     1942.586     3964.848     4173.082     91.35555      182.566     364.8416      2.093     5.64     1159.003     64.34127     210.2953        27     1.635     1.147 -37.65   0
       337    895.6544    199.5347 307.5561658  +6.6192443     4711.109     10150.78     11778.87     91.50043     182.4934     364.9869      2.320     5.40     1161.559     64.34127     504.4563        52     2.031     1.425 -36.24   0
       338    999.7239    200.0865 307.5128719  +6.6224734      1281.14     2221.897     2346.815     91.50043     182.9285     365.0957      1.732     5.24     1157.069     64.34127     148.3602        16     1.321     0.937 -31.21   0
       339    439.3286    198.8249 307.7459376  +6.6043352     2506.116     6404.941     7510.125     91.06506     182.4208     364.9506      2.574     6.47     1169.179     64.34127     286.6967        48     2.028     1.561 -36.66   0
       340     96.5363    190.5532 307.8887512  +6.5962834     2595.596     6009.159     7612.333     91.35555     182.4208     365.0957      2.678     6.51     1197.368     64.34127     318.3229        46     2.043     1.549 -37.59   0
       341    267.0577    186.8119 307.8179781  +6.6035374     16810.42     42404.93     53782.54     90.77365     182.4934     364.6964      2.703     6.13     1186.935     64.34127     1835.394        96     2.474     1.774 -36.27   0
       342    242.2908    188.0188 307.8282348  +6.6022105      3224.42     8146.594     9928.175     91.35554     182.2755      364.878      2.684     6.73     1188.867     64.34127     360.8605        53     2.118     1.608 -28.78   0
       343    391.0523    182.3095 307.7665748  +6.6095418     24658.99     62577.62     78795.89     91.50043     182.3482     365.1683      2.694     6.21     1172.239     64.34127     2770.325       105     2.426     1.841 -35.03   0
       344    408.3170    184.0404 307.7593369  +6.6094039     694.6426     1562.714     1938.157     91.50043     182.6386     364.9506      2.183     5.34     1170.247     64.34127       89.073         8     1.687     0.477 -50.28   0
       345    147.2597    183.4220 307.8679052  +6.6009271     2112.333     4984.739     6088.006     91.06506     182.4934      364.878      2.575     7.43      1193.64     64.34127     277.0496        39     2.061     1.388 -25.52   0
       346    295.7757    179.9741 307.8062709  +6.6073213     8812.368     22094.31      30249.3     90.91947     182.3482      364.878      2.977     6.98     1184.363     64.34127     1012.898       109     3.067     1.855 -16.27   0
       347    730.2629    178.4134 307.6256581  +6.6224637     17985.92     42680.39     50349.25     90.91947     182.3482     364.8416      2.477     5.87     1165.281     64.34127     1910.911        81     2.253     1.599 -36.32   0
       348     47.3724    175.8556 307.9096960  +6.6007038     4727.573     11211.64     13697.04     91.06506     182.6386     364.8417      2.635     5.85     1199.733     64.34127     537.0532        63     2.220     1.661 -35.30   0
       349     81.0723    174.6882 307.8957241  +6.6023154     808.0779     1698.752      1474.78      91.6451      182.856     365.0594      2.198     7.14     1197.691     64.34127     143.0393        10     1.657     0.879 -49.61   0
       350    989.7579    158.9383 307.5184127  +6.6391329     1460.846      3200.66     4421.152     91.50043      182.566      365.132      2.619     7.16      1154.36     64.34127     197.4039        23     1.594     1.259  -9.34   0
       351    266.0124    153.0768 307.8195659  +6.6174314     15419.71     38782.42     49830.36     91.06506     182.1301     364.8054      2.715     6.11     1186.753     64.34127     1660.177        98     2.470     1.809 -35.35   0
       352    581.0878    154.5426 307.6885020  +6.6273496     1016.581     2321.458     3083.329     91.50043     182.4934     365.1683      2.576     7.85     1163.418     64.34127      125.651        15     1.520     1.134  45.40   0
       353     11.5668    151.8586 307.9254057  +6.6094109     2345.363     5409.426     6422.935     91.35555     182.6386     364.9506      2.553     6.44     1201.465     64.34127     261.4078        42     2.151     1.330 -34.44  16
       354    697.3617    149.7292 307.6403157  +6.6332119     4454.754     10231.42     12471.54     91.35555      182.566     365.0957      2.454     5.85     1163.826     64.34127     451.4021        51     2.057     1.465 -38.41   0
       355    108.3790    147.1481 307.8853132  +6.6146014     2593.579     6277.733     8058.957     90.91947     182.6386     364.8054      2.675     5.91     1194.827     64.34127     354.8315        46     1.999     1.537 -46.23   0
       356    378.9345    142.9920 307.7729560  +6.6253708     1828.616     5137.592       6083.6     90.91947     182.2755     364.8416      2.692     7.87     1172.211     64.34127     184.5839        43     1.939     1.648 -42.84   0
       357    447.6088    144.5739 307.7443458  +6.6270116     595.3595     1254.536     1809.217     91.06506     182.3482      364.878      2.022     3.46     1165.147     64.34127     89.34277         5     1.141     0.304 -20.78   0
       358    343.3827    142.0404 307.7877716  +6.6245755     1525.851     4093.836      4793.57     91.06506     182.3482     364.8054      2.559     7.98     1177.794     64.34127     183.1986        35     2.106     1.303 -33.46   0
       359     98.0691    141.6359 307.8897887  +6.6165318     934.9466     2126.543     2350.377     91.35554     182.6386      365.132      2.385     5.38     1195.247     64.34127     109.2317        11     1.116     0.732 -72.60   0
       360    989.2494    135.8891 307.5194065  +6.6486332      1144.64     2208.571     2543.309     91.50043     182.3482      365.132      2.200     4.92      1152.81     64.34127     183.9785        13     1.262     0.920 -35.90   2
       361    657.0153    129.5421 307.6577806  +6.6402031     3212.543     7617.824     9277.771     90.77365     182.4934     364.6964      2.483     6.13     1162.563     64.34127     369.6036        50     2.152     1.440 -39.05   0
       362    195.3712    130.5322 307.8497101  +6.6243756     2780.327      7004.02     8925.357     91.21042      182.566     364.9869      2.727     6.84     1189.835     64.34127     339.9412        52     2.232     1.584 -32.56   0
       363     78.5488    130.7774 307.8982771  +6.6203608     1143.818       2540.1     3194.233     90.91947      182.566      364.878      2.530     7.69      1196.23     64.34127     137.5385        18     2.003     0.827 -17.45   0
       364    609.2287    126.9088 307.6777418  +6.6396978     4915.978      12068.7     14029.93      91.6451     182.2755      364.878      2.492     6.31     1162.164     64.34127     571.4904        55     2.118     1.606 -31.77   3
       365    612.7701    118.1184 307.6765686  +6.6434454     27639.27     68009.51     83774.24     91.35554     182.3482     365.0232      2.596     5.91      1161.74     64.34127     3001.262       111     2.452     1.767 -38.38   3
       366    336.4996    122.5860 307.7912983  +6.6323779     1831.746     4753.943     5680.978     91.35555     182.2755     364.6964      2.676     7.32     1178.256     64.34127     220.3431        42     2.073     1.451 -45.00   0
       367    518.7045    121.7917 307.7155594  +6.6387914     955.1943     2517.559     2440.733     91.21042     182.1301      364.769      2.508     8.18      1162.43     64.34127     119.1493        17     1.584     1.181 -44.96   0
       368    292.0125    112.0954 307.8101555  +6.6352218     1777.813     4670.855     6803.382     91.21042     182.2755     364.8054      3.328     8.01     1184.783     64.34127     193.5817        44     2.250     1.501 -24.60   0
       369    662.8829    106.0187 307.6561416  +6.6501114     763.0615     1538.343     1742.578     91.06506     182.2028     364.9869      2.411     5.69     1161.138     64.34127     89.18164         7     1.244     0.732  -9.35   0
       370    676.8967    101.9857 307.6504513  +6.6522435     1653.577     4019.713     4837.803     91.35555     182.2755      364.769      2.519     7.46     1160.809     64.34127      200.465        33     1.815     1.474 -32.80   0
       371      1.9821     91.0370 307.9314755  +6.6342013     833.0339     2232.108     5297.751     87.50413     155.7856     286.5434      5.357    11.91     1201.999     64.34127     106.0847        23     4.149     0.952 -88.42  26
       372     12.1071     79.9904 307.9276440  +6.6391018     6920.943     16312.04      20780.1     91.06506     182.1301      364.769      2.809     5.80     1199.777     64.34127     823.2986        73     2.438     1.613 -36.44  18
       373    418.8898     93.2884 307.7580384  +6.6472279     2014.428      4924.97     5302.762     91.21042     183.1456      365.132      2.458     7.86     1165.355     64.34127      210.875        38     1.955     1.426 -23.33   0
       374    873.2729     89.3623 307.5692165  +6.6639911     1247.572     2574.383     2358.942     91.35555      182.566     365.0957      2.274     5.50     1152.807     64.34127     185.7581        13     1.219     0.983 -26.40   0
       375    891.3453     88.4726 307.5617311  +6.6649592     2390.985     5280.713     6086.922     91.35555     182.4208     364.9506      2.307     5.19      1152.58     64.34127      268.764        34     1.596     1.366 -39.68   0
       376    583.8652     86.6716 307.6896602  +6.6554659     965.5798      2090.27     2627.564     91.50043     182.6386     365.0957      2.567     6.05     1160.364     64.34127     115.4669        12     1.246     0.924  -0.31   0
       377    382.8976     86.0000 307.7732542  +6.6490347      839.247     2318.335     3225.365     90.91947     182.1301     364.6237      2.990     7.68     1170.512     64.34127     123.5095        12     1.641     1.007 -16.46   2
       378    130.2908     82.2111 307.8784251  +6.6421469     1612.793       4154.9     4715.352     91.21042     182.2028     364.8054      2.651     7.66     1190.778     64.34127     214.3036        35     1.963     1.456 -43.55   0
       379    279.1360     79.7396 307.8166158  +6.6481504     662.5101     1395.312     1997.896     91.50043     182.4934     365.0594      2.679     5.26      1185.54     64.34127     108.4921         6     1.087     0.720 -25.04   0
       380    758.5280     74.6361 307.6174354  +6.6662545     1857.146     4200.113      5248.51     91.35555      182.566     365.0232      2.646     6.62     1156.995     64.34127     191.8774        36     1.865     1.443 -37.16   0
       381    813.8309     74.1680 307.5944528  +6.6682880     3586.658     7894.575     9488.565     90.91947     182.2755     364.6964      2.360     6.40     1154.767     64.34127     375.2924        41     2.032     1.260 -33.35   0
       382    404.9958     75.2345 307.7644325  +6.6542180      722.525     1683.641     1745.242     90.62759     182.4208      364.769      2.421     6.04     1167.771     64.34127     95.16199         7     1.034     0.992 -33.90   0
       383     52.4352     71.9465 307.9111506  +6.6437755     1748.466     3995.879     4076.946     91.35554      182.566     365.0594      2.385     6.01     1195.536     64.34127     214.5052        27     1.719     1.238 -36.37   0
       384    576.1761     68.0361 307.6934928  +6.6629041     730.9974      1918.89     2098.661     91.06506     182.3482      364.769      2.413     8.15     1159.483     64.34127     102.1869        12     1.438     1.289  31.09   0
       385    752.9026     62.2309 307.6201969  +6.6711893     1153.196     2634.002      3178.41      91.6451     182.2755     365.0957      2.490     7.84     1156.293     64.34127     124.9465        19     1.680     1.023 -56.88   0
       386     80.3726     56.0850 307.9000769  +6.6512610     5178.684      12181.5     15231.35      91.6451     182.2755      364.878      2.571     5.86     1192.122     64.34127     569.7703        60     2.185     1.559 -38.01   0
       387    409.5832     55.5975 307.7631952  +6.6624792      1384.01     3423.122     4449.753     91.06506     182.0574     364.8054      2.683     7.18     1167.764     64.34127     168.9246        24     1.619     1.146  19.59   0
       388    622.9029     47.8740 307.6747481  +6.6727868     9631.825     23559.29     28802.48     91.21042     182.7836     365.0594      2.556     5.92     1157.673     64.34127     995.8608        75     2.264     1.648 -39.64   0
       389    247.8057     50.5061 307.8306436  +6.6591722     818.6313     1580.477     3009.039     91.06506     182.2028      364.769      2.272     4.76     1186.452     64.34127     107.3274         6     0.988     0.649 -78.64   0
       390    522.6445     44.0617 307.7165718  +6.6710172     2891.086     6791.785     7915.946     91.35554     182.4934      365.132      2.448     6.22     1159.527     64.34127     301.9216        42     1.920     1.453 -39.60   0
       391    240.5329     45.0873 307.8338532  +6.6611662     945.4362     2117.757     3252.916      91.6451     182.7836     365.0594      2.156     5.49     1186.624     64.34127     150.1101         9     1.493     0.569 -46.47   3
       392    248.7687     40.2351 307.8305943  +6.6634452     4893.585     12136.96     16187.64     91.06506     182.2755     364.7327      2.975     6.34     1186.237     64.34127     576.0033        74     2.471     1.698 -36.12   2
       393    428.2791     39.6406 307.7559652  +6.6696922     11586.13     28813.34     35531.12     91.35555      182.566     364.9869      2.643     6.12     1166.395     64.34127      1274.42        83     2.347     1.725 -35.26   0
       394    905.7974     39.7573 307.5573761  +6.6855542     1212.946     2605.769     3012.771     90.77365     182.1301     364.6964      2.215     7.33     1149.351     64.34127     137.7035        17     1.569     0.958 -39.69   0
       395    608.9286     38.1703 307.6808902  +6.6763276     1753.357     4295.674     6039.627     91.35554      182.566     364.9869      2.950     6.83     1157.319     64.34127     200.5204        33     1.947     1.242 -49.44   0
       396     14.4195     39.8738 307.9280574  +6.6557426     1204.804     2819.302     3387.328     91.06506     182.4934     364.9506      2.465     7.76      1195.07     64.34127     172.7076        21     1.821     1.152 -24.39   0
       397    236.6648     36.9839 307.8357388  +6.6643825     1649.586     3813.328     4818.823     90.91947     182.4208     364.9143      2.533     6.76     1186.634     64.34127     197.0706        30     1.871     1.185 -36.76   0
       398    677.0213     30.5599 307.6528317  +6.6817392     784.6783     1785.579     1968.884     91.06506     182.3482     364.8054      2.329     5.86     1155.539     64.34127     107.1753         8     1.182     0.817  10.81   2
       399    926.6572     29.1397 307.5490616  +6.6906314      710.668     1397.618     1011.201      91.6451     182.4934     365.0594      1.910     4.59     1148.536     64.34127     91.81335         6     1.256     0.476 -41.88   0
       400    944.2917   1017.9446 307.5081699  +6.2829278     5801.188     10105.94      11466.1     91.35554     182.4208     356.8383      1.882     5.26     1212.581     64.34127      775.792        37     1.890     1.009 -36.01  16
       401    228.6412   1017.8264 307.8055545  +6.2591309     1167.387     2068.372     1716.765     91.06506     182.3482     357.5059      1.948     6.15     1227.393     64.34127     178.2141        13     1.614     0.698 -32.41  16
       402    703.4344   1016.2432 307.6083162  +6.2756236     2108.054     3919.126     4815.771     91.21042      182.566     364.8417      2.183     7.47     1219.965     64.34127     307.0312        27     2.255     0.895 -28.98  16
       403    427.0479   1017.2083 307.7231327  +6.2660139      840.782     1585.481     2077.502     90.91947     182.4208     361.7788      2.020     5.82     1223.282     64.34127     100.5975        11     1.424     0.669 -41.54  16
       404    719.6917   1015.4274 307.6015882  +6.2765015     928.0398     1276.568      1062.07      91.6451     182.2755      364.878      1.567     5.92      1219.99     64.34127     137.4844        11     1.507     0.654 -51.35  16
       405    350.7607   1013.8657 307.7549462  +6.2648472     1211.579     2318.636     2333.822     91.50043     182.4934      365.132      2.002     6.74     1228.224     64.34127     188.8762        16     1.638     0.896 -33.54  16
       406    532.8638   1003.8331 307.6796179  +6.2750660     3126.295     5953.293     7194.458     91.35554     182.6386     364.9869      2.106     5.15     1222.582     64.34127     379.6707        29     1.746     0.997 -37.03   0
       407    283.4051   1002.5207 307.7833214  +6.2672812     10492.58     21494.15     25089.46     91.06506     181.9846      364.769      2.257     5.68     1227.449     64.34127     1282.607        63     2.275     1.302 -36.36   0
       408    737.5656   1003.1328 307.5945785  +6.2821728     6330.002     11469.34     12377.23     91.35555     182.6386      365.132      1.983     4.96     1219.231     64.34127     850.7147        40     1.908     1.056 -36.05   0
       409    502.5373   1005.2789 307.6921706  +6.2734579     631.2264     1332.618     1681.341     91.78954     182.6386     365.0232      2.454     3.40      1223.05     64.34127     112.5525         5     0.729     0.460 -70.13   0
       410    798.4728   1002.9220 307.5692755  +6.2842857     1011.664     1796.444     1914.118     91.78954      182.856     365.0232      1.963     6.38     1217.308     64.34127     161.2893        12     1.447     0.817 -22.19   0
       411    407.0460   1003.2330 307.7319205  +6.2711167     738.7732     1349.408      1581.12     91.21042      182.566     364.9506      1.944     6.32     1223.884     64.34127     106.5486         9     1.351     0.832 -49.59   0
       412    254.5088   1000.3214 307.7954036  +6.2672235     874.9418     1396.874     1234.629     91.21042      182.856     365.0957      1.858     6.27     1227.107     64.34127     105.1743        10     1.455     0.760 -39.62   0
