#   1 NUMBER                 Running object number                                     
#   2 X_IMAGE                Object position along x                                    [pixel]
#   3 Y_IMAGE                Object position along y                                    [pixel]
#   4 ALPHA_J2000            Right ascension of barycenter (J2000)                      [deg]
#   5 DELTA_J2000            Declination of barycenter (J2000)                          [deg]
#   6 FLUX_APER              Flux vector within fixed circular aperture(s)              [count]
#   9 FLUXERR_APER           RMS error vector for aperture flux(es)                     [count]
#  12 FLUX_RADIUS            Fraction-of-light radii                                    [pixel]
#  13 FWHM_IMAGE             FWHM assuming a gaussian core                              [pixel]
#  14 BACKGROUND             Background at centroid position                            [count]
#  15 THRESHOLD              Detection threshold above background                       [count]
#  16 FLUX_MAX               Peak flux above background                                 [count]
#  17 ISOAREA_IMAGE          Isophotal area above Analysis threshold                    [pixel**2]
#  18 A_IMAGE                Profile RMS along major axis                               [pixel]
#  19 B_IMAGE                Profile RMS along minor axis                               [pixel]
#  20 THETA_IMAGE            Position angle (CCW/x)                                     [deg]
#  21 FLAGS                  Extraction flags                                          
         1    427.6327     26.8801 307.7613663  +6.6824827     5321.117     9563.983     10772.05     79.18039      158.235     316.3757      1.929     5.02     846.8541     55.76637      647.213        36     1.794     1.038 -49.89   0
         2    324.2635     21.7911 307.8044774  +6.6810971     10597.86     19447.53     20606.23     78.80244     158.0463      316.187      1.936     5.55     854.2941     55.76637     1341.658        46     1.806     1.134 -44.81   0
         3    390.4918     19.7161 307.7770366  +6.6841877     1876.827     3440.594     3329.412     79.05461     158.5492     316.5015      1.960     5.46     849.5541     55.76637      245.564        23     1.641     0.920 -43.48   0
         4    651.2357     15.2454 307.6688728  +6.6948141     9213.939     16459.42     18257.61     79.05461     158.1721     316.2813      1.918     5.66     840.6103     55.76637     1125.531        47     1.804     1.127 -47.08   0
         5     69.0309     16.1739 307.9106871  +6.6747917     563.1757      1010.45     1003.786     78.80244     157.9833     316.2184      1.714     3.86     855.2478     55.76637     87.01782         6     1.511     0.283 -59.48   0
         6    815.8740     14.7319 307.6004963  +6.7005582     1428.518     2588.016     3566.128     79.43136     158.3608     316.3443      2.227     6.01     838.6971     55.76637     172.9151        18     1.592     0.816 -50.15   0
         7    528.5838     15.0945 307.7198289  +6.6907488     1006.334     1906.361      1781.48      79.0546     158.0462     316.2184      2.003     6.91     842.2177     55.76637     145.3911        15     1.718     0.779 -52.19   0
         8    886.2930     12.7675 307.5713085  +6.7037325     1365.752     2175.685     2165.867     79.43136     158.1092     316.4386      1.703     5.37     835.8399     55.76637     194.1782        16     1.501     0.739 -35.90   0
         9    251.4977     11.9958 307.8350350  +6.6826840     5191.324     10038.31     10923.37      79.0546     157.9203      316.061      2.078     5.83     856.8781     55.76637     668.4897        43     1.990     1.166 -39.62  16
        10    642.8715     10.6486 307.6725024  +6.6964302     7758.684     13871.38     15471.01     79.30597      158.235     316.4072      1.932     5.75     840.5305     55.76637     988.8894        46     1.854     1.086 -48.91  16
        11    412.6298     10.6890 307.7681455  +6.6886604     6818.236     12165.26     12359.91     79.43136     157.9833     316.3128      1.883     5.78       848.08     55.76637     839.6901        40     1.758     1.106 -47.55  16
        12    674.7364      8.3216 307.6593436  +6.6984624     12578.67     25921.69     32915.28     79.55655     158.2979     316.0295      2.487     8.39      840.226     55.76637     1591.114        71     2.713     1.142 -41.44  16
        13    728.3367      9.5393 307.6370359  +6.6997614     1683.583     2752.774     2512.571     79.30598      158.235     316.4072      1.776     6.53     839.5649     55.76637     209.4283        17     1.532     0.781 -48.56  16
        14    652.1384      6.6830 307.6687864  +6.6983789     2599.294     4872.346     6703.065     79.43136      158.235     306.2422      2.376     5.26     840.3447     55.76637     318.9762        27     1.666     0.987 -50.24  17
        15    191.2124      7.5399 307.8602277  +6.6824868     1060.179     1898.503     1841.262     78.67605     158.1092     312.1323      1.968     6.18     856.2067     55.76637     155.2304        14     1.674     0.694 -37.48  16
        16     59.0331      3.8257 307.9152585  +6.6795503     2723.727     4961.415     4895.344     78.80244     154.8659     275.0859      1.902     5.18      854.241     55.76637     364.0323        29     1.714     1.057 -47.47  24
        17    941.6309      2.4697 307.5486657  +6.7098394     633.9331      1073.38      1411.01     79.18039     141.6422     256.0496      1.931     4.54     833.5822     55.76637     105.6043         7     1.506     0.389 -53.53  24
        18    775.1054      1.8177 307.6178671  +6.7045201     564.4326     723.6988     484.8577     74.78517     132.8692     246.1414      1.496     5.44     839.0937     55.76637     163.7859         8     1.540     0.543 -34.15  24
        19    149.3914      2.0523 307.8777854  +6.6833384     3950.838     5557.359     5449.848     76.49552     136.0517     249.3549      1.494     5.51     855.6022     55.76637     517.4815        20     1.377     0.815 -28.66  24
        20     81.2139      1.3451 307.9061292  +6.6813247     624.2582     772.5209     986.9777     68.39058     125.7108      238.127      1.187     3.78     854.8226     55.76637     113.3378         6     1.018     0.403 -15.63  24
        21    949.5640    986.4062 307.5123308  +6.3039324     5479.935     10499.58     11595.52     78.42267     157.9833     316.1555      2.007     5.14     867.1036     55.76637     605.6732        44     1.834     1.228 -44.85   0
        22    809.8711   1021.4055 307.5691418  +6.2848005     821.3952     1510.407     1454.271     78.80244      152.926     272.1033      1.943     6.82     871.1185     55.76637     110.3302        15     1.673     0.779 -60.66  24
        23    748.6313   1022.0645 307.5945394  +6.2824730     6498.384     11329.75     11841.16      79.0546     146.9526     262.8389      1.850     5.52     872.0862     55.76637     779.2991        35     1.652     1.100 -45.29  24
        24    544.1503   1022.4426 307.6794025  +6.2754449      3501.26     5674.042      6380.18     79.43136     142.4129      257.329      1.789     5.31     875.8126     55.76637     437.9406        26     1.524     0.993 -38.59  24
        25    514.6332   1023.5500 307.6916170  +6.2739946     685.1287     1070.225      1219.83     70.68044     127.5966     239.9587      1.837     4.84     875.6271     55.76637     124.1645         9     1.480     0.449  -8.77  24
        26    418.6327   1022.1091 307.7315124  +6.2713575     689.3548     1111.249     1149.294     79.43136     146.4778     262.3463      1.765     6.13     876.3688     55.76637     101.1556        10     1.455     0.726 -19.72  24
        27    294.2829   1021.4073 307.7831491  +6.2674564     12214.32     22166.63     23768.23     78.92863      152.926     271.9204      1.942     5.81     875.9255     55.76637     1476.376        53     1.981     1.129 -42.54  24
        28    923.3036    977.9942 307.5235139  +6.3065249     1718.552     3057.662     3729.571      79.0546     157.9203      316.187      1.904     5.18     868.1309     55.76637     220.8836        21     1.507     0.977 -64.66   0
        29    644.0754    973.7625 307.6395642  +6.2989000     3922.325     7255.496     7713.894     79.18039     158.2979     316.4072      1.965     5.55     872.5978     55.76637     492.6957        29     1.662     0.990 -45.91   0
        30    256.2008    973.9178 307.8005597  +6.2857751     3572.697     6423.099     6730.555     78.54946     157.7311      316.061      1.919     5.98     875.1472     55.76637     491.8704        30     1.670     1.006 -47.56   0
        31    783.0177    974.1360 307.5818768  +6.3034124     1072.531     2119.023     2482.993     78.92862     158.1721     316.2184      2.033     6.65     870.3139     55.76637     125.5041        16     1.608     0.771 -46.81   0
        32    465.7405    972.3456 307.7136371  +6.2934860     945.8204     1750.045     1256.095     79.43136     158.1721     316.3443      1.924     7.10      875.064     55.76637     120.4478        11     1.368     1.033 -20.08   0
        33     24.9592    971.5404 307.8966203  +6.2789466     1951.557     3376.572      3763.56     79.30597      158.235     316.4386      1.944     5.03     874.4152     55.76637      244.144        22     1.570     0.920 -40.76   0
        34    876.0338    970.6063 307.5433840  +6.3079900     852.1167     1419.176     1266.848     78.67605     158.0462     316.1555      1.640     5.61     868.4239     55.76637     119.9285        11     1.403     0.631 -44.31   0
        35    968.1039    968.3641 307.5052401  +6.3120016     537.3312     1006.288     649.4375     79.43136     158.1092      316.533      1.648     5.96     865.4316     55.76637     95.93182         7     1.562     0.640 -48.15   0
        36   1000.2422    965.8420 307.4919836  +6.3141193     860.1773     1883.706     2055.867      79.0546      158.235     316.2499      2.479     7.72     863.5515     55.76637     126.4051        18     1.988     0.840 -57.37   0
        37    946.8975    968.2322 307.5140475  +6.3113455     667.1617     1012.223     558.3644     79.30597     158.1092     316.4701      1.556     4.43     866.6362     55.76637     101.7511         7     0.762     0.734 -25.08   0
        38    568.7224    966.4468 307.6710891  +6.2993864     1373.697     2416.984     2348.654     79.18039     158.2979     316.3757      1.798     6.14     873.8938     55.76637     223.2595        17     1.826     0.649 -49.42   0
        39    606.7302    963.6686 307.6554058  +6.3018114     816.4625      936.085     874.3834     79.30598     158.3608     316.3443      1.174     2.79     873.0315     55.76637     154.1782         6     0.839     0.615   8.92   3
        40    609.0000    961.9948 307.6545200  +6.3025787     838.9795     1016.925     946.4377     78.54946     157.8572     316.1555      1.284     3.72     872.9562     55.76637     118.3096         7     0.749     0.704  61.48   3
        41     57.1560    963.5462 307.8835274  +6.2833349      664.985     1245.785      1720.39     79.30598      158.235     316.3757      1.895     4.62     874.3826     55.76637     93.58746         8     0.911     0.665 -59.68   0
        42    287.6888    960.6816 307.7879369  +6.2923010      1338.14     2389.522     2408.392     79.05461     158.4236     316.4701      1.891     6.56     875.8775     55.76637     179.2433        19     1.661     0.824 -49.22   0
        43    754.9576    956.4233 307.5941201  +6.3097823     854.4769     1535.092     1597.505     78.92862     158.1092      316.187      1.993     6.53     870.2247     55.76637     112.2905        12     1.769     0.677 -48.33   0
        44    892.2798    953.1503 307.5372262  +6.3157406     5846.087     10736.77     11076.33     79.30598     158.2979     316.3757      1.967     5.07     867.8226     55.76637     701.4619        40     1.799     1.131 -45.39   0
        45    428.0002    950.3496 307.7300444  +6.3012950     1720.275     3262.799      3056.84     78.54946     157.7311     315.9351      1.945     5.41     875.0831     55.76637     267.5604        22     1.603     0.872 -50.05   0
        46    329.8988    948.5415 307.7708262  +6.2987356     8328.382      14838.1     16004.17      79.0546      158.235     316.5015      1.913     5.57     875.5896     55.76637     1025.062        45     1.805     1.093 -46.06   0
        47    249.9169    947.4665 307.8040616  +6.2964819     6256.029     10864.31     11834.07     79.55654     158.4864     316.4386      1.883     5.44      875.219     55.76637     771.1215        34     1.748     0.983 -47.04   0
        48    578.0876    942.2271 307.6680173  +6.3096993     967.9561     1712.723     1954.438     79.43136     157.9833     316.2813      1.886     6.18     873.2072     55.76637     118.7515        14     1.661     0.646 -35.84   0
        49    762.5492    941.4251 307.5914729  +6.3162285     577.5874     1089.939     1523.453     78.92863      158.235     316.2813      1.931     6.11     869.6876     55.76637     97.67426         8     1.492     0.704 -55.11   0
        50    908.0240    938.3008 307.5311890  +6.3223985     1049.708     1860.359      2351.92     79.43136     157.9833      316.187      1.921     6.77     867.0283     55.76637     107.4328        17     1.555     0.826 -29.67   0
        51    211.8627    938.1203 307.8201730  +6.2990558      417.761     738.1539     831.8005     79.43136     158.2979     316.3757      1.555     3.89     874.8729     55.76637      90.5238         5     0.995     0.436 -44.55   0
        52    406.1531    936.1831 307.7395908  +6.3064069     639.7651     1141.308     1195.656     78.80244     158.1721      316.124      1.947     5.01     874.9747     55.76637     80.18805         6     1.376     0.515 -46.20   0
        53    976.3964    933.7108 307.5029602  +6.3265845     666.8075      1191.62     1310.468     78.80244     157.9203      316.061      2.025     6.08     864.0007     55.76637      98.7691         7     1.221     0.852 -46.92   0
        54    837.1307    932.4188 307.5608157  +6.3224492     504.5939     919.9121     1168.826     78.92862     158.1092     316.3128      1.994     3.95     868.4561     55.76637     94.23352         5     1.347     0.332 -50.12   0
        55    744.4196    931.0212 307.5993486  +6.3199146     1352.176     2447.106     2878.628      79.0546     158.1721     316.3128      1.987     6.80     869.7305     55.76637     177.9645        18     1.588     0.818 -46.61   0
        56    567.3017    932.2343 307.6728311  +6.3134616     638.8142     1042.357     1029.749     79.30598     158.1092     316.5015      1.566     3.92     873.1907     55.76637     129.6294         6     0.773     0.621 -46.61   0
        57    974.7283    927.4446 307.5038629  +6.3291154     865.3066     1407.229     2006.309     79.18039      158.235     316.4072      1.939     5.54     863.8569     55.76637     135.3848        10     1.350     0.642 -61.81   2
        58    977.4371    926.1614 307.5027815  +6.3297358      740.948     1053.617     1556.476      79.0546     158.1092     316.2499      1.594     4.44      863.738     55.76637     125.7692         7     1.207     0.464  84.82   3
        59    619.3809    928.0005 307.6513553  +6.3169605     407.1398     480.6132     155.7178     78.92862     157.7942      316.061      1.394     4.17      872.245     55.76637     64.26068         5     1.096     0.452 -24.90   0
        60    609.6342    926.8097 307.6554413  +6.3171244     711.0556     1481.687     1280.663     78.80244     158.0462     316.2184      1.977     3.52     872.3518     55.76637     125.6725         7     0.772     0.697 -60.79   2
        61    529.7022    926.9897 307.6886156  +6.3143616     1041.912      1801.75     1664.572      79.0546     157.8572     316.2184      1.908     6.83     873.6996     55.76637     140.0146        17     1.599     0.818 -45.08   0
        62    662.7049    924.6129 307.6334850  +6.3198151     2160.402     3789.545     3647.662     79.05461     157.9833     316.2184      1.844     5.05     871.4668     55.76637     271.1461        23     1.539     0.967 -41.57   0
        63    823.6117    920.8893 307.5668150  +6.3267551     784.3994     1233.195     935.0918      79.0546     157.9203     316.2499      1.764     6.83     868.3624     55.76637     96.45966        12     1.459     0.896 -27.27   0
        64     59.5254    920.4735 307.8840019  +6.3011946     2558.979     4507.896      4404.44     79.55655     158.4864     316.4386      1.928     6.39      873.884     55.76637     282.2919        28     1.812     0.954 -53.07   0
        65    203.1254    919.5587 307.8244272  +6.3064228     1906.039     3297.627     3279.077     79.18039      158.235     316.4072      1.774     5.74     874.9833     55.76637     229.3999        21     1.581     0.857 -51.84   0
        66     77.0839    919.8301 307.8767356  +6.3020537     1547.184     2772.076     2629.673     79.30597     158.0462     316.2499      1.918     6.92     873.9971     55.76637     241.2043        20     1.815     0.739 -50.92   0
        67    941.4929    919.7698 307.5179173  +6.3311700     704.7537     1169.416     1098.146     79.43136     157.9833     316.3128      1.796     5.90     865.3425     55.76637     102.1528         9     1.117     0.877 -25.35   0
        68    958.8256    917.2483 307.5108066  +6.3327917      413.075     684.9745     1388.657     78.92862     158.2979     316.2813      4.652     5.18     864.4047     55.76637     73.45801         5     1.218     0.623 -68.02   0
        69    236.7845    916.6997 307.8105523  +6.3087390      782.581     1330.345     1256.198     79.30598     157.9833      316.124      1.869     5.57     875.2068     55.76637     101.5807        11     1.373     0.638 -35.00   0
        70    657.5555    913.7407 307.6359884  +6.3241301     5939.726     10308.76     11320.43     79.18039     158.1721     316.4701      1.882     5.41     871.1415     55.76637     726.1821        35     1.716     1.012 -46.03   0
        71    341.8086    915.3323 307.7670036  +6.3128456     789.2692     1446.724     1359.905     78.80244     157.9833     316.2813      1.905     6.12     875.2441     55.76637       103.29         9     1.297     0.811 -47.79   0
        72    795.1927    914.7569 307.5788184  +6.3283330     664.6698     1050.754     886.1153     78.80244     157.9833     316.0925      1.446     5.08     868.6508     55.76637     92.90759         9     1.112     0.655 -27.62   0
        73     17.7464    911.9012 307.9016336  +6.3033206     1062.198     1847.171     1892.531     79.18039      158.235     316.5959      1.777     6.37     873.5494     55.76637     156.5685        15     1.434     0.796 -36.06   0
        74    895.3254    910.1967 307.5374040  +6.3335743     2302.412     4062.028     3894.211     78.80244     157.7311     316.2813      1.845     5.72     866.7094     55.76637     270.6519        23     1.586     0.941 -50.56   0
        75     30.6967    910.3621 307.8963104  +6.3043938     888.6885     1477.913     1409.328     79.30598     158.1092      316.533      1.776     5.96     873.6207     55.76637     143.8154        12     1.690     0.592 -44.76   0
        76    770.8908    909.9254 307.5890691  +6.3295117     565.9955     797.6409     77.28762     79.30598     158.4236     316.4072      1.436     3.90     868.9573     55.76637     106.9228         5     1.275     0.342 -63.22   0
        77    340.5519    906.8433 307.7678118  +6.3163075     14303.04     24975.36     26840.91     79.30598     158.1721     316.3128      1.879     5.30     875.2151     55.76637     1730.154        49     1.800     1.101 -48.47   0
        78     75.1041    908.1247 307.8779535  +6.3068186      1095.49     1879.328     1360.564     78.92862     158.4236     316.4072      1.771     6.20     873.8936     55.76637     162.9618        14     1.426     0.758 -37.17   0
        79    211.3637    906.4613 307.8214503  +6.3121074     1055.523     1618.027     1691.967     79.30598      158.235     316.3443      1.693     4.70     875.0394     55.76637     184.7792        11     1.288     0.579 -47.46   0
        80    419.0000    897.0055 307.7355797  +6.3230120     887.6548     1713.441     1704.299     78.54946     157.8572     316.1555      2.032     5.30     874.1321     55.76637     157.3417         7     1.045     0.825 -63.31   2
        81    103.7954    897.9062 307.8663900  +6.3120061     1331.442     2381.415     2501.113      79.0546     157.9203      316.124      1.852     6.51     874.0631     55.76637     170.5021        17     1.596     0.881 -43.45   0
        82    671.9291    894.6096 307.6306655  +6.3325105     749.2585     1835.519     1729.507     78.80244     157.8572     316.2184      2.442     8.66     870.1629     55.76637     91.33478        18     1.751     1.196  75.66   0
        83    885.5620    891.8846 307.5420720  +6.3408063      1539.05     2770.185      2785.73     79.30597     158.1721     316.3128      1.950     5.62     866.4709     55.76637     182.3585        21     1.659     0.908 -55.71   0
        84     87.2746    891.1284 307.8734770  +6.3142457     2244.237     3897.426     4336.129     79.55655     158.3608     316.4072      1.874     5.83     873.8419     55.76637     285.4073        21     1.590     0.831 -50.00   0
        85    856.5649    891.4806 307.5541231  +6.3400006      1661.92     2869.252     2763.134     79.18039     158.2979     316.4072      1.859     6.33      867.087     55.76637     195.8609        16     1.461     0.770 -31.45   0
        86    819.7588    890.7253 307.5694279  +6.3390777     2530.579     4460.919     4990.512     79.18039      158.235     316.4072      1.940     6.05     867.8813     55.76637     329.1232        24     1.680     0.884 -51.53   0
        87    555.6696    882.0566 307.6793501  +6.3337835     287707.8     503426.2     540425.9     79.43136     158.1721     316.3443      1.888     6.19     872.2552     55.76637     38443.12       192     2.013     1.345 -49.01   0
        88    449.8618    888.8973 307.7230421  +6.3273984     412.9807     969.9857     1548.516      79.0546     158.2979     316.4386      1.881     3.50     873.8231     55.76637     89.46985         5     1.636     0.217 -63.01   0
        89    399.8440    884.6687 307.7439477  +6.3274592     6595.814     11374.76     12426.98     79.30598     158.1721     316.4072      1.853     5.27     874.1685     55.76637     816.0446        36     1.685     1.026 -53.00   0
        90    643.3317    885.2087 307.6428533  +6.3354301     968.2316     1946.061     2192.113     78.80244     157.9833     316.2813      2.052     4.69     870.4031     55.76637     152.2872        13     1.421     0.830 -49.44   0
        91    343.0935    883.0732 307.7675593  +6.3262052     10779.19     18949.28     20255.05     79.18039     158.3608     316.4072      1.880     5.65     875.0602     55.76637     1515.829        45     1.794     1.044 -46.87   0
        92    661.5807    879.3973 307.6354733  +6.3384424     2999.583      5234.25      5392.79     78.92863     157.7942      316.124      1.841     6.43      869.768     55.76637     393.1638        28     1.643     1.006 -48.92   0
        93    893.8189    878.2751 307.5391012  +6.3467013     4329.778      8128.19     9708.061     78.80244     157.9833     316.3128      2.058     5.35     865.9409     55.76637      559.412        37     1.780     1.158 -35.04   0
        94    733.0795    876.1387 307.6059016  +6.3421895      661.687     1333.826     857.9525     79.43136     158.2979     316.3757      1.918     6.47     868.9305     55.76637     91.18707         9     1.386     0.848 -39.02   0
        95    636.2529    873.5741 307.6461836  +6.3399949     2811.942     5067.244     5802.726     78.92863     158.3608     316.2813      1.907     5.65     870.1882     55.76637     350.5251        27     1.686     0.960 -48.52   0
        96    824.6954    872.7123 307.5679838  +6.3466792     1368.897     2414.886     2364.158     79.30598     158.6119     316.4386      1.891     6.90     867.4277     55.76637     153.6934        18     1.518     0.879 -52.98   0
        97    951.1788    872.7668 307.5154737  +6.3508978     614.4509     766.8465     769.9082     78.80244     158.0462      316.187      1.211     3.35     863.9415     55.76637     97.88208         5     0.937     0.348  43.77   0
        98    628.5861    868.9337 307.6495225  +6.3416528     1713.642     3650.569     5328.518     78.80244     158.0462     316.3128      2.457     9.01     870.1902     55.76637      249.131        31     2.632     0.861 -58.30   0
        99    912.8118    866.2110 307.5316215  +6.3523182     2672.552     4949.747     5735.755      79.0546     158.0462     316.3443      1.988     5.43     865.3442     55.76637      342.369        30     1.833     0.993 -45.33   0
       100    322.7986    866.9485 307.7765283  +6.3321772     845.1462     1464.783     1206.745     78.67605     157.8572     315.9666      1.734     5.90     875.3156     55.76637     136.4913        11     1.662     0.589 -48.87   0
       101    370.9706    861.9360 307.7567006  +6.3358702     2320.637     4066.535     4359.565      79.0546      158.235     316.3128      1.809     5.25     874.3314     55.76637     313.5357        25     1.584     0.979 -48.18   0
       102    507.2082    851.7892 307.7004875  +6.3446472     2698.654     4694.846     4564.213     78.80244     158.0462     316.3128      1.807     5.23     872.1047     55.76637     338.9324        24     1.626     0.880 -46.26   0
       103    851.7869    851.0250 307.5574656  +6.3565407     766.0538     1232.618     1365.495      79.0546     158.0462     316.3128      1.640     5.55     866.1967     55.76637     115.0641         9     1.299     0.711 -50.54   0
       104    554.0461    847.9270 307.6811738  +6.3478176       5323.1     9326.186     10413.71     79.18039     158.2979     316.3757      1.903     5.62     871.2425     55.76637     750.9922        35     1.669     1.081 -50.76   0
       105    572.4401    849.3548 307.6734897  +6.3478470     736.9164     1239.401     1096.974     79.05461      158.235     316.2499      1.700     5.34     870.8454     55.76637     93.63672         9     1.259     0.640 -40.19   0
       106    560.9474    847.2120 307.6783329  +6.3483449     1089.344     2227.662     2421.162     78.67605     158.1721     316.0925      2.102     6.40     871.0329     55.76637     154.7316        17     1.662     0.922 -49.03   1
       107    471.7677    846.8620 307.7153660  +6.3454881      1357.21      1953.44     2281.631      79.0546     158.2979     316.3128      1.574     5.82     872.2742     55.76637      215.837        13     1.520     0.627 -49.62   0
       108    889.9948    846.0006 307.5417724  +6.3598962     1132.571     2283.649     1923.527     78.67605     157.9203     316.1555      1.950     5.96     865.1382     55.76637     222.5695        15     1.762     0.702 -46.60   0
       109    113.5785    845.8338 307.8640911  +6.3338314     1228.169     1919.426     1674.261     78.80244     158.0462      316.187      1.649     5.65     873.6191     55.76637     209.7823        15     1.480     0.716 -55.56   0
       110    524.7985    841.7413 307.6935239  +6.3493870     16986.65     29661.51     31746.01     78.67605     157.9203     316.0925      1.853     5.93     871.4274     55.76637     2269.244        54     1.783     1.128 -49.68   0
       111    365.9229    843.3683 307.7594227  +6.3433647     637.7071     1033.048     720.2148     79.18039      158.235     316.3128      1.466     4.42     873.8322     55.76637     89.34735         7     1.162     0.478 -48.60   0
       112    938.3545    840.0865 307.5218944  +6.3639587      3281.39     5762.499     6124.793     79.30597     158.1092     316.3757      1.859     5.03     863.4411     55.76637     376.5887        28     1.651     0.946 -49.54   0
       113     36.1734    831.1653 307.8967188  +6.3372700     1076.474     1899.216     2368.587     78.80244     157.9833     316.1555      2.041     5.27     872.4739     55.76637     157.1787        10     1.310     0.598 -70.52   2
       114    317.3888    830.4012 307.7800082  +6.3470812     2852.676     5076.687     5386.275     78.92863     157.9203      316.187      1.922     6.15     874.5336     55.76637     389.4036        27     1.767     0.920 -45.04   0
       115    782.9840    826.3365 307.5868587  +6.3644235     46847.58     83248.27     89014.97     78.80244     158.1721     316.2184      1.893     5.24      867.124     55.76637     6102.098        83     1.870     1.243 -49.01   0
       116     17.1945    828.6555 307.9046820  +6.3376642     1764.417      3217.02     3458.444     78.80244     158.0462     316.0925      1.917     5.17     872.2796     55.76637     222.9379        22     1.498     0.964 -42.65   0
       117    240.1325    824.0023 307.8122952  +6.3471165     4377.977      8325.94     10476.34     78.67605     157.8572      316.187      2.256     5.08     875.0092     55.76637     580.9337        41     1.809     1.238 -49.06   0
       118    425.8933    824.7877 307.7351543  +6.3530554     777.4138     1452.076     1620.651      79.0546     157.9833      316.187      1.965     6.25     872.1287     55.76637     138.6024         8     1.113     0.986  -8.15   0
       119    908.2387    821.6620 307.5350156  +6.3705550     7329.267     13154.15      14224.7     79.30598      158.235     316.4072      1.909     5.42     863.7732     55.76637     921.1512        42     1.782     1.109 -46.38   0
       120    711.2084    820.9713 307.6168367  +6.3642282     18293.02      32627.1     35666.62     78.92862     158.0462      316.187      1.895     5.56     868.0714     55.76637     2556.931        60     1.847     1.153 -47.39   3
       121    704.8956    817.4567 307.6195758  +6.3654669     75945.16     132098.4     142355.9     79.18039      158.235     316.5959      1.877     5.28     868.0413     55.76637     9696.397        96     1.906     1.223 -48.63   3
       122    349.7349    818.2480 307.7669908  +6.3531885     17849.07      31449.6     33774.57     79.18039     158.1092     316.4386      1.889     5.67     873.3582     55.76637     2303.824        58     1.809     1.166 -46.90   0
       123    411.6408    816.0812 307.7413648  +6.3561692     19104.29     33592.54     35579.26     79.30597      158.235     316.3128      1.887     6.25     872.1473     55.76637     2488.151        59     1.843     1.147 -49.71   0
       124    398.7322    818.6620 307.7466365  +6.3546689     1213.525      2266.31     2326.001     79.30598     158.1721     316.3757      1.906     6.24     872.4727     55.76637     183.6783        15     1.537     0.860 -48.24   0
       125    948.7338    815.3849 307.5184144  +6.3745036     1716.504     3170.009     2917.046     78.80244     158.1092     316.3128      1.877     6.57     861.9625     55.76637     195.4047        21     1.683     0.896 -47.67   0
       126    239.7773    802.4456 307.8131712  +6.3560029     763507.4      1912000      2185564     78.92863      158.235     316.2184      2.444     7.48     874.8202     55.76637     63965.71       620     2.661     2.069 -54.64   4
       127    434.4365    809.9790 307.7321073  +6.3594561     1556.823     2725.551     2913.298     78.92862     157.9833      316.124      1.844     5.64      871.418     55.76637     225.0878        20     1.558     0.943 -45.41   0
       128    159.2864    809.6805 307.8463403  +6.3502990     635.6588     997.3845     663.4742     79.05461     158.4864     316.5015      1.621     4.18     873.8345     55.76637     113.1806         6     1.489     0.334 -36.32   0
       129    874.3522    803.7148 307.5496867  +6.3768275     574.8859     960.7593     499.2547     79.30598     158.1721     316.3757      1.753     6.43     864.6985     55.76637     94.04462        10     1.453     0.798 -39.12   0
       130    124.8524    802.9842 307.8608610  +6.3519000     816.0411     1640.929     1694.855     78.67605     158.2979     316.0925      2.300     6.14     872.9269     55.76637     141.0651        11     1.769     0.599 -63.12   0
       131    598.9457    803.7184 307.6640233  +6.3675771     744.7678     1417.882      2073.53     79.30598      158.235     316.4386      2.108     5.58     868.4614     55.76637     122.6872         9     1.274     0.689 -37.71   0
       132    150.1866    803.0512 307.8503420  +6.3527281     861.9647     1272.718     1844.598     78.67605     158.1721      316.124      1.612     5.30     873.4934     55.76637     125.4357         9     1.136     0.698 -69.92   0
       133    680.8591    802.1539 307.6300695  +6.3709764     2226.108     3651.191     3170.109     79.30597      158.235     316.4701      1.736     5.75     867.9586     55.76637     299.8541        19     1.496     0.817 -47.98   0
       134    414.5822    798.7487 307.7407285  +6.3634231     46444.77     81041.59     87409.06     78.80244     158.2979      316.124      1.891     5.58     871.5853     55.76637     5708.375        88     1.917     1.217 -49.24   0
       135    905.1638    813.0113 307.5365827  +6.3740230     5587.531     10206.24     11360.15     78.80244     158.0462      316.061      1.940     5.07     863.5601     55.76637     706.9893        40     1.727     1.152 -52.28   0
       136    957.3337    800.4575 307.5153450  +6.3809539     650.9626     820.5381     860.5676     79.43136     158.1721     316.3757      1.489     5.67     861.1897     55.76637     96.63666         7     1.088     0.831 -35.55   0
       137    532.3000    797.8557 307.6918887  +6.3677553     6099.354     10272.77     10453.17      79.0546      158.235     316.6587      1.778     5.75     869.4824     55.76637     872.8948        29     1.635     0.923 -49.12   0
       138    777.4924    794.5125 307.5902084  +6.3773763     10324.75     17769.42      18740.2     79.30598     158.6747     316.4701      1.888     5.28     866.3496     55.76637     1215.004        47     1.794     1.093 -47.76   0
       139    449.0797    796.4459 307.7264848  +6.3655356     3958.097     6967.645     8088.363     79.30597      158.235     316.3757      1.929     5.05     870.5073     55.76637     490.6988        32     1.740     1.027 -41.47   0
       140    671.8350    794.5971 307.6340702  +6.3737926      452.269     598.6785     388.6992     78.42267     158.0462      316.124      1.305     3.48     867.7466     55.76637     79.17615         5     0.771     0.453  17.57   0
       141    730.4373    793.1542 307.6097895  +6.3763570     4280.803     4271.165     3880.254      79.0546     158.1721     316.2813      0.853     1.80      867.281     55.76637     1305.361         9     0.808     0.447  24.79   0
       142    445.6997    789.9896 307.7281057  +6.3680870     1951.049     3529.785     4375.971      79.0546     157.8572     316.1555      2.037     6.64     870.4416     55.76637     248.0244        18     1.655     0.748 -54.01   0
       143      6.7429    790.6890 307.9103066  +6.3529825     1093.776     1605.858     1729.799     79.30598     158.1721     306.8914      1.612     5.97     871.4966     55.76637     140.7787        12     1.407     0.713 -43.88  16
       144    966.7543    788.5953 307.5118319  +6.3861664     737.7594     1129.673     1825.277     78.67605     157.9203      316.061      1.836     5.52     860.7936     55.76637     117.6251        10     1.298     0.662 -32.54   2
       145    972.3310    783.2056 307.5096975  +6.3885781     1339.211     2419.565     3446.633     78.80244     157.8572     316.2184      2.390     6.98     860.6221     55.76637      194.931        18     1.636     0.834 -49.77   2
       146    799.3303    788.6561 307.5813390  +6.3805269     1167.436     1849.147     1606.707     79.43136     158.1092     316.3443      1.759     6.41     865.5926     55.76637      140.157        15     1.324     0.873 -43.54   0
       147    143.4706    786.6396 307.8536852  +6.3592757     2706.252     4663.104      4986.72     79.18039      158.235     316.4386      1.894     5.04     872.9741     55.76637     332.4164        29     1.749     0.948 -50.08   0
       148    135.3269    786.3166 307.8570768  +6.3591340      9898.53     17730.03     19525.79     79.43136     158.5492     316.4072      1.914     5.61      872.806     55.76637     1150.974        49     1.795     1.128 -48.02   0
       149    923.0768    783.1483 307.5301484  +6.3869512     5331.207     9637.041     11132.17     79.43136     158.2979     316.3757      2.000     5.52     861.7462     55.76637     685.2946        41     1.826     1.117 -41.52   0
       150    878.8663    813.1733 307.5474949  +6.3730744     661.3847     858.1257     420.6401     78.92862     158.1092     316.3128      1.450     4.89     864.6668     55.76637     98.46582         7     1.092     0.620 -81.36   0
       151    127.5015    783.7552 307.8604119  +6.3599269     2541.766     4658.698     5273.978     79.30598     158.1721     316.5959      1.935     5.24     872.6425     55.76637     316.9366        27     1.706     0.973 -41.50   3
       152    127.5209    777.1284 307.8606281  +6.3626630     1714.784     2992.218     3400.448     79.55654     158.4864     316.3443      1.869     5.49     872.5147     55.76637     233.8186        20     1.650     0.825 -48.62   2
       153    678.4667    780.7463 307.6317831  +6.3797331     1601.402     2488.361     2856.864     79.30598     158.1721     316.3128      1.707     5.77     867.1133     55.76637     219.1227        14     1.370     0.684 -50.09   0
       154    565.1573    780.0064 307.6788494  +6.3762289     2023.204     3764.422     4025.336     78.80244     157.9203     316.0925      2.021     5.94     868.4728     55.76637     266.6677        24     1.653     0.986 -39.73   0
       155    412.9484    779.7012 307.7420494  +6.3712307     1049.974     1942.039     2226.919     79.18039      158.235     316.5959      2.145     7.58     870.9806     55.76637     149.3107        17     1.620     0.993 -30.45   0
       156    645.6429    812.0157 307.6443576  +6.3657219     5519.154     9685.987     10609.25     78.80244     158.0462     316.1555      1.898     5.67     868.3242     55.76637     735.4517        37     1.726     1.071 -43.35   0
       157    917.2999    775.1282 307.5328161  +6.3900683     2528.666     4680.232     5307.867      79.0546     158.3608     316.4072      1.896     5.00     861.7896     55.76637     336.3177        27     1.674     0.956 -48.67   0
       158    977.6654    774.4732 307.5077758  +6.3923617     1565.138      2911.26     2989.351     79.43136      158.235     316.3757      1.952     7.00     860.4323     55.76637     215.7017        20     1.656     0.860 -43.17   0
       159    946.7582    774.4774 307.5206075  +6.3913243      2520.25     4377.613      4405.38     79.18039      158.235     316.4386      1.879     5.36     860.9385     55.76637     300.6484        25     1.626     0.958 -48.40   0
       160    669.4034    774.0647 307.6357707  +6.3821868     1242.372     1918.797     2279.105     78.67605     157.9833     316.1555      1.736     6.68     866.8912     55.76637     168.0974        17     1.441     0.870 -52.84   0
       161    816.7603    772.5098 307.5746453  +6.3877771     906.2699     1566.524     1600.364     79.30598     158.1721     316.4072      1.892     6.96     864.7082     55.76637     115.5616        12     1.529     0.888 -32.99   0
       162    892.1303    770.5203 307.5434206  +6.3911266     703.1168     1095.143     1256.354     79.55654     158.4864     316.3443      1.628     5.86      862.762     55.76637     103.5711        10     1.470     0.658 -34.60   0
       163    242.0949    769.2209 307.8133320  +6.3697959     1583.496     2948.256     3974.366     79.18039     158.0462     316.2184      2.283     6.59     872.8251     55.76637     189.8931        18     1.595     0.765 -48.81   0
       164    961.5457    762.7562 307.5148615  +6.3966584     2150.273     4119.301     4954.754     79.30598      158.235     316.3757      2.062     7.00     860.5392     55.76637     263.0039        27     1.907     0.989 -52.84   0
       165    935.0369    765.0480 307.5257905  +6.3948240     968.1458     1882.115      1887.64      79.0546      158.235     316.2813      1.892     6.63      860.915     55.76637     128.9095        17     1.484     1.089 -32.51   0
       166    908.9924    763.4518 307.5366572  +6.3946098     1061.086     1928.885     2303.143     78.80244     158.0462     316.0295      1.994     6.37     861.7806     55.76637     141.2813        16     1.588     0.811 -56.15   0
       167    157.0479    764.1656 307.8488091  +6.3690113     626.6392     799.9243     99.58639      79.0546      158.235     316.3128      1.459     4.68     872.6085     55.76637     122.5082         8     1.231     0.635 -42.25   0
       168    680.9702    761.9873 307.6313750  +6.3875610     846.5155     1732.761     2416.825     78.80244     157.9833     316.2813      2.303     6.10     866.2905     55.76637      132.814        12     1.468     0.712 -46.91   0
       169   1003.3820    755.7606 307.4977266  +6.4009479     1390.986     2346.713     2467.554     78.92863     158.0463     316.1555      1.817     6.71     860.0545     55.76637     195.1128        19     1.570     0.845 -49.69   0
       170    628.9882    756.9471 307.6531259  +6.3878945     389.8653     589.7039      813.692     78.67605     158.1721     316.0925      1.405     3.78     866.9269     55.76637     76.53796         5     0.646     0.636 -87.09   0
       171    804.7077    754.4101 307.5802575  +6.3948442     882.7307     1486.731     1415.602     79.05461     157.8572      316.187      1.802     5.89     864.1638     55.76637       126.64        12     1.547     0.631 -44.47   0
       172    891.1193    751.7652 307.5444702  +6.3988349     1330.236     2711.766     2375.738     79.18039     158.2979     316.4072      1.963     5.95     862.1704     55.76637     162.3229        20     1.592     0.933 -31.49   0
       173    865.5189    747.3494 307.5552473  +6.3997992     820.8673     1529.546     1745.317     79.30598     158.2979     316.3757      2.067     6.45     862.9844     55.76637     126.2793        13     1.408     0.866 -45.60   0
       174    650.8380    746.7018 307.6443995  +6.3928582     687.7009     971.1361      943.521     79.30598     158.1092     316.5959      1.425     5.24     866.1754     55.76637     116.7249         8     1.115     0.946 -27.34   0
       175    847.8296    743.0727 307.5627352  +6.4009713     1329.118     2187.161     1973.239     79.18039      158.235     316.3443      1.726     5.70     863.1198     55.76637     181.4239        15     1.451     0.723 -51.08   0
       176     46.9999    741.7136 307.8952537  +6.3745601     2172.012     3718.034     3650.712     78.54946     157.7311     316.0295      1.813     5.20     871.6977     55.76637     293.5742        23     1.648     0.830 -48.07   0
       177    111.1912    740.1408 307.8686588  +6.3773791     631.1512     1651.203     1546.064     78.67605     158.1092     316.0925      2.344     9.12      871.771     55.76637      94.4389        12     1.877     1.237 -84.69   0
       178    659.6860    730.3615 307.6412761  +6.3999009     5495.237     9648.602     10048.07     79.30598      158.235     316.3757      1.875     5.88      865.408     55.76637     710.4916        37     1.753     1.035 -44.17   0
       179    517.3925    729.8987 307.7003682  +6.3953061     718.3306     1263.879     1333.864      79.0546     157.8572      316.187      1.878     5.38     867.7314     55.76637     93.54236         9     1.335     0.611 -54.47   0
       180    606.5931    729.4927 307.6633482  +6.3984747     1294.068     2220.728     2103.169     78.92863     157.9203      316.187      1.736     6.07     866.7003     55.76637     188.1069        14     1.399     0.740 -45.29   0
       181    122.7469    726.1181 307.8643361  +6.3835580     3368.879     5729.734     6047.489     79.30598      158.235     316.4386      1.852     5.47     871.4566     55.76637     433.3267        25     1.541     0.959 -47.66   0
       182    996.5845    725.7390 307.5015560  +6.4131134     2012.886     3693.499     3822.562     78.80244     158.1721     316.1555      1.873     5.48      859.734     55.76637     230.3409        23     1.626     0.917 -46.11   0
       183    633.5505    725.8880 307.6522776  +6.4008691     1826.099     3165.505     3495.179     79.30597     158.0462     316.5015      1.987     6.79     865.9619     55.76637     265.2769        20     1.781     0.774 -52.25   0
       184    244.8204    726.5490 307.8136428  +6.3875024      506.558     863.0886     960.6982     78.80244     158.2979     316.2184      1.831     2.36     870.5437     55.76637      99.7749         5     0.702     0.457  21.71   0
       185    776.5497    722.4977 307.5930210  +6.4070726     17420.81     29766.92     31327.27     79.18039     158.1721      316.533      1.851     5.55     863.8224     55.76637     2086.061        51     1.767     1.097 -46.30   0
       186    906.6470    722.2786 307.5390135  +6.4115278      3163.06     5679.084     5796.083     79.30598     158.2979     316.3443      1.898     5.67     860.7676     55.76637      402.307        30     1.661     1.025 -45.29   0
       187    475.5429    722.6425 307.7179875  +6.3968926     1112.764     1749.845     1382.912     79.18039     158.1721     316.3757      1.725     6.30     868.3787     55.76637      146.386        14     1.580     0.706 -51.31   0
       188    503.9854    722.5026 307.7061838  +6.3979079     824.7789     1334.537      1307.95     79.18039     157.9833     316.1555      1.712     5.10     867.8582     55.76637      123.801        10     1.522     0.483 -38.11   0
       189    276.6885    723.3024 307.8005223  +6.3899179     512.5415     806.9528       766.76     79.30598     158.6747     316.4072      1.162     3.01     870.4229     55.76637     103.9771         4     0.819     0.324  57.70   2
       190    322.1331    721.7809 307.7817070  +6.3920787     541.5124     996.8394     636.6899     78.92862      158.235     316.2813      1.688     3.96     870.1529     55.76637     109.1689         5     0.960     0.467 -47.27   0
       191    250.0541    715.9522 307.8118282  +6.3920532     5221.229      9468.53     10023.51     79.30598      158.235     316.4386      1.913     5.57     870.2114     55.76637     685.7596        37     1.774     1.036 -47.45   0
       192    657.1284    715.2410 307.6428470  +6.4060568     6112.727     10397.63     11288.15     79.18039      158.235     316.4386      1.841     5.63     865.0797     55.76637     828.6763        34     1.722     0.966 -44.84   0
       193    639.3479    716.3772 307.6501909  +6.4049900     643.5228     1166.388     1522.608     78.80244      158.235     316.2499      1.954     5.02     865.5558     55.76637      113.598         9     1.628     0.438 -53.75   0
       194    352.2526    715.1244 307.7694273  +6.3958421     719.3682     1186.702     883.3544     79.30598     158.2979     316.3757      1.944     6.07     869.6532     55.76637     102.9604         9     1.301     0.797 -54.98   0
       195    916.8270    707.9860 307.5352668  +6.4177692     1143.096     1810.287     1677.084     78.92863     158.0462     316.3128      1.693     6.29     860.1291     55.76637     161.8433        18     1.572     0.818 -51.63   0
       196    728.7248    703.7469 307.6135080  +6.4132071     3184.078     5481.649     6245.364     79.30598      158.235     316.3757      1.849     5.23      864.097     55.76637     419.6097        28     1.671     0.967 -53.00   0
       197    684.1285    704.3743 307.6320027  +6.4114499     814.3776      1434.48     1295.498     78.92862     158.1092     316.3128      1.625     5.01     864.3347     55.76637     143.2901         9     1.335     0.531 -52.35   0
       198    995.1113    700.3237 307.5030204  +6.4235557     7528.202     13578.74     13991.29     79.30598     158.5492     316.4386      1.904     5.51     858.8903     55.76637     959.0399        42     1.779     1.102 -51.37   0
       199    933.4222    700.7377 307.5286198  +6.4213177     1964.586     3674.161     3640.172     78.92863      158.235     316.2813      1.908     5.83     859.5305     55.76637     260.3246        22     1.532     0.941 -38.46   0
       200     14.5877    700.0569 307.9101203  +6.3906590     1637.419      3251.86     4153.271     78.67605     158.1721      316.061      2.103     6.80     871.1786     55.76637     220.9818        19     1.679     0.772 -43.78   0
       201     72.4542    694.9951 307.8862685  +6.3947053     21336.76     37983.06     40770.73     78.67605     157.9833      316.061      1.906     5.48     870.8257     55.76637     2624.674        64     1.894     1.159 -50.36   0
       202    533.8705    696.0163 307.6946690  +6.4098472     1651.725     2733.798     2739.426     78.80244     158.1721     316.2813      1.706     5.93     866.7806     55.76637     222.6648        18     1.540     0.773 -52.69   0
       203    502.2549    693.4543 307.7078816  +6.4098407     1114.896     1747.224     2156.072     79.55655      158.235     316.3757      1.734     5.42        867.3     55.76637     161.4369        12     1.436     0.616 -53.10   0
       204    923.4478    692.3803 307.5330418  +6.4244333     1006.924      1691.17     1677.776     78.80244      158.235      316.187      1.798     6.81     859.6088     55.76637     113.2379        15     1.325     0.981 -52.35   0
       205    542.4266    689.6247 307.6913321  +6.4127736     917.4544     1649.457     1420.783     78.80244     158.0463     316.2499      1.750     7.29     866.5326     55.76637     119.7375        17     1.835     0.811 -51.04   0
       206    718.3588    687.4178 307.6183612  +6.4195996     3089.541     5127.788      5686.82     78.80244     158.0463     316.1555      1.805     5.07     863.6652     55.76637     370.0054        25     1.519     0.989 -40.92   0
       207    740.4175    685.6171 307.6092631  +6.4210839      3488.15     5853.581     5909.606     79.05461     157.9203     316.3128      1.798     5.44     863.4844     55.76637     465.8473        27     1.705     0.873 -47.66   0
       208    571.9955    683.5256 307.6792610  +6.4162862     2864.466     4699.424     4696.708     78.92862     157.7311     316.2813      1.794     5.33     865.9502     55.76637     364.1012        22     1.558     0.838 -46.33   0
       209    408.1254    684.0640 307.7472790  +6.4105468     1329.582     2172.647     2067.371     79.43136      158.235     316.3443      1.821     6.18      868.155     55.76637     163.2997        15     1.530     0.702 -43.23   0
       210   1013.3319    681.8746 307.4960740  +6.4317820      4098.59     7355.175     7793.749     79.43136     158.3608     316.3757      1.911     5.08      858.051     55.76637     511.0543        32     1.724     1.004 -46.10  16
       211    315.9937    682.4594 307.7855840  +6.4081033     1133.248     2107.298     1985.699     78.67605     158.1092     316.1555      1.914     6.79     868.8162     55.76637     170.4267        14     1.474     0.878 -38.93   0
       212    232.3815    683.0760 307.8202765  +6.4050277     1470.018     2411.019     2299.304     78.80244     157.9833     316.3443      1.772     5.62     869.2147     55.76637     182.7618        15     1.406     0.754 -46.57   0
       213    978.8239    680.7021 307.5104414  +6.4311100     7015.924     12283.74     13441.85     79.43136     157.9833     316.2184      1.891     5.40     858.4919     55.76637     842.3582        38     1.752     1.033 -43.50   0
       214    532.7674    681.0225 307.6956324  +6.4159996     514.0893     847.8691     924.9145     78.80244     158.0462     316.1555      1.743     5.01     866.5314     55.76637     64.83807         5     1.171     0.607 -10.86   0
       215    698.8844    679.2150 307.6267229  +6.4223315     821.5312     1418.325     1362.519     78.92862     157.9833     316.2813      1.857     5.88     863.5623     55.76637     102.0129        11     1.338     0.727 -25.26   0
       216    424.0674    674.9924 307.7409664  +6.4148286     2385.242     4480.245      5291.68     78.80244     157.9833     316.2184      2.023     5.67     867.8217     55.76637     349.0615        26     1.761     0.906 -52.68   0
       217    137.2035    673.9329 307.8601003  +6.4055877     20294.12     36134.42      38760.4     78.67605     157.9203     316.1555      1.893     5.45     869.8539     55.76637     2668.193        60     1.856     1.144 -47.49   0
       218    805.6061    674.5968 307.5825674  +6.4278217     1088.545       1722.7     2106.921     78.67606     157.9203     316.2499      1.987     6.39     862.5601     55.76637     132.1523        14     1.436     0.798 -42.17   0
       219    356.3779    670.1719 307.7692325  +6.4145372     463.0797     824.7554     1037.875     78.80244     158.0462     316.2813      1.760     3.47     867.8181     55.76637     100.1229         5     1.167     0.297 -35.42   0
       220    973.7299    663.7130 307.5131266  +6.4379526     5648.492     10884.29     11988.96     79.43136     158.4864     316.4072      2.051     4.98     858.0683     55.76637     725.3627        45     1.665     1.370 -42.65   0
       221     18.6237    662.6753 307.9097111  +6.4062260     911.0314     1807.776     1862.113     78.92863     158.1092     316.3128      2.057     6.08     870.7447     55.76637     111.2301        13     1.663     0.624 -44.88   0
       222    567.2370    658.8303 307.6820688  +6.4263203     41419.09     72061.45     76536.88     78.92862     157.9833     316.2184      1.858     5.42     865.3504     55.76637     5812.195        74     1.844     1.170 -48.03   0
       223    526.9276    658.8945 307.6988029  +6.4249374     717.2638     1088.518     575.5372     79.18039     158.2979     316.4072      1.553     5.53      865.973     55.76637     86.85181        10     1.110     0.777 -52.22   0
       224    174.6751    655.4847 307.8451675  +6.4144686     2450.168     4000.942     4141.737     79.43136     158.5492     316.4386      1.777     5.75     869.1593     55.76637     297.9043        21     1.574     0.852 -45.98   0
       225    497.0394    655.8376 307.7113154  +6.4251932     634.3955     1014.199     905.5474      79.0546     158.1721     316.2499      1.585     4.62     866.2513     55.76637     89.12061         8     1.127     0.538 -54.46   0
       226     67.3251    649.9158 307.8899243  +6.4131399     1104.087     1956.654     2159.686     79.43136     158.5492     316.4386      2.010     6.71     870.2454     55.76637     165.4558        16     1.721     0.734 -56.56   0
       227    464.4803    642.5957 307.7252804  +6.4295631     53413.26     92697.87     99780.27     78.92863     157.7942      316.124      1.880     5.37      865.975     55.76637     6436.797        88     1.904     1.226 -48.40   0
       228      7.8800    644.3450 307.9147925  +6.4134289     1462.362     2725.609     3003.656     79.43136      158.235     314.3878      2.026     6.68      870.795     55.76637     190.5035        18     1.872     0.670 -53.36  16
       229    648.7571    640.6460 307.6488341  +6.4365682      519.938     1074.439     1095.417     79.30598      158.235     316.3128      1.923     2.20     863.6154     55.76637      116.259         4     0.639     0.460   0.22   2
       230    139.0569    637.5616 307.8605616  +6.4206638      1266.93     2189.335     1994.936     79.30597     158.2979     316.3757      1.793     6.42     869.3406     55.76637     182.3585        15     1.650     0.700 -50.25   0
       231    935.2946    634.3176 307.5300724  +6.4487991     452.6706     840.7546     1408.666     79.05461     158.5492     316.5015      2.430     4.58     858.1326     55.76637     100.0311         5     1.182     0.503  -3.04   2
       232    417.1104    636.2889 307.7451609  +6.4305708     683.4979     1014.517     1531.514      79.0546     158.7374     316.4701      1.772     3.44     865.9509     55.76637     106.9142         5     0.996     0.344 -42.53   0
       233    309.8324    631.9738 307.7898476  +6.4287355     1925.393     3285.682     3823.932     78.80244     157.9833     316.2184      1.876     4.90     867.0049     55.76637     254.9623        23     1.617     0.909 -55.68   0
       234    610.2139    634.1276 307.6650570  +6.4379631     580.5621     1045.199     448.4297     78.80244     157.9833     316.2184      1.440     4.13     863.8815     55.76637     99.81024         6     1.222     0.399 -29.20   0
       235    461.7175    630.8215 307.7268246  +6.4343303     777.1946     1337.385     1624.648      79.0546     157.9203     316.2813      1.884     5.51     865.4156     55.76637     101.6748        11     1.587     0.539 -43.35   0
       236    736.4854    626.3091 307.6128909  +6.4454343     4463.075       7580.8     7833.569     79.05461     158.6747     316.5015      1.809     5.84     862.7787     55.76637     585.1926        31     1.672     0.946 -49.76   0
       237    790.0905    621.3857 307.5907987  +6.4492667     11911.11     20566.04     22223.45      79.0546     158.0462     316.2184      1.852     5.54     861.0015     55.76637     1540.935        49     1.796     1.082 -49.40   0
       238   1007.1727    622.3129 307.5006298  +6.4561632     990.3697     1613.264     1060.522     79.43136     157.9833     316.2499      1.784     7.16     855.9243     55.76637     148.7784        14     1.586     0.906 -27.32   0
       239    532.4662    621.4053 307.6977671  +6.4405992     1042.766     1923.124     2335.487     78.80244     157.9203      316.187      2.079     6.93     864.5472     55.76637     171.2437        15     1.525     0.883 -59.47   0
       240    613.9409    619.6164 307.6639983  +6.4440787     2339.869     4182.677     4506.899     78.80244     158.1092      316.124      1.948     5.40     863.4534     55.76637     315.7571        25     1.705     0.885 -48.24   0
       241    930.7704    615.6971 307.5325762  +6.4563341     958.1021      1864.88     2507.052     79.43136     157.9833     316.4072      2.292     6.84     857.8695     55.76637     124.7888        14     1.651     0.794 -47.25   0
       242    225.3932    614.2875 307.8255036  +6.4331869     841.9991      1068.99     1563.695     78.80244     157.9203      316.124      1.351     3.56       867.67     55.76637     149.9663         7     0.878     0.640 -28.78   3
       243    227.0017    612.0000 307.8249131  +6.4341854     857.5919     1555.675     1987.354     78.54946     157.7311      316.061      1.654     3.38     867.5962     55.76637       131.73         8     0.978     0.640  10.53   3
       244    372.5900    612.9164 307.7644346  +6.4387184     735.4038     1174.947     1153.055     78.92862     157.9203     316.2184      1.503     4.62     865.2632     55.76637     108.3318         8     1.112     0.546 -34.23   0
       245    866.1147    604.7756 307.5597899  +6.4586745     2388.202     4096.184     4517.095     79.30597     157.9833     316.2184      1.813     6.33     858.9455     55.76637     301.1887        23     1.599     0.880 -50.35   0
       246    160.5041    604.9803 307.8527596  +6.4348375      587.386     1066.129     1083.787     79.18039     158.0462      316.187      1.834     4.95     868.5675     55.76637     81.36298         6     1.065     0.651 -37.82   0
       247    824.8077    602.2703 307.5770259  +6.4583228     2209.189      3840.15     4263.108     78.80244     157.8572     316.2813      1.800     5.42     859.6249     55.76637     328.0931        23     1.648     0.837 -41.20   0
       248    252.8327    597.1226 307.8146912  +6.4411985     6537.655     11401.43     12419.21     79.18039      158.235     316.3128      1.877     5.41     866.6959     55.76637     847.5129        36     1.763     0.980 -47.44   0
       249    805.3397    593.3973 307.5854079  +6.4613323     134852.6     233414.7     250971.8     78.67605     157.9833     316.0925      1.876     5.57     859.8232     55.76637     16869.97       157     2.270     1.334 -38.65   0
       250    738.5744    598.3661 307.6129636  +6.4570394     681.9755     1143.622     1863.767     78.67606     157.9833     316.1555      1.921     6.25       862.15     55.76637      89.2334         9     1.219     0.900 -48.98   0
       251    187.0807    591.5190 307.8421806  +6.4412918     49596.27     88120.66     96277.12     79.30597     158.4864     316.5015      1.924     5.13      867.777     55.76637       5925.9        96     1.959     1.287 -48.20   0
       252    976.3693    585.5566 307.5146539  +6.4703046     1194.864     2148.816     2322.006     78.92863     158.1721     316.2499      1.821     6.33     855.7877     55.76637     171.0331        15     1.754     0.642 -62.79   0
       253    111.0138    587.8011 307.8738888  +6.4402566     5302.124      9433.12      9927.19     78.92862     157.9203     316.1555      1.853     5.02     868.8317     55.76637     674.5689        33     1.687     1.024 -47.81   0
       254    997.4510    584.0558 307.5059502  +6.4716304     635.9345     877.6316     816.5895     79.30597      158.235     316.3443      1.531     4.34     855.1556     55.76637      118.282         6     1.383     0.388 -23.19   0
       255    225.6826    583.4762 307.8264252  +6.4459152     715.7645     1317.677     1551.586     79.43136     158.5492     316.5015      2.048     5.80     866.6372     55.76637      97.4967        11     1.376     0.689 -46.42   0
       256    841.9323    580.6738 307.5706412  +6.4678126     3872.939     6693.719     6844.883     79.43136     158.3608     316.3443      1.857     5.33     858.9221     55.76637     534.1121        28     1.658     0.936 -46.66   0
       257    360.5328    578.6935 307.7705964  +6.4524388     14347.71     25651.54     27959.76     79.18039     158.4236     316.4072      1.933     5.27     864.0636     55.76637     1650.281        53     1.807     1.160 -48.75   0
       258    450.7115    578.5054 307.7331593  +6.4555555     579.2081     1009.339      1197.24     79.30598     158.6747     316.4386      1.992     5.58     863.5229     55.76637     93.75879         9     1.687     0.519 -39.57   0
       259    162.5569    577.4536 307.8528387  +6.4462694     1594.519     3101.592     3887.476     79.30598      158.235     316.3757      2.580     6.42     868.0062     55.76637     200.4418        28     2.004     1.081 -37.52   0
       260    237.5819    575.6133 307.8217505  +6.4495625     818.6636     1519.797     2061.013     79.05461     157.9203     316.2813      2.308     6.28     866.2137     55.76637     105.2541        11     1.362     0.813 -64.92   0
       261    796.0280    574.0124 307.5899262  +6.4690219     4904.346     8625.879     9256.021     78.80244     158.0462     316.2813      1.890     6.24     859.6946     55.76637     752.4976        32     1.769     0.918 -47.71   0
       262    526.8415    573.6328 307.7017131  +6.4601303     5584.018     9777.466     10493.57      79.0546      158.235     316.2499      1.894     5.91     862.7675     55.76637     724.5249        35     1.739     0.997 -47.14   0
       263     99.1712    575.0114 307.8792387  +6.4451357      695.721     1126.497     972.2248     78.80244     158.0462     316.2184      1.621     3.92     868.6227     55.76637     140.8947         6     1.006     0.437 -43.35   0
       264    385.2221    570.1633 307.7606331  +6.4567923     1194.128     2107.788     2552.339     78.92862     157.9833     316.1555      1.878     6.38     863.5621     55.76637     168.0125        13     1.551     0.738 -40.72   0
       265    571.4606    566.7523 307.6834181  +6.4644720     2109.758     3616.783     4024.017     79.30598     158.1721     316.4386      1.905     5.39     862.0359     55.76637      305.016        26     1.988     0.815 -44.03   0
       266    173.8345    566.6685 307.8485211  +6.4511023     5666.748     10510.39     11851.68     79.18039     158.2979     316.4701      1.992     5.46      867.512     55.76637     703.3687        39     1.757     1.120 -52.86   0
       267    269.1149    563.1533 307.8090790  +6.4557701     71778.94     129552.2     139568.3     79.30597     158.1721     316.3757      1.931     5.31     865.3284     55.76637     8994.574       107     1.960     1.291 -48.55   0
       268     45.5016    565.3411 307.9018495  +6.4473127     4127.362     7670.905     8017.647     79.05461     158.1721     316.5015      1.956     5.31     869.8345     55.76637      495.615        38     1.830     1.119 -51.68   0
       269    812.6856    566.2030 307.5832719  +6.4728047     1254.408     2200.638     2651.594     78.67605     157.8572     316.0925      1.947     5.98     859.1889     55.76637     151.5132        17     1.680     0.688 -40.78   0
       270    558.3976    561.0668 307.6890338  +6.4663795      808.119     1504.246     2130.686     78.67605     157.9203     316.1555      2.391     5.97     861.9023     55.76637     133.5248        13     1.774     0.565 -45.68   0
       271    792.2141    555.7827 307.5921229  +6.4764191     13661.44     23843.75     25590.82      79.0546     157.9203     316.3128      1.873     5.61     859.4312     55.76637     1956.698        51     1.754     1.128 -49.54   0
       272    252.8149    558.3837 307.8160082  +6.4571889     1186.978     2058.214      2573.37      79.0546     157.9203     316.3128      2.034     5.84     865.3868     55.76637     166.6981        15     1.540     0.719 -56.05   0
       273    968.5680    557.0406 307.5188505  +6.4818148      1511.87     2538.219     2626.547     78.92862     158.1092     316.2499      1.846     6.11     855.2226     55.76637     201.6417        17     1.448     0.798 -43.77   0
       274    495.8685    554.0408 307.7152345  +6.4671751     33090.36     64441.53     70726.55     79.18039      158.235     316.4701      2.076     5.07     862.4726     55.76637      4011.86        86     1.988     1.392 -42.65   0
       275    646.3016    552.8018 307.6528117  +6.4727478     643.3371     1198.235     1865.602     78.80244     157.9833      316.061      2.224     5.32     861.0612     55.76637     92.59583        10     1.492     0.537 -45.28   0
       276    208.3406    550.3524 307.8347459  +6.4590027     1661.758     2973.346     4270.669     79.30598      158.235     316.4701      2.262     5.96     866.0442     55.76637     210.6989        20     1.622     0.962 -49.92   0
       277     44.0436    550.7324 307.9029497  +6.4532936     1162.667     1683.396     1555.021     79.30598     158.1721     316.4072      1.668     5.49     869.7785     55.76637      159.611        14     1.487     0.664 -38.92   0
       278    655.8171    548.9835 307.6489891  +6.4746439     2507.896     4562.431      5369.98      79.0546     157.9203     316.3128      2.026     5.56     860.8713     55.76637     385.4905        27     1.753     0.967 -49.69   0
       279    665.8566    549.0566 307.6448179  +6.4749511     1075.018      2006.33     2333.172     79.55655      158.235     316.4386      1.954     6.48     860.8275     55.76637      123.692        14     1.581     0.746 -52.12   0
       280    718.0303    547.7770 307.6231964  +6.4772326     1036.366     1994.439     1979.682     78.67605     157.9833     316.2184      1.937     6.59      860.433     55.76637     139.8148        14     1.470     0.829 -46.37   0
       281     73.9664    546.9620 307.8906535  +6.4558618     603.9651     1195.848     1717.243      79.0546     158.0462     316.1555      2.212     6.03     868.6942     55.76637     120.5741         7     1.199     0.852 -81.73   0
       282    393.3756    544.8928 307.7581008  +6.4674986     1578.382     2610.548     2233.662     79.43136     157.9833     316.2184      1.753     5.29     862.6503     55.76637     207.9791        17     1.487     0.761 -47.10   0
       283    140.1956    541.5325 307.8633387  +6.4603416     21559.18     38227.37     40806.82     78.67605     157.9203     316.1555      1.892     5.21     867.5182     55.76637     2655.964        64     1.841     1.201 -49.18   0
       284    504.8433    542.5423 307.7118957  +6.4722238     1795.561     3263.727     3837.219     79.18039     158.1721     316.4072      1.967     5.59     861.9577     55.76637     242.0657        21     1.600     0.851 -47.58   0
       285    324.9718    542.9368 307.7865696  +6.4659997     3180.481     5689.475     6052.259     78.92863      158.235     316.3128      1.881     5.45     863.4753     55.76637     398.6909        24     1.560     0.943 -45.23   0
       286    868.1981    541.6849 307.5610448  +6.4847885     1451.056     2438.036     2469.611     78.67605     157.8572      316.061      1.734     6.60     857.6081     55.76637     208.6361        18     1.544     0.792 -45.87   0
       287    105.4170    539.5820 307.8778450  +6.4599714     2110.404     3982.918     4349.487     79.05461     157.9203     316.3128      2.150     6.04     867.7463     55.76637     264.1494        25     1.832     0.931 -45.09   0
       288    965.7932    536.1356 307.5207045  +6.4903515     4351.299     7517.908     8286.811     78.80244     157.9833     316.1555      1.858     5.72     854.7819     55.76637     636.6796        31     1.694     0.966 -52.86   0
       289    342.5663    538.1859 307.7794245  +6.4685542     967.7001     1648.003     2352.948     78.92863     157.9833     316.2499      1.741     6.51     862.9348     55.76637     138.0042        15     1.569     0.759 -37.38   0
       290    539.0145    528.7718 307.6981709  +6.4790585     1218.126     1908.027     2457.211     78.92862     158.0462     316.2813      1.767     5.64     861.0302     55.76637     179.5084        13     1.509     0.593 -42.81   0
       291      4.4941    525.8678 307.9202131  +6.4622193     20884.95     37299.12     39910.82     79.18039     158.4236     283.6705      1.914     5.06     870.5145     55.76637     2400.837        62     1.827     1.204 -49.31  24
       292    437.1989    522.6785 307.7406539  +6.4781453      35399.2     63317.23     67941.38     78.54946      157.668      316.187      1.902     5.41     861.7388     55.76637     4575.886        76     1.885     1.216 -47.91   0
       293    645.2266    522.4252 307.6542811  +6.4852511     10248.48     17695.98     18512.03     78.80244     158.0463     316.2184      1.842     5.42     860.0298     55.76637     1240.081        43     1.792     1.032 -47.83   0
       294    285.1497    523.1870 307.8037719  +6.4728089     745.9019     1489.586     1918.272     78.67605     158.1721     316.0925      1.989     5.71     863.8244     55.76637     111.4772        10     1.680     0.546 -48.89   0
       295    202.3974    520.2507 307.8382317  +6.4712276     15777.83     29813.71     32028.31     78.67605     157.8572     315.9666      1.987     4.92     865.4896     55.76637     1811.102        63     1.823     1.346 -48.65   0
       296    979.1761    520.8660 307.5156597  +6.4971034     980.2639      1672.43     1783.906     78.92862      158.235     316.3128      1.824     6.11     854.1627     55.76637     140.0657        14     1.546     0.678 -45.90   0
       297    819.5929    520.0725 307.5819546  +6.4920794     758.9758     1241.119     1081.062     78.92862     157.7942     316.2813      1.744     5.58     857.8782     55.76637     116.9216        11     1.509     0.583 -51.48   0
       298    567.0804    519.2053 307.6868393  +6.4839520      2328.89     4109.087     4003.112     78.92862     157.7942     316.1555      1.799     5.19     860.6262     55.76637     313.2683        25     1.593     0.975 -41.51   0
       299    940.9532    516.5098 307.5316785  +6.4976206     4037.713     6873.405     6731.774     79.30597     158.1092     316.5015      1.799     5.70     854.9143     55.76637     544.1063        28     1.633     0.951 -43.60   0
       300    613.8857    514.8571 307.6675502  +6.4873213      5409.41     9510.724     10285.29     79.30597      158.235      316.533      1.852     5.69     860.2893     55.76637     771.9304        32     1.706     0.960 -47.45   0
       301    101.5064    515.5208 307.8802834  +6.4697713     920.7429     1604.916     1994.247     79.05461     158.4236     316.4386      1.931     6.33     867.5987     55.76637     119.8442        12     1.344     0.954 -52.59   0
       302    963.6017    508.5718 307.5225399  +6.5016566     2866.433     5004.463     4855.486     78.80244     157.9833     316.1555      1.856     7.35     854.2314     55.76637     378.7994        26     1.671     0.905 -52.29   0
       303    526.1927    506.1244 307.7042586  +6.4879757     6226.504     11093.57     11694.78     78.92862     157.7311     316.2184      1.865     5.02     860.5562     55.76637     831.4742        37     1.716     1.040 -48.94   0
       304    402.4055    507.4767 307.7556145  +6.4832481     651.0825     947.0784     1121.509     78.92863     157.7311     316.2184      1.594     5.78     861.5222     55.76637      105.863         8     1.385     0.680 -50.61   0
       305    372.2840    506.3749 307.7681592  +6.4826875     2146.274      3611.53     3676.065     79.18039     157.9833     316.3443      1.808     5.31     862.0082     55.76637     253.9327        20     1.559     0.832 -45.11   0
       306    882.7522    502.1232 307.5563304  +6.5016080     2675.295     4843.961     5423.919     79.18039     158.2979     316.3443      1.943     5.68     856.0059     55.76637     383.0392        29     1.666     1.006 -48.27   0
       307    168.0311    521.3359 307.8524645  +6.4696189     1272.882     2174.538      2117.75      79.0546     158.2979     316.3128      1.863     6.61     866.4634     55.76637     163.1368        18     1.688     0.726 -45.51   0
       308    889.9255    496.5230 307.5535397  +6.5041603     1884.595     3374.868     3690.657     79.55654     158.4864     316.4386      1.873     5.17      855.683     55.76637     278.6107        22     1.703     0.825 -48.89   1
       309    929.4417    495.7233 307.5371569  +6.5058155     989.9977     1418.125     1233.935     79.18039      158.235     316.4072      1.680     5.13     854.6644     55.76637     144.7512        11     1.447     0.515 -50.60   0
       310    109.2725    495.8228 307.8777257  +6.4781647     579.7039     1135.195     1037.433     78.92862     158.0463     316.3443      2.000     5.19     867.2608     55.76637     85.64423         7     1.308     0.583 -46.87   0
       311    714.0849    492.0731 307.6267094  +6.5000947     2479.375     4218.937     4432.702     79.43136     158.5492     316.4072      1.839     5.90     858.2915     55.76637     325.6877        22     1.675     0.838 -54.16   0
       312    425.3190    490.7944 307.7466630  +6.4909065      779.739     1263.067     1557.117     78.92863     157.7942      316.124      2.061     4.79     860.6617     55.76637      115.873         9     1.474     0.442 -55.15   0
       313    384.9230    490.4245 307.7634496  +6.4896978     2984.485     5484.146     5951.183     78.92862     158.1092     316.3443      1.933     5.20     861.4202     55.76637     346.9973        27     1.640     0.962 -49.06   0
       314     75.9895    491.1602 307.8917034  +6.4789642     1551.109     2900.688     3192.302     78.67605     158.0462      316.124      2.087     5.51     867.9669     55.76637     214.2896        21     1.514     1.008 -42.84   0
       315    612.6940    487.0673 307.6689813  +6.4987528     8186.306     14628.45     16012.46     79.18039     158.4236     316.4072      1.914     5.82     859.7308     55.76637     1145.889        41     1.739     1.067 -49.15   0
       316    775.6680    483.3177 307.6014309  +6.5057774     13476.92      24263.1     27646.46     79.43136     158.4864     316.4072      2.012     7.05     857.3843     55.76637     1823.595        64     2.356     1.079 -48.58   0
       317    295.1597    483.8900 307.8009437  +6.4893680     2251.983     3962.205     3697.752     79.30597      158.235     316.4072      1.809     5.00     862.4321     55.76637     285.6862        24     1.598     0.962 -41.54   0
       318    419.0267    483.6468 307.7495171  +6.4936450     588.3893     868.9906     1101.477     78.92862     158.2979     316.2813      1.854     5.54     860.4625     55.76637     97.76727         6     1.395     0.620 -41.25   0
       319    804.4404    480.9117 307.5895636  +6.5077365     1100.841     1890.947     2384.631     79.30597     158.1721     316.4072      2.189     6.36     856.9283     55.76637     151.7019        15     1.415     0.802 -44.80   0
       320    378.1202    480.5317 307.7666085  +6.4935521     1386.274     2203.457     2928.888     79.43136     158.4864     316.3443      1.787     4.87     861.3988     55.76637     170.3801        16     1.385     0.791 -45.54   0
       321    960.5775    478.6646 307.5247999  +6.5139011     1706.963     2805.812     2655.632     78.92863      158.235     316.2499      1.788     5.54     853.5999     55.76637     218.8295        17     1.577     0.730 -52.43   0
       322    112.7652    475.4124 307.8769665  +6.4867079     3815.651     6863.393     7538.976     78.80244     158.0463     316.2184      1.922     5.02     866.7336     55.76637     464.2985        30     1.605     1.031 -46.35   0
       323    750.9678    474.5183 307.6119840  +6.5085803     1779.234     2946.879     2962.825     79.18039     158.1721     316.3128      1.742     5.51      857.496     55.76637     262.6765        18     1.634     0.719 -51.90   0
       324   1014.7200    473.3953 307.5024927  +6.5178903     3275.365     6561.126     6823.439     78.92863     157.7942      316.124      2.060     5.34     852.1699     55.76637     327.4171        35     1.653     1.273 -35.79  16
       325    270.5749    472.3076 307.8115437  +6.4933195     1199.483      2003.04     2609.321     79.43136     157.9833     316.2184      2.010     6.49     862.4756     55.76637     157.6933        15     1.449     0.816 -40.11   0
       326    348.8772    470.3106 307.7790967  +6.4967853     2592.669      4604.22     4461.942     79.30597     158.4864     316.4386      1.871     4.83     861.5947     55.76637     364.7707        26     1.668     0.981 -52.08   0
       327    704.6728    468.1694 307.6314225  +6.5096459     1450.347     2548.562     2665.758     79.18039      158.235     316.3757      1.837     6.43     857.5518     55.76637     217.7274        16     1.488     0.803 -60.72   0
       328    979.9083    465.5272 307.5172133  +6.5199721     568.8037       1234.4     1578.117     79.18039     158.3608     316.4072      1.848     3.53     852.6606     55.76637     133.4561         5     1.005     0.358 -43.95   2
       329    236.7372    465.8569 307.8258125  +6.4948401     588.6215     1089.124     1011.109     79.43136     158.1721     316.4072      1.631     4.77     863.2689     55.76637     78.71362         7     1.262     0.512 -43.46   0
       330    546.1143    460.7281 307.6975168  +6.5073856      878.798     1399.632     1494.703     79.43136     158.4864     316.4072      1.562     5.15     858.6915     55.76637     117.6897         9     1.267     0.590 -45.76   0
       331    468.4041    458.9093 307.7298480  +6.5055200     1020.317     1875.871     2019.896     78.80244     157.9203     316.0925      1.813     6.14     858.8443     55.76637     172.8328        17     1.764     0.670 -45.99   0
       332    830.8561    458.1162 307.5793604  +6.5180331     1185.276     1957.117      2066.32     79.30597      158.235     316.4701      1.804     6.19     855.6229     55.76637     170.4872        15     1.552     0.693 -46.53   0
       333    816.6196    457.1649 307.5853044  +6.5179480     1627.614     2866.552     2634.424     78.80244     158.0462     316.1555      1.789     6.32     855.8915     55.76637     236.7258        19     1.651     0.783 -51.44   0
       334    713.8699    455.2748 307.6280373  +6.5152778     12671.81     21778.85     23550.39     79.43136     158.3608     316.3443      1.842     5.58     857.2219     55.76637     1745.505        45     1.803     1.019 -48.29   0
       335    634.8823    451.3546 307.6609704  +6.5142411     2158.709     3734.886     4381.366     79.30597      158.235     316.3757      1.821     5.81     857.7188     55.76637     281.4668        22     1.607     0.851 -48.78   0
       336    609.9638    448.5120 307.6714141  +6.5145766     4443.115     7731.562     8676.758     79.30597     158.1092     316.3757      1.864     5.35     857.9874     55.76637     601.3768        25     1.690     0.864 -45.01   3
       337    606.2108    445.8679 307.6730617  +6.5155418     12084.93     22000.28     24353.13     78.80244     158.0462     316.2184      1.954     5.12     857.8394     55.76637     1540.598        53     1.842     1.219 -45.00   3
       338    939.0848    445.2592 307.5348471  +6.5269706     3293.072     5639.365     6269.247     79.30598     158.2979     316.4701      1.865     5.80     853.1147     55.76637     425.7286        24     1.525     0.945 -51.05   0
       339    378.3315    441.0947 307.7678526  +6.5098385     23813.03     42620.48     46194.24     79.18039     158.3608     316.4072      1.908     5.10       859.71     55.76637     2820.168        67     1.860     1.220 -49.24   0
       340    414.9782    443.0421 307.7525690  +6.5102699     537.2204     742.0695     290.2325     78.92863     158.1092      316.187      1.505     3.78     858.8895     55.76637     93.78778         5     1.076     0.382 -34.63   0
       341    894.8608    440.8051 307.5533623  +6.5273265     1179.617     2333.389     3088.853     78.80244     158.1092     316.1555      2.265     5.70     853.7977     55.76637     189.5692        17     1.594     0.907 -61.35   0
       342    124.4176    440.6912 307.8733036  +6.5014340     1892.561     3386.955     3642.891     79.05461     157.9833     316.2813      1.883     6.16     865.1202     55.76637     215.4248        22     1.674     0.883 -47.24   0
       343    907.9435    435.7237 307.5481000  +6.5298628     4290.008     7128.041      6771.35     79.30598     158.1721     316.3443      1.775     5.34     853.4791     55.76637     572.5369        28     1.616     0.926 -46.86   0
       344     57.7563    436.2878 307.9011330  +6.5009979     1226.675     2519.406     2987.907     79.30598     158.1092     316.4072      2.126     6.63     866.9608     55.76637      154.078        18     1.688     0.859 -53.46   0
       345    963.8807    433.5044 307.5249445  +6.5326542     650.2615     1296.517     955.4506      79.0546     158.4864     316.4701      1.970     4.65     851.8896     55.76637     115.8829         8     1.392     0.441 -49.57   0
       346    235.8382    431.6107 307.8273440  +6.5089461     11609.73     20771.05     21797.71     78.67605     158.0462     316.0925      1.882     5.17     862.1133     55.76637      1420.02        46     1.798     1.108 -47.21   0
       347     71.6741    426.3280 307.8956912  +6.5055797      687.416     1331.406     1743.664     79.55655     158.3608     316.4072      2.241     6.35       866.16     55.76637     92.07593        10     1.376     0.823 -20.03   0
       348    731.1093    425.3926 307.6218839  +6.5281924     740.6968     1081.938      1510.42     78.92862     157.9203      316.187      1.620     5.85     856.4775     55.76637     115.8024         9     1.282     0.783 -73.14   0
       349    698.6159    425.3360 307.6353797  +6.5271240     608.0567     1093.288     1150.164     78.80244     158.1092     316.2499      2.187     4.30     856.4822     55.76637     91.14453         6     1.391     0.379 -40.57   0
       350    959.2905    424.1686 307.5271642  +6.5363542     899.1014      1550.93     1266.793     79.43136     158.0462     316.3757      1.712     5.91     851.7263     55.76637      112.473        13     1.347     0.730 -63.69   0
       351    136.0190    420.2652 307.8691777  +6.5102576     4018.036     7549.279     8200.102     78.92862      158.235     316.2499      1.997     5.08      864.088     55.76637     491.8748        35     1.781     1.055 -54.29   0
       352    348.7478    421.3368 307.7808048  +6.5169969       996.04     1778.473     2008.302     79.30598     158.1721     316.3443      2.015     6.85     859.4563     55.76637     142.0562        15     1.758     0.748 -55.35   0
       353    181.6404    421.2308 307.8502008  +6.5114004     660.0015     1150.072     1593.269     78.80244     158.0462     316.2499      1.711     4.74     863.1149     55.76637     108.4529         8     1.684     0.379 -39.10   0
       354    240.7942    419.5697 307.8256932  +6.5140838     1111.586     1931.445     1894.308     78.80244     158.0462     316.1555      1.894     5.37     861.4866     55.76637     173.8626        11     1.381     0.602 -39.53   0
       355    821.7911    417.3635 307.5844951  +6.5345517     657.8469      1212.53     1321.925     78.80244     157.9833     316.1555      1.832     4.33     854.4137     55.76637     91.96881         7     1.263     0.423 -41.13   0
       356    158.1892    416.0765 307.8601133  +6.5127358     1908.775      3714.19     3914.709     78.92862     157.8572     316.2184      2.033     6.41     863.5054     55.76637     238.5278        24     1.709     1.010 -55.69   0
       357    553.7489    415.6151 307.6958673  +6.5262650     782.6213     1250.781     1137.389     78.67605      158.235      316.124      1.709     4.93     856.1212     55.76637      107.382        12     1.288     0.707 -41.33   0
       358    969.8237    410.9348 307.5232342  +6.5421702     849.0455     1839.788     1805.012     78.92862      158.235     316.3128      2.587     7.07     850.7558     55.76637     131.8972        16     2.017     0.694 -51.23   0
       359    381.6242    410.8155 307.7675078  +6.5224485     1750.529     3129.953     3668.539      79.0546     158.0462     316.3128      1.991     5.16     858.2281     55.76637     228.9207        23     1.685     0.872 -49.39   0
       360    269.8083    411.4818 307.8139183  +6.5184017     602.5718     916.5365     1174.255     78.92863     157.8572     316.2499      1.865     5.15     860.0016     55.76637     91.63269         8     1.497     0.500 -45.02   0
       361    435.4405    404.6281 307.7453684  +6.5268164     6312.888     11087.56     12231.58     78.92863     158.0463     316.2184      1.882     5.04     856.8007     55.76637     727.4856        36     1.716     1.040 -49.04   0
       362     31.9726    404.8955 307.9129030  +6.5130837     2745.008     5007.775     5578.063     79.43136     157.9833     316.2813      2.025     7.27     867.0526     55.76637     343.1573        31     2.052     0.905 -50.38   0
       363    768.0781    403.6805 307.6072618  +6.5383968     1726.586     2915.362      3378.64     79.55655     158.4864      316.533      1.928     5.83     855.2291     55.76637     207.9797        18     1.490     0.809 -36.85   1
       364    776.0881    401.8329 307.6039975  +6.5394285     10768.57     18951.65     20470.76     79.43136     158.1721     316.3757      1.864     5.68     855.0217     55.76637     1604.689        48     1.787     1.094 -48.06   0
       365    339.2661    400.2929 307.7854532  +6.5253638     852.7121     1470.213     1136.209     79.18039     158.4236     316.3757      1.837     5.65     858.3241     55.76637     109.3114        11     1.236     0.728 -36.11   0
       366   1019.9194    397.1914 307.5028907  +6.5495219     2956.141     5359.144     6111.004     78.92862     157.8572     290.3281      1.890     5.88     848.0449     55.76637     426.8832        30     1.777     0.996 -50.82  24
       367    483.5434    388.2019 307.7259467  +6.5352174      2567.62     4459.479     4162.176     78.67605     157.9203     316.0925      1.850     5.12     855.3277     55.76637      337.359        25     1.566     1.004 -46.10   0
       368    455.8108    388.7538 307.7374449  +6.5340555     2045.372      3382.88     3475.316     78.80244     158.0463      316.061      1.752     4.91     855.7092     55.76637     249.8536        21     1.541     0.861 -43.92   0
       369    911.9670    388.8503 307.5480038  +6.5493472      489.683     812.2446     625.6596     79.18039      158.235     316.3128      1.664     4.66     851.7361     55.76637     89.94208         7     1.380     0.446 -21.17   0
       370    841.4235    384.8087 307.5774365  +6.5486493     27931.78     49841.51      53941.3     78.92863     157.9833     316.2184      1.946     5.71     852.8329     55.76637     3236.224        75     1.908     1.235 -56.10   0
       371    333.5534    380.8339 307.7884830  +6.5332035     668.9593     1069.983     894.4723      79.0546      158.235     316.3128      1.649     4.93       857.39     55.76637     105.8818         9     1.565     0.439 -49.58   0
       372    613.2644    377.2295 307.6724453  +6.5441128     2216.997     3906.716      4280.39     79.05461     158.2979     316.3128      1.847     6.15     854.7524     55.76637     277.2913        21     1.604     0.835 -50.40   0
       373     21.4732    377.3287 307.9181972  +6.5241074     936.1013      1944.02     1713.025     79.55655     158.3608     316.4072      2.032     7.09     866.1594     55.76637     142.3107        16     1.736     0.812 -60.84   0
       374    697.9171    370.7677 307.6375071  +6.5496262     66502.34     116687.5     124850.2     79.30597     158.0462     316.3128      1.880     5.58     854.5229     55.76637     9126.712        92     1.874     1.236 -49.10   0
       375    855.9434    372.6934 307.5718136  +6.5541377     1058.851      1887.43     2332.515     79.18039      158.235     316.5644      2.156     6.65     851.9399     55.76637     142.3741        14     1.505     0.824 -52.50   0
       376     77.2341    370.1992 307.8952837  +6.5289365      1145.24     1947.802      2271.87     78.42267     158.0462     316.1555      1.743     6.15     864.4432     55.76637     147.7546        15     1.468     0.725 -49.70   0
       377    560.4617    367.5466 307.6947002  +6.5463333     2194.737     4105.598     4430.824     79.30598     158.1721     316.3443      1.938     5.93     854.3265     55.76637      260.523        26     1.775     0.973 -41.08   0
       378     97.5106    366.2057 307.8869990  +6.5312706     5025.058     9345.717     10273.88     78.80244     157.9203      316.124      1.984     4.92     863.8574     55.76637      652.062        38     1.823     1.065 -45.84   0
       379    939.4242    367.9672 307.5373022  +6.5588884     670.3183     1052.641     636.7834     78.67605     158.0462      316.187      1.574     4.56     850.2385     55.76637     123.2198         6     1.265     0.474 -38.58   0
       380    543.6666    363.6472 307.7018066  +6.5473777     6130.791     10639.73     11009.78     79.30598     158.1721     316.4072      1.847     5.13     854.1558     55.76637     678.4005        35     1.667     1.049 -47.78   0
       381    272.5755    361.3763 307.8144633  +6.5391779      2142.67     3989.238     4252.366     78.80244     158.0463     316.3443      1.972     5.33     858.6926     55.76637     264.1439        29     1.813     0.970 -50.81   0
       382    406.5746    358.7911 307.7589033  +6.5447647     21771.27     38895.73      41646.1     78.92863     158.0462     316.2499      1.899     5.08     854.6671     55.76637     2658.372        57     1.851     1.157 -49.44   0
       383    584.7455    358.4196 307.6849230  +6.5509180     529.7485     856.1228     379.2416     78.80244      158.235      316.187      1.599     5.07     853.9885     55.76637     83.46808         5     0.992     0.731  83.60   0
       384    513.9152    357.7454 307.7143612  +6.5488124     1147.914      2037.37     1873.724     79.30598      158.235      316.533      1.801     4.79     854.0601     55.76637     174.2716        11     1.277     0.732 -61.24   0
       385    386.5244    356.7985 307.7672972  +6.5449113     976.4159     1825.983     2147.522     78.67605      157.668     316.2499      1.912     6.25     854.7883     55.76637     117.6951        15     1.405     0.782 -39.01   0
       386    485.7450    354.5403 307.7261682  +6.5491868      990.845     1670.172     1468.438     79.43136      158.235     316.3443      1.766     5.00      854.067     55.76637     165.4886        10     1.313     0.539 -52.72   0
       387    801.8451    350.9291 307.5950129  +6.5613064     774.0833     1327.227     938.7396     79.30598      158.235     316.3757      1.925     5.50     853.0866     55.76637     104.4389        10     1.541     0.554 -57.40   0
       388    637.4006    351.4028 307.6632918  +6.5555856      581.569     746.8434     494.9417     78.67606     157.7942      316.124      1.574     4.36     853.7129     55.76637      111.221         7     1.340     0.405 -55.50   0
       389    495.6617    349.2860 307.7222271  +6.5516897     7176.153     12885.51     13431.98     79.43136     158.4236     316.3757      1.918     5.31      853.719     55.76637     895.7074        42     1.812     1.090 -46.99   0
       390    383.8867    351.2240 307.7685808  +6.5471235     689.6772     1355.661     1703.917     79.30597     158.0462     316.2184      2.077     5.75     854.5204     55.76637     84.61877        10     1.454     0.641 -52.44   0
       391    920.1820    347.9772 307.5459652  +6.5664952     669.2513     1199.347     776.5157      79.0546     158.1721     316.3128      1.774     6.65     849.8265     55.76637     148.4638        10     1.836     0.675 -37.69   0
       392    764.7210    348.1100 307.6105258  +6.5612236     2752.789     4633.345     5063.041      79.0546     158.4864     316.4701      1.764     5.60     853.3101     55.76637     407.7685        20     1.482     0.839 -44.81   0
       393    711.7662    348.2513 307.6325136  +6.5593863     608.6733     1000.578     877.3529     79.18039      158.235     316.2813      1.628     5.21     853.5492     55.76637     120.9814         9     1.380     0.556 -47.66   0
       394    321.8109    346.3591 307.7945244  +6.5470382     927.1492     1564.079     1353.774     78.67605     158.0462     316.0925      1.873     5.12     856.3774     55.76637     130.2752        11     1.394     0.532 -41.10   0
       395    157.6902    339.7408 307.8629043  +6.5442289     1035.971     1789.207     2041.674     79.18039      158.235     316.5015      2.082     5.56     862.2865     55.76637     132.7024        12     1.294     0.673 -53.07   0
       396    385.4916    333.3448 307.7685182  +6.5545579     6254.084      11437.9     12461.42     79.18039     158.1092     316.5015      1.956     5.13     854.0083     55.76637     733.6916        41     1.763     1.177 -48.63   0
       397    241.2185    334.0030 307.8284109  +6.5494187     1822.918     3281.806     3610.745     78.92862     157.7942     316.1555      1.898     5.26     858.6465     55.76637     243.0034        22     1.622     0.948 -41.35   0
       398    753.4122    329.3402 307.6158541  +6.5685919     45492.17     79275.02     84625.51     78.67605     158.1092     316.0925      1.872     5.72     852.4252     55.76637     5603.502        81     1.872     1.183 -49.92   0
       399    738.7499    333.4568 307.6218050  +6.5664001     871.4399     1259.506     1414.359     79.30598      158.235     316.3757      1.664     5.46     852.7278     55.76637     135.7314        10     1.235     0.680 -48.13   0
       400    424.9078    328.9104 307.7522986  +6.5577170     1968.467      3556.11     3659.831     79.30598     158.7374     316.4386      1.908     5.73     853.0764     55.76637     226.7346        22     1.653     0.862 -50.94   0
       401    988.2064    326.5691 307.5184322  +6.5776127     1476.006     2612.876     2600.839     78.67605     157.9833     316.1555      1.839     6.26     846.7907     55.76637     207.8978        18     1.481     0.821 -47.71   0
       402    929.1961    325.5136 307.5429761  +6.5760705     1923.513     3436.611     3535.647     78.80244     157.8572     316.0925      1.896     6.24     848.2338     55.76637     281.4363        23     1.760     0.819 -48.39   0
       403    570.8868    326.3906 307.6917582  +6.5636731     997.1995     1852.995     1874.141     78.92862     157.9203     316.2184      2.034     5.96     852.2286     55.76637     156.0526        15     1.627     0.760 -39.03   0
       404    462.0247    325.0096 307.7370156  +6.5605779     801.6821     1524.616      2115.15     78.92863     158.0462     316.2499      2.299     6.17     852.5578     55.76637     134.7924        13     1.534     0.698 -50.43   0
       405    411.5123    324.3452 307.7580159  +6.5591500     1753.311     2858.722     2826.796     79.30598     158.1092      316.533      1.785     5.46     853.0505     55.76637     209.3889        19     1.521     0.951 -30.94   0
       406    292.6134    322.4220 307.8074589  +6.5559340      377.373     861.4292     664.7406     79.05461     158.0463     316.2813      2.653     4.12     857.0551     55.76637     66.55109         5     0.990     0.491  -3.64   0
       407    832.7303    318.9521 307.5832612  +6.5755432     923.3934     1764.729     1341.577     79.30598     158.1721     316.4072      1.846     6.65     850.7286     55.76637     136.8553        14     1.564     0.794 -57.21   0
       408    188.0656    315.7355 307.8511025  +6.5551641     1984.818     3499.971     3524.925     79.30598      158.235     316.3757      1.888     5.73     860.2452     55.76637     242.8385        23     1.722     0.840 -53.75   0
       409    441.0000    316.9672 307.7460187  +6.5631893     781.7676     1180.144     1493.969     78.54946     157.9833     316.0925      1.675     3.02     852.3507     55.76637     120.9638         6     0.801     0.622 -87.13   3
       410    443.2864    315.2986 307.7451255  +6.5639551     724.1974     1042.547     887.0121     79.30598     158.6747     316.4386      1.589     2.96     852.2293     55.76637     135.0707         5     0.773     0.550 -51.91   3
       411    751.7920    313.9438 307.6170451  +6.5748931     5111.506      8957.26      9633.54     78.67605     158.1092      316.124      1.858     5.78     851.6455     55.76637     738.1068        35     1.750     0.988 -49.33   0
       412    768.2683    311.8916 307.6102712  +6.5762936     2211.145      3807.67     3613.968     79.30598     158.3608     316.3757      1.811     5.26     851.4848     55.76637     294.8395        24     1.533     0.975 -48.19   0
       413     84.0667    312.8071 307.8943905  +6.5528578     946.4097     1650.011     1908.332     78.80244     157.9833     316.2184      1.928     5.59     863.4371     55.76637      127.483        15     1.418     1.000 -50.21   0
       414    357.7131    306.5969 307.7809581  +6.5646625     1595.408     3189.097     3735.217     78.67605     157.8572      316.124      2.224     6.22     854.2333     55.76637     183.0335        25     1.733     1.028 -21.18   0
       415     71.5610    307.1147 307.8997767  +6.5547846     1050.695     1722.674     1654.565     79.30597     158.1721     316.3757      1.749     6.38     863.6173     55.76637     146.9966        14     1.393     0.821 -39.40   0
       416   1006.4775    302.8488 307.5116400  +6.5880167     5146.841     8793.544     9723.677     79.30598     158.2979     316.3443      1.854     5.51     845.8464     55.76637     652.0554        31     1.712     0.956 -50.63   0
       417    484.4462    302.4984 307.7284636  +6.5706255     1779.394     3012.649     2745.162     79.30598     158.1092     316.5644      1.844     5.50     851.0449     55.76637     209.0396        20     1.536     0.852 -45.02   0
       418    247.1288    298.1555 307.8271689  +6.5644155     4994.809     8944.846     9748.388     79.18039      158.235     316.4072      1.926     5.21     857.7518     55.76637     604.4739        38     1.705     1.131 -48.19   0
       419    937.6130    293.4256 307.5405583  +6.5895987     427.8796     873.6016       927.37     79.05461     158.0463     316.3128      2.119     4.93     846.0229     55.76637     75.72986         5     0.976     0.786 -84.60   0
       420    767.0302    291.0513 307.6114867  +6.5848549     705.3611     1049.836     856.5895      79.0546     158.3608     316.3128      1.474     4.72     850.4361     55.76637     109.2191         9     1.227     0.515 -58.81   0
       421    381.3446    288.7674 307.7717462  +6.5728192     1390.826     2761.942     2764.523     79.18039      158.235     316.3443      2.077     6.80     852.9639     55.76637      171.996        22     1.860     0.965 -48.29   0
       422    968.4854    287.5500 307.5279333  +6.5930590     842.8632     1396.619       1670.9     79.30598     158.1721     316.4386      1.850     6.09     845.6603     55.76637     137.3928        11     1.459     0.714 -45.32   0
       423    303.6978    284.9403 307.8041226  +6.5717799     812.3333     1496.273     1360.487      79.0546      158.235     316.5015      1.884     6.04      855.632     55.76637     119.3077        14     1.546     0.881 -35.02   0
       424    188.4059    285.8293 307.8519733  +6.5675204     584.5063     863.2556     1183.063     78.80244     158.0462      316.187      1.537     5.37     859.4562     55.76637     87.32697         6     1.063     0.766 -36.28   0
       425    150.9912    284.5625 307.8675542  +6.5667791     1467.709     2821.558     3670.054     78.54946     157.9833      316.124      2.126     5.90     860.6984     55.76637     190.4466        18     1.605     0.844 -35.35   0
       426    560.5775    280.4416 307.6975891  +6.5822936     1913.993     3403.303     3280.925     78.92863     158.0463     316.1555      1.875     5.26     849.8602     55.76637     253.4603        24     1.542     1.023 -49.78   0
       427    904.5172    279.8155 307.5547615  +6.5941072     1617.456     3013.103     3120.794     78.92863     157.9203     316.2499      1.924     6.52     846.6072     55.76637      224.614        17     1.516     0.787 -48.66   0
       428    724.2499    278.0535 307.6296921  +6.5887833     4261.654     7328.449     7412.516     79.43136     158.1721     316.4072      1.836     5.78     849.8928     55.76637     552.8048        31     1.742     0.925 -45.67   0
       429    665.2540    277.9465 307.6541984  +6.5868446     1977.732     3402.963     3179.407     79.55655     158.1721     316.3757      1.802     5.59     849.6605     55.76637     277.9035        21     1.622     0.825 -47.29   0
       430    962.2537    277.8152 307.5308484  +6.5968687     607.4547     913.3296     1472.459     78.67605      158.235     316.0925      1.918     4.68      845.422     55.76637     94.29492         8     1.275     0.488 -47.02   0
       431    920.2847    270.2475 307.5485341  +6.5985856     943.4242     1436.008     1273.505     79.30598      158.235     316.4072      1.578     6.13     845.6732     55.76637     119.2403        13     1.420     0.743 -43.82   0
       432    223.7299    263.1845 307.8380694  +6.5780608     1998.758     3563.189     3713.313     78.80244     158.1721     316.2813      1.880     5.05     857.9935     55.76637     288.0515        25     1.629     0.976 -37.80   0
       433    866.4227    262.3648 307.5711703  +6.6000330     1449.837     2424.348     2545.991     78.80244     157.9833     316.1555      1.912     5.78     847.4201     55.76637     198.5656        13     1.577     0.596 -51.91   0
       434    756.8417    261.5745 307.6167103  +6.5966807      1362.45     2365.406     2146.474     78.92862     158.1721     316.1555      1.778     6.48     849.3457     55.76637     211.4632        17     1.558     0.756 -47.04   0
       435    457.9125    252.9731 307.7411549  +6.5901752     18727.25      34196.7     37509.73     79.43136     157.9833     316.2813      1.987     5.84     849.6555     55.76637     2446.957        73     2.348     1.171 -43.71   0
       436    783.7360    252.3231 307.6058513  +6.6014028     11171.33     19940.04     21640.97     79.55655      158.235     316.3443      1.931     6.12     848.8965     55.76637     1439.648        57     1.927     1.184 -39.83   0
       437    721.9194    248.1728 307.6316660  +6.6010396     638.4984     992.6716     1198.701     79.18039     158.0462     316.4072      2.005     5.20     848.9029     55.76637     102.4819         8     1.504     0.509 -49.61   0
       438    146.0329    246.3239 307.8709081  +6.5823956     2023.528      3870.01      4064.61     79.18039      158.235     316.3443      1.920     5.39     860.1492     55.76637      240.741        28     1.762     1.066 -37.57   0
       439    120.4017    245.3832 307.8815847  +6.5819175     951.1254     1835.495     1906.748     78.92863     157.7942     316.1555      2.158     7.13     861.2576     55.76637     149.4999        17     1.709     0.833 -48.51   0
       440    776.6540    244.8663 307.6090437  +6.6042431     653.6515     1408.239     1448.635     79.30598     158.1721     316.3443      1.851     6.68     848.6496     55.76637     96.47961        10     1.949     0.643 -42.60   0
       441    172.2175    245.0058 307.8600780  +6.5838246     647.7847     932.0914     780.8126     78.92862     157.9203     316.2184      1.595     4.01      859.178     55.76637     108.3362         5     0.908     0.657 -62.66   0
       442    919.9769    242.7912 307.5495846  +6.6099093     1190.891     2079.358     2573.723     78.92862     157.9833      316.187      1.961     6.17     844.8886     55.76637     184.3679        15     1.486     0.719 -45.42   0
       443    581.7193    238.8725 307.6902099  +6.6001645     4016.442     7038.263     7521.043     79.55655     158.4864     316.4072      1.886     5.11      848.525     55.76637     520.2181        29     1.684     0.960 -49.62   0
       444    544.2026    239.1039 307.7057841  +6.5988063     1762.216     3221.603     3091.777     78.92862     157.9203      316.061      1.858     6.25     848.5615     55.76637     226.5169        20     1.672     0.776 -48.32   0
       445    385.9941    238.4725 307.7715141  +6.5937370     1269.409     2482.933     2267.691     78.92862     157.7942     316.2813      1.921     5.17     851.2776     55.76637       161.34        20     1.642     0.821 -54.10   0
       446    302.1571    239.8315 307.8062874  +6.5903481     993.4555     1450.778      872.306     78.80244     158.1721     316.2184      1.592     3.74     855.2029     55.76637     155.7808        10     1.051     0.678 -65.79   0
       447    942.6472    236.0680 307.5403943  +6.6134447      2246.42     3871.825     4148.721     79.30597     158.1721     316.3757      1.877     5.49     844.3958     55.76637      284.906        25     1.742     0.857 -47.15   0
       448    888.7884    235.5376 307.5627825  +6.6118576     9698.511     16753.78     17653.38     78.80244     158.0462     316.1555      1.850     5.71     845.5422     55.76637     1284.549        45     1.760     1.075 -48.59   0
       449    975.4351    233.4310 307.5268642  +6.6156323     8616.046     14813.77     14817.57     78.92863     157.9833     316.1555      1.854     5.59     844.2259     55.76637      1062.75        40     1.704     1.068 -49.68   0
       450    563.5143    235.8653 307.6978725  +6.6007932     793.1598     1225.754     977.2584     79.43136     158.4236     316.4386      1.627     4.50     848.4471     55.76637     100.1953         7     1.256     0.459 -47.38   0
       451    316.3847    235.6140 307.8005210  +6.5925691     720.2654     1326.048     1645.028     79.05461     157.9203     316.3128      2.323     5.75     854.3132     55.76637      97.6178        10     1.183     0.858 -85.86   0
       452    686.7514    233.4214 307.6467695  +6.6059470     2406.463     4304.598     5255.948     78.92863     158.2979     316.2499      1.937     5.88     848.5007     55.76637     311.2661        24     1.693     0.880 -47.82   0
       453    209.0192    234.8630 307.8451372  +6.5892546     585.9832     1116.986      1296.33     78.92862      158.235     316.2184      1.972     3.38     858.0128     55.76637     94.28302         5     0.796     0.499  61.36   0
       454     14.9211    231.9650 307.9258456  +6.5838883     20832.76     38370.41     41115.02     79.18039     158.2979     316.3757      1.957     5.44     864.1621     55.76637      2673.83        62     1.834     1.236 -49.26   0
       455    261.0289    233.3597 307.8235876  +6.5916314     887.3319     1515.163     1328.768     78.92862     157.9833     316.2499      1.642     6.61     856.6478     55.76637     124.9979        14     1.349     0.910 -59.42   0
       456    495.6246    228.2936 307.7263249  +6.6016330     1705.857     2914.462     3026.899     79.43136     157.9833     316.2184      1.798     5.58     848.1996     55.76637     222.2174        23     1.620     0.938 -42.11   0
       457    827.1367    224.9608 307.5887454  +6.6141550     1606.703     2895.706     3273.827     79.30598     158.1721     316.4386      1.937     5.87     846.9113     55.76637     228.7837        21     1.576     0.960 -50.77   0
       458    879.3988    224.1347 307.5670659  +6.6162497     1795.449     3183.225     3475.787     78.67605     157.9203     316.1555      1.864     5.21     845.3065     55.76637     308.7634        17     1.534     0.751 -51.37   0
       459    507.3557    224.1494 307.7215924  +6.6037388     2182.228     3966.463     3991.439     79.43136     158.1721     316.4072      1.904     4.96     848.0704     55.76637     243.7241        28     1.685     1.010 -50.15   0
       460    738.9583    221.4955 307.6254871  +6.6126244     33941.07     58853.38     62915.41     79.30597     158.1721     316.5015      1.874     5.42     847.9268     55.76637     4418.466        73     1.845     1.177 -48.82   0
       461    342.0465    220.8410 307.7903624  +6.5995329     5359.479     11319.75     12972.65     79.18039      158.235     316.2184      2.324     6.60     852.3695     55.76637     623.5631        50     2.298     1.158 -64.46   0
       462    972.6873    220.4198 307.5284425  +6.6209113     2276.066     4062.409     4496.525     79.05461     157.9833     316.2813      1.827     6.55     843.8066     55.76637     376.9753        20     1.633     0.738 -48.71   0
       463    906.8483    218.6367 307.5558493  +6.6194400     6305.796     10825.19     11555.54     79.18039     158.1721     316.2813      1.830     5.80     844.4706     55.76637      866.897        38     1.722     1.019 -48.02   0
       464   1011.0529    219.1114 307.5125508  +6.6227369     1459.976     2525.951     2326.924     79.30598     158.1092     316.5015      1.735     6.40      843.596     55.76637     222.4225        17     1.579     0.728 -46.43   0
       465    450.3439    217.6814 307.7454898  +6.6044883     4111.894     7606.487     7820.652     79.30598      158.235     316.4072      1.936     5.38     848.9146     55.76637     446.6388        35     1.775     1.060 -46.91   0
       466    225.2859    213.6925 307.8390977  +6.5985427     615.0498     1064.351     1000.163     79.18039     158.6747     316.4701      1.858     5.96       857.42     55.76637     121.4597         7     1.553     0.644 -69.06   0
       467    107.6888    209.0220 307.8880960  +6.5964967     4103.739     7503.333     7424.981     79.30597     158.0463     316.2499      1.923     5.21     861.0197     55.76637     540.8163        31     1.724     0.990 -49.86   0
       468    278.0563    205.5587 307.8174559  +6.6036820      28255.2     51253.22     55151.05     79.18039      158.235     316.4072      1.946     5.20      856.161     55.76637     3468.208        71     1.908     1.239 -47.94   0
       469    927.1461    208.2965 307.5477659  +6.6243891     783.4047     1276.928     1816.567     79.18039      158.235     316.6273      1.630     5.79     843.6428     55.76637     114.1851        12     1.423     0.663 -47.75   0
       470    253.4307    206.5936 307.8276486  +6.6024234     5420.069     10090.24     11223.03     78.67606     157.9833     316.1555      1.985     5.38     856.7433     55.76637     636.1692        41     1.797     1.181 -50.57   0
       471    707.2000    205.2943 307.6392234  +6.6182450     793.9387     1405.652     1937.274     78.80244     157.8572     315.9666      2.020     6.32     847.5102     55.76637      129.819        12     1.802     0.622 -37.78   0
       472    402.1515    201.0815 307.7660664  +6.6097162     41266.03     75410.04     80993.07     79.30598      158.235     316.4072      1.953     5.16     849.9413     55.76637     4967.536        78     1.900     1.263 -47.09   0
       473    158.1379    202.3200 307.8673706  +6.6009686     3479.404     6236.058     7291.566     79.43136     158.2979     316.3443      1.948     5.02     858.6224     55.76637      411.546        31     1.740     0.960 -44.75   0
       474    419.2244    201.7561 307.7589525  +6.6100133     1243.379     2335.485     1944.544     78.80244     158.1721     316.2499      1.839     6.57     849.3939     55.76637     158.1015        19     1.718     0.869 -39.60   0
       475    306.1631    198.7834 307.8060114  +6.6074273     15123.29     27717.81     29916.88     78.80244     158.1092      316.124      1.953     5.42     854.7714     55.76637     1885.982        59     1.874     1.197 -47.27   3
       476    313.7208    198.2765 307.8028896  +6.6078915     1828.914     3931.926     4959.188     79.55655     158.4864     316.4701      2.343     7.56     854.2377     55.76637     254.2801        32     2.027     1.204 -68.34   3
       477    741.4357    197.3851 307.6252698  +6.6226603     27713.61     48970.54     52621.92     78.92863     158.0463      316.187      1.892     5.58     846.9533     55.76637     3430.298        68     1.847     1.194 -47.44   0
       478    689.6473    199.3874 307.6467130  +6.6200934     838.5421     1468.174     1732.463     78.67605     158.1092      316.124      2.006     6.56       847.42     55.76637      136.421        13     1.515     0.798 -56.59   0
       479    789.9697    197.0459 307.6051221  +6.6244304     875.9357     1810.287     2041.425     78.92863     158.2979     316.2499      2.266     7.37     846.2092     55.76637     144.9265        17     2.495     0.609 -61.59   0
       480     58.2506    194.5226 307.9091197  +6.6008096     7665.392     13751.88     14877.24     79.30598     158.2979     316.3443      1.940     5.04     862.5932     55.76637      889.243        46     1.772     1.186 -55.52   0
       481     91.8812    192.6165 307.8952170  +6.6027340     1289.027     2284.516     2403.592     78.92862     157.9203     316.2184      1.894     6.46     861.2481     55.76637     146.1119        18     1.622     0.845 -48.09   0
       482   1000.0865    191.3894 307.5180367  +6.6338132     893.8948     1561.938     1459.281     78.92862     157.9833     316.2184      2.017     5.80     842.2199     55.76637      145.535        13     1.615     0.753 -53.38   0
       483    967.4007    191.1160 307.5316226  +6.6328307     491.7415     447.8051     694.2933     78.54946     157.7311      316.061      1.257     4.51     842.6029     55.76637     90.96161         5     1.127     0.512 -34.14   0
       484    575.0608    182.1955 307.6948865  +6.6233362     701.2584     1084.726     1141.152     78.67605     158.1092     316.1555      1.842     5.46      846.937     55.76637     90.14954         9     1.382     0.608 -51.39   0
       485   1001.0341    177.9850 307.5180932  +6.6393783     1790.821     3312.101     3513.168     78.92863     157.9833     316.2499      1.866     6.73     841.5436     55.76637     234.6586        21     1.644     0.899 -52.02   0
       486    584.1317    175.4234 307.6913472  +6.6264369     812.2439     1418.506     1275.396     78.92862     158.1721     316.3443      2.122     6.01     846.7491     55.76637     127.6247        12     1.440     0.714 -34.88   0
       487    276.9526    171.8775 307.8190534  +6.6175477      25473.2     46538.69     50390.83     79.18039     158.2979     316.3443      1.939     5.42     856.1612     55.76637     3282.059        72     1.926     1.242 -45.89   0
       488    336.1978    173.7101 307.7943844  +6.6187905     788.0327     1495.087     1239.832     78.67605     157.9203      316.124      1.756     6.11     852.7698     55.76637     134.0024        12     1.735     0.605 -50.38   0
       489     22.2734    170.4861 307.9248765  +6.6095139     3966.885     7223.729     7970.937     79.43136     158.5492     316.3757      1.972     4.95     863.9957     55.76637     458.6992        38     1.802     1.168 -55.32   0
       490    708.6643    168.5981 307.6398510  +6.6334422     6775.633     11768.43     12925.29     78.67605     157.9833     316.1555      1.873     5.54     846.2341     55.76637     792.9612        35     1.731     0.986 -47.58   0
       491    185.9545    169.7429 307.8569205  +6.6153556     745.0416     1261.109      1004.65     79.30598      158.235     316.4072      1.518     4.84       857.52     55.76637     97.35083         9     1.431     0.464 -66.00   0
       492    592.0325    173.7059 307.6881234  +6.6274117      1633.95       2804.1     2295.024     79.43136     158.1092     316.4701      1.774     5.03      846.723     55.76637     208.1266        22     1.603     0.888 -54.36   0
       493    119.3956    165.6164 307.8847042  +6.6148094      3968.38     6910.197     7364.876     78.92863     157.9203     316.2184      1.851     5.18     859.3588     55.76637     447.8871        31     1.702     0.992 -46.02   0
       494    580.9381    164.2815 307.6930493  +6.6309287     635.2173      1298.88      1376.43     79.43136      158.235     316.3443      1.989     5.02     846.4525     55.76637     94.81024         7     1.424     0.500 -31.08   0
       495    458.5651    162.8423 307.7439265  +6.6274022     1103.567      2103.07     1785.989      79.0546      158.235     316.2184      1.974     6.59       847.02     55.76637     179.4733        16     1.661     0.733 -47.87   0
       496    390.1989    161.6339 307.7723634  +6.6255967     3122.042     6473.258     6508.066     78.42267     158.0462      316.124      2.111     5.77     849.6093     55.76637     356.5028        34     1.821     1.141 -53.72   0
       497    647.0888    162.2451 307.6656414  +6.6339946     694.5363     1495.301     1531.552     79.30597     158.1092     316.4072      2.003     6.44     846.4045     55.76637       110.19        10     1.779     0.655 -54.34   0
       498    354.5752    160.5312 307.7871969  +6.6248505     2721.642     5067.163     5242.112     78.92863     158.1092     316.3128      1.942     5.73      851.525     55.76637     351.9377        28     1.762     1.023 -48.97   0
       499    108.7885    160.6224 307.8892788  +6.6165121     1465.607     2435.684     3025.875     78.92863     158.0462     316.2813      1.854     4.85     859.6423     55.76637     187.7353        16     1.407     0.750 -43.50   0
       500    937.3427    160.3743 307.5451407  +6.6445132     414.1252     724.5946     850.1943     78.92863      158.235     316.2499      1.616     4.94     841.8902     55.76637     82.09528         5     1.316     0.525 -43.58   0
       501    566.8088    160.3950 307.6990492  +6.6320575     745.9138     1388.911     1101.419     78.67605     157.9833     316.2184      1.653     4.53     846.3328     55.76637     111.0958         8     1.162     0.501 -56.94   0
       502    744.7651    158.7769 307.6251865  +6.6387094     518.8992     902.1396    -25.96216     78.80244     157.9833     316.1555      1.607     3.43     845.3169     55.76637     78.34998         5     0.965     0.352 -45.40   0
       503   1001.0938    154.8118 307.5188465  +6.6489461     1356.679     2268.385     2441.422      79.0546     157.9833      316.187      1.828     5.72     840.4074     55.76637     197.8326        17     1.461     0.858 -55.02   0
       504     89.0463    149.1026 307.8978687  +6.6205995     1845.073     3298.934     3491.912     79.30598     158.1092      316.533      1.948     5.20     860.0759     55.76637      240.873        21     1.639     0.799 -48.67   0
       505    668.2047    148.2497 307.6573421  +6.6404818     5061.917     9052.953     9834.833     78.67605     158.0463     316.0295      1.889     6.03     845.6855     55.76637     655.0954        34     1.783     0.979 -48.88   0
       506    815.8784    148.0994 307.5960072  +6.6455052     962.5931     1565.007     1815.558      79.0546     158.4864     316.4072      1.897     6.08     843.3284     55.76637     146.0662        13     1.280     0.812 -50.69   0
       507    620.2646    145.6981 307.6773410  +6.6399229     8011.064     14528.53     16162.17     79.30598     158.2979     316.4072      1.967     5.24     845.7748     55.76637     961.7494        45     1.915     1.105 -43.28   3
       508    623.8829    137.0772 307.6761286  +6.6436032     44640.69     79534.88     85820.86     79.43136     158.5492     316.5015      1.921     5.71     845.3883     55.76637     6036.678        85     1.912     1.242 -46.98   3
       509    254.9618    146.8070 307.8290351  +6.6271539     624.9795     1045.238     946.3469     78.54946     157.9203      316.124      1.766     3.94     856.5545     55.76637     85.83942         6     0.979     0.453 -39.74   0
       510     18.9313    144.2411 307.9271544  +6.6202340     811.4178     1647.011     1768.055     79.18039      158.235     316.4701      2.311     7.66     864.2847     55.76637     102.8262        14     1.987     0.827 -57.40   0
       511    347.4476    141.1756 307.7908115  +6.6325997     3212.374     6120.288     7162.341     78.92863      158.235     316.2499      2.032     6.12     852.1746     55.76637     389.6769        34     1.896     1.047 -49.41   0
       512    529.2197    140.6749 307.7153275  +6.6389324     1402.192     2483.765     2323.434     78.92863     158.1092     316.3128      1.922     6.28     845.6882     55.76637     166.1199        21     1.723     0.845 -41.58   0
       513    206.3561    149.3254 307.8491380  +6.6244728     4491.775     8014.497     8362.342     79.18039     158.2979     316.4072      1.878     5.26     857.1972     55.76637     563.1162        33     1.755     1.005 -46.58   0
       514    303.1018    130.6773 307.8095856  +6.6354369      2972.15     5542.872     6320.277     78.92862     158.4864     316.3757      2.087     5.62     855.0219     55.76637     413.5051        27     1.704     0.942 -50.32   0
       515    498.3761    127.6048 307.7285799  +6.6432889      450.076     824.4827     856.1702     78.80244     157.9833     316.2184      2.021     3.89     845.4383     55.76637     63.07166         5     1.039     0.418 -15.47   0
       516    703.1166    125.2568 307.6436151  +6.6511468     830.1832     1850.191     2123.217     79.30598      158.235     316.4701      2.277     5.70     844.2332     55.76637     160.0148        11     1.630     0.562 -50.82   0
       517    674.4637    124.4940 307.6555426  +6.6504984     1174.804     1891.514     1438.658     79.18039     158.2979     316.4386      1.765     6.10     844.3557     55.76637     165.6237        13     1.263     0.827 -40.80   0
       518      2.1850    113.0352 307.9351679  +6.6325480     580129.2     926186.1     992427.1     77.40083     137.6515     251.5799      1.749     7.11     865.9351     55.76637     62710.05       247     2.168     1.380 -80.14  28
       519    688.2308    121.0877 307.6499387  +6.6523674     2638.402     4624.108     4921.311     79.43136     158.0462     316.3128      1.879     5.77     844.1163     55.76637     357.4769        24     1.612     0.883 -49.61   0
       520    430.0355    112.1366 307.7574887  +6.6473713         3379     6127.618     6404.015     79.18039      158.235     316.3757      1.936     5.13     846.5487     55.76637     463.6345        30     1.758     0.995 -54.61   0
       521    884.7065    108.4793 307.5687494  +6.6641700     1828.828     3425.905     3928.251     79.05461     158.4236     316.4386      1.972     6.40     841.3022     55.76637     246.2617        21     1.728     0.816 -55.64   0
       522    902.4702    107.6054 307.5613998  +6.6651266     3339.218      5354.14     5147.139     78.80244     157.8572     316.2184      1.748     5.55     841.2017     55.76637     411.0547        25     1.499     0.946 -41.84   0
       523    582.3254    107.5906 307.6943847  +6.6543768     631.0374     1194.324     1500.339     78.92863     157.7942     316.2499      2.078     5.03     844.4107     55.76637     93.91351         7     1.277     0.561 -38.51   0
       524    594.4045    106.1799 307.6894149  +6.6553656     1634.478     2754.827     2567.447     78.92862     157.9203      316.187      1.752     6.36      844.337     55.76637      226.295        16     1.505     0.755 -47.04   0
       525    393.2091    103.8210 307.7730662  +6.6495624     1600.168     2834.506     2654.062     78.92862     157.9833      316.187      1.838     6.23     848.7223     55.76637     208.0756        21     1.671     0.814 -50.91   0
       526    240.9643    104.6415 307.8362755  +6.6440862       711.91      1149.51     1419.659      79.0546      158.235     316.2184      1.793     2.65     856.5928     55.76637     126.6419         5     0.847     0.474  -5.83   0
       527    141.3615    100.6198 307.8777823  +6.6423809     2653.468     4854.318     5301.154     78.92863     158.0463      316.124      1.973     5.35     856.9959     55.76637     334.6766        24     1.611     0.951 -45.39   0
       528    289.4418     99.4497 307.8163154  +6.6478660     1087.128     2140.563     2303.029     79.43136      158.235     316.3443      1.959     5.50     855.9057     55.76637      165.722        17     1.724     0.713 -37.24   0
       529     23.2578     98.4766 307.9269092  +6.6392707     10556.57     19239.47     20892.03     79.43136      158.235     316.3128      1.951     5.20     864.2389     55.76637     1263.246        49     1.839     1.148 -48.81   0
       530    758.0550     98.1935 307.6217057  +6.6641642     690.6875     1211.008      1644.07     78.80244     157.9833     316.0925      1.862     5.43     842.5867     55.76637     113.6844         7     1.128     0.738 -50.46   0
       531    562.9028     98.5918 307.7027560  +6.6574377     562.2699     1097.898      1198.18      79.0546     157.8572     316.1555      1.986     5.11     844.0776     55.76637     87.05725         6     1.442     0.512 -37.13   0
       532    549.9789     98.6135 307.7081236  +6.6569937      736.886     921.5391     748.0554      79.0546     157.9203     316.2813      1.481     5.48     844.0776     55.76637     120.2811        10     1.252     0.676 -33.63   0
       533    824.9329     93.2863 307.5940901  +6.6684357     5237.191     9276.852     9801.204     79.43136     158.4864     316.4072      1.885     5.85     841.5103     55.76637     717.5826        36     1.795     0.987 -48.62   0
       534    770.0734     93.6404 307.6168666  +6.6664474     2793.444     4917.144     5011.206     79.18039     158.2979     316.4072      1.833     5.60      842.309     55.76637     378.6725        26     1.624     0.939 -48.77   0
       535    415.3810     94.1220 307.7641842  +6.6543134     992.8818     1521.597     1205.784     78.80244     157.9203     316.3443      1.595     5.30     846.7597     55.76637     145.3349        11     1.412     0.561 -52.74   0
       536     11.0689     93.3405 307.9321460  +6.6409781     553.8408     1417.354     3831.438     79.43136     158.1721     316.3757      4.185     4.68     864.8357     55.76637     92.17798         5     1.419     0.438 -59.09   3
       537    532.4857     91.5464 307.7156284  +6.6593220      1162.44     2146.832     2288.029     79.30598     158.1721      316.533      2.018     6.33     844.0374     55.76637     144.3098        16     1.578     0.712 -58.11   0
       538     63.4995     90.3058 307.9104719  +6.6440051     2596.375     4527.263       4871.1     79.30598     158.7374     316.2184      1.927     4.79     859.9938     55.76637     352.4849        25     1.596     0.924 -52.47   0
       539     48.0209     91.4653 307.9168616  +6.6430028     783.5201     1349.823      871.442     78.92862      158.235     316.2499      1.857     6.00     861.3585     55.76637     96.81506        11     1.517     0.667 -49.40   0
       540    424.6087     90.2076 307.7604835  +6.6562403      841.399     1373.446     1412.816     78.67605     158.0462     316.2499      1.830     5.82     846.3937     55.76637     154.5622        11     1.383     0.849 -76.39   0
       541    587.3405     87.2164 307.6929886  +6.6629558     1107.177     2109.954     1944.383     78.80244     158.1721      316.124      1.976     6.19     843.6671     55.76637     154.1017        14     1.423     0.756 -46.76   0
       542      5.9113     85.9958 307.9345372  +6.6438352     2230.385     4115.588      5365.06     78.80244     157.9203     299.0076      2.032     5.34     864.2806     55.76637     284.9009        22     1.591     0.873 -42.21  16
       543    764.5713     81.2286 307.6195699  +6.6713861      1628.93     2925.913     3299.823     78.80244     157.9833      316.124      1.865     5.62     841.9028     55.76637     201.1644        17     1.600     0.708 -51.18   0
       544     77.7354     82.6689 307.9048178  +6.6476390     647.4769     913.2403     1088.231     79.30598     158.2979     316.4072      1.887     4.77     858.4005     55.76637     88.64386         8     0.965     0.669 -84.07   0
       545    405.5742     80.9461 307.7687028  +6.6594216     886.1004     1774.315     1495.733     78.92862     158.2979     316.2184      1.977     6.87     847.6973     55.76637      130.335        15     1.826     0.724 -51.61   0
       546    102.3399     80.4016 307.8946750  +6.6494071     644.5164     1089.749     1224.931     78.67605     157.9833     316.0925      1.936     5.10     856.8782     55.76637     98.36407         8     1.640     0.448 -49.81   0
       547     91.2988     74.6080 307.8994573  +6.6514251     7935.735     14783.87     15958.39     79.05461     157.8572      316.187      1.989     5.48     857.1984     55.76637     919.0438        47     1.820     1.194 -49.57   0
       548    420.2979     74.5140 307.7628042  +6.6625731     2215.285     3756.317     3944.993     79.30598     158.6747     316.4386      1.824     5.73      846.748     55.76637     294.5574        22     1.611     0.844 -45.77   0
       549    241.2572     74.5580 307.8371718  +6.6565139     581.1174     914.0706     1120.855     79.18039      158.235     316.4072      1.783     4.10      856.623     55.76637     87.04865         5     1.122     0.447 -55.96   0
       550    634.0720     66.7800 307.6742657  +6.6729639     15328.64     27425.86     29577.78     78.92862     158.1092     316.3443      1.909     5.61      842.529     55.76637     2148.548        57     1.830     1.171 -47.98   0
       551    258.0059     68.6415 307.8304150  +6.6595217      1258.44     2252.179     3044.317     78.54946     157.9203     316.0925      2.024     5.46     856.5149     55.76637     166.6297        19     1.536     0.889 -45.97   0
       552    533.9402     62.8882 307.7159911  +6.6712007     4278.901     7559.028     7838.841     79.18039     158.3608     316.4701      1.860     5.37     843.3002     55.76637     567.1796        34     1.770     1.007 -44.95   0
       553    252.0855     62.9522 307.8330667  +6.6616702     1582.045     2992.319     4264.062     79.30598     158.1721     316.3757      2.188     6.27     856.5941     55.76637     219.5329        21     1.700     0.888 -39.08   1
       554    621.1287     61.3137 307.6798266  +6.6747850      702.411     1083.925     1366.267     79.43136     158.4864     316.4072      1.687     4.90     842.4863     55.76637     116.3447         9     1.552     0.437 -48.46   2
       555    620.1727     56.7351 307.6803781  +6.6766428     2655.946     4761.967     5826.191     78.92862      158.235     316.2813      1.933     5.63      842.353     55.76637     369.2589        25     1.615     0.984 -53.30   2
       556      1.9074     60.5130 307.9370645  +6.6542181     855.1869     1236.844     1067.876     75.44759     134.5068      247.472      1.485     5.48     860.8854     55.76637     130.5706        10     1.327     0.637 -54.11  24
       557    439.3955     58.4276 307.7554146  +6.6698570     19190.83     34332.17     36383.03     78.80244     158.0463     316.2184      1.911     5.08     846.0447     55.76637     2221.217        59     1.860     1.163 -45.63   0
       558    260.0096     58.7734 307.8299166  +6.6636627     7520.569     13828.11     15721.08     78.92862     158.0462     316.2499      1.952     5.62     856.5731     55.76637     967.2676        42     1.814     1.099 -45.92   0
       559    917.2014     58.4853 307.5569315  +6.6858972     1693.903     2977.129     2699.852     78.54946     157.7942      316.061      1.840     5.37     838.4001     55.76637     234.6422        21     1.748     0.823 -51.09   0
       560    320.0708     59.0067 307.8049606  +6.6655938     872.3365     1577.247     1858.793     78.80244     157.8572     316.2813      1.855     5.94     854.3374     55.76637     107.3055        12     1.384     0.719 -48.69   0
       561     25.2246     58.2737 307.9274555  +6.6559317     2015.398     3374.876     3564.365     78.92863     158.0463     316.3128      1.772     4.92     859.4824     55.76637     244.5612        24     1.598     0.961 -36.82   0
       562    552.4272     58.0988 307.7084733  +6.6738001     595.1799     809.2802     837.3166     79.43136     157.9833     316.3443      1.521     5.38     842.9545     55.76637     79.86584         8     1.113     0.734 -60.97   0
       563    248.1031     55.2874 307.8349802  +6.6646996     2437.622     4520.541      5908.25     79.30598     158.6119     316.4072      2.061     6.36     856.6577     55.76637     315.3394        24     1.684     0.901 -49.36   0
       564    301.3256     53.5669 307.8129310  +6.6672066     966.7374      1602.68     2218.022     79.18039      158.235     316.3757      1.838     6.05     855.6653     55.76637     155.0396        11     1.721     0.598 -50.85   0
       565    937.5631     49.1703 307.5487860  +6.6904252     822.1765     1272.969     1206.848     78.92862     157.9833     316.2184      1.810     6.25     837.1614     55.76637     122.4836        12     1.542     0.711 -32.63   0
       566    689.1495     48.0398 307.6520180  +6.6825517      1413.01     2469.691     2546.063     79.30598      158.235     316.3128      1.929     6.34     841.3049     55.76637     181.9454        16     1.628     0.693 -46.31   0
       567    253.8326     44.6044 307.8329618  +6.6693028     590.6161     957.1542     1794.612     78.54946     158.1092     316.1555      2.160     4.59     856.6909     55.76637     79.64502         5     0.842     0.710 -56.78   0
       568    200.1633     44.0747 307.8552727  +6.6677086     589.0361     681.9527     539.6313     79.18039     158.2979     316.4072      1.400     4.32     856.5198     55.76637     84.89044         7     1.174     0.454 -33.56   0
       569    177.4813     40.8073 307.8648049  +6.6682908     8968.811     16319.75     16962.76     78.92863     157.8572     316.2184      1.932     5.26     856.2689     55.76637     1092.807        49     1.823     1.164 -50.15   0
       570    521.5978     39.2186 307.7219168  +6.6805555     2352.906     4137.529     4246.176     78.92863     157.7942      316.124      1.854     6.24     842.9167     55.76637     323.7137        23     1.685     0.877 -54.53   0
       571    923.0089     38.7537 307.5551822  +6.6942371      3472.07     5883.988     6242.776     78.80244     158.1092     316.0295      1.811     5.36     837.1542     55.76637      535.911        25     1.585     0.901 -50.03   0
       572    723.8386     37.6178 307.6379589  +6.6880198     1573.829     2579.922     2496.385     78.92862     158.1092     316.1555      1.787     5.18     840.6445     55.76637       204.47        19     1.543     0.794 -44.71   0
       573    459.6789     37.6491 307.7476907  +6.6791175      1486.05     2584.426      2256.13     79.30598     158.2979     316.3757      1.799     6.13     844.8516     55.76637     174.8284        18     1.557     0.811 -46.94   0
       574    987.7482     35.0794 307.5284116  +6.6979242     1828.575     3243.346     3686.364     79.30598      158.235     316.3757      1.960     5.82     832.5762     55.76637     267.6257        20     1.620     0.911 -60.42   0
       575    707.2673     31.3642 307.6450534  +6.6900442     6381.628     11123.09     12369.63     79.18039     158.3608     316.4386      1.877     5.89     840.5706     55.76637     841.6528        36     1.736     1.011 -53.21   0
       576    627.4897     30.6470 307.6782180  +6.6876578     3121.898     5653.919     6042.007     79.30598     158.1092     316.5015      1.950     5.94     841.3423     55.76637     410.5104        28     1.711     0.954 -44.50   0
       577    329.1313     30.5229 307.8021601  +6.6776571     891.7534     1451.317     1567.731     79.43136     158.3608     316.3757      1.748     5.30     853.8749     55.76637     115.9111        10     1.326     0.598 -41.33   0
       578    265.4983   1019.3637 307.7951655  +6.2673292     826.0713     1465.276     1577.512     79.30598     158.1092     296.9034      1.809     5.47     875.1395     55.76637     135.9273        10     1.535     0.549 -50.21  16
       579    383.5966     28.6293 307.7795997  +6.6802760     676.4908     1245.337     1178.018     78.80244     157.9833     316.2184      1.927     4.03     849.9068     55.76637     119.6414         6     1.570     0.295 -44.47   0
       580     28.6118     26.4072 307.9271291  +6.6691999     7284.159     13244.02      14231.3     78.92863     158.0463     316.2813      1.932     5.22     855.7396     55.76637     817.4005        43     1.821     1.071 -48.90   0
       581    674.5735     25.7210 307.6588249  +6.6912746     724.4146     1362.697      1581.16     79.18039     158.1721     316.3443      2.169     6.74     840.7645     55.76637     104.6697        11     1.717     0.741 -15.97   0
       582    504.3705     22.6717 307.7296315  +6.6868056      661.102     1269.383     1663.134     79.18039      158.235     316.3443      1.944     4.14     842.8759     55.76637     105.2167         6     0.839     0.669  18.98   2
       583    418.6218     23.7438 307.7652154  +6.6834736     588.9825     904.1725      1784.63     78.92863      158.235      316.187      1.597     3.42     847.4844     55.76637     89.20703         5     0.728     0.466  76.03   0
       584    909.8694   1015.8553 307.5278198  +6.2904453     7091.524     13537.29     14568.06     79.30597     158.1092     316.3443      2.025     4.99     869.4464     55.76637     770.8947        44     1.779     1.215 -49.22  16
       585     97.8590     21.8364 307.8985207  +6.6734295     2157.557     3959.618     4421.113     79.30597      158.235     316.3757      1.974     6.12     855.8015     55.76637     256.9444        23     1.596     0.941 -52.02   0
       586     89.0178     20.8596 307.9022262  +6.6735337     1264.997     2140.355     2414.524     78.92862     158.1092      316.124      2.008     6.65     855.7105     55.76637     182.7362        17     1.577     0.787 -44.50   0
       587    792.7940     20.4630 307.6098913  +6.6974175     638.9295      1180.51     889.0971     78.67605     157.9833     316.1555      1.759     4.97     839.6581     55.76637     104.9255         7     1.491     0.468 -39.57   0
       588    541.2138   1015.0753 307.6808696  +6.2783873     6871.911     12376.63      13619.9     78.80244     157.9833      316.187      1.903     5.14     875.6219     55.76637     845.1771        39     1.775     1.094 -46.88  16
       589    985.2714     17.5218 307.5300303  +6.7050889       639.92     1181.871      1095.83     79.55655     158.4864     316.3443      2.077     4.97     831.2311     55.76637     92.98553         8     1.353     0.516 -30.02   0
       590   1005.2128   1011.5710 307.4883869  +6.2954084     3801.444     7677.639     8642.811     78.80244     157.9833     316.2813      2.146     4.88     864.2263     55.76637      425.686        41     1.779     1.325 -56.33   0
       591    883.5972   1011.8320 307.5388603  +6.2912254     9793.899     19475.55     21696.89     78.54946     158.0462     316.1555      2.103     5.22     869.1015     55.76637     1038.957        62     1.991     1.351 -47.11  16
       592    527.7816   1010.9648 307.6865834  +6.2796322     3414.135     6489.109     7876.982     78.80244     158.0462     316.1555      2.183     5.55     875.4647     55.76637     432.9586        41     1.794     1.511 -19.67   0
       593    596.2119   1012.1583 307.6581393  +6.2814412     1241.289     2300.212     2127.795     78.67605     158.0462     316.0925      1.912     6.10     874.1278     55.76637     158.5712        18     1.537     0.840 -43.06   0
       594    637.1470   1010.5787 307.6412011  +6.2834694     1072.803     2031.461     2010.634     78.80244      158.235      316.187      1.943     6.21     873.2853     55.76637     151.3007        16     1.754     0.702 -47.04   0
       595     61.7587   1009.3694 307.8800660  +6.2645754     801.0659      1418.52     1626.673     78.80244     158.0463     316.2184      1.972     6.33     874.9563     55.76637     109.5978        10     1.287     0.874 -35.34   0
       596    480.9153   1007.4745 307.7061542  +6.2794958     1975.359     3601.403      3913.66     79.43136     158.5492     316.4072      2.001     6.10     875.2102     55.76637     248.2303        24     1.694     0.930 -41.68   0
       597    915.2515    999.5328 307.5261335  +6.2973638     35389.85      66775.7     72744.91     79.18039     158.1092     316.3757      2.016     5.03     868.9509     55.76637     3882.336        84     1.950     1.354 -49.17   0
       598    222.4757    997.5955 307.8137578  +6.2748633     1565.702     2726.204     3180.865     78.92863     157.7311     316.2499      2.064     6.08      874.137     55.76637     195.8555        19     1.649     0.807 -48.42   0
       599    621.2758    996.1160 307.6482757  +6.2889061     681.5406     1216.194     1375.231     79.43136     158.5492     316.4386      2.020     5.15     873.3094     55.76637     103.2802         7     1.469     0.511 -40.91   0
       600    813.2015    993.5713 307.5686945  +6.2964023     1846.692     3575.391     3711.127     78.80244     158.0462     316.1555      2.023     5.60     870.3014     55.76637     234.7742        25     1.587     1.157 -39.62   0
       601    761.4367    991.2122 307.5902611  +6.2956389     5455.502     10034.03     11659.64     78.80244     158.0462     316.0925      2.032     5.17     871.0958     55.76637     634.0242        40     1.920     1.070 -49.50   0
       602    230.7302    990.1172 307.8105844  +6.2782288     1390.594     2359.144     2581.891     79.55655     158.4864     316.4072      1.901     6.19     874.3939     55.76637     182.9015        17     1.555     0.748 -48.20   0
       603    549.2440    989.7263 307.6783903  +6.2891215     794.9038     1420.193     1193.891     79.18039     158.2979     316.4072      1.973     4.20      874.918     55.76637     124.5716         7     0.976     0.515 -50.17   2
       604    195.5823    989.5157 307.8251934  +6.2772908     839.9902     1391.004     1324.203     78.92863     157.9203     316.3128      1.792     5.38     874.2349     55.76637     112.5925        10     1.266     0.646 -43.76   0
       605     55.6227    988.1901 307.8833296  +6.2731105     2379.867     4272.614     4445.396     78.92862     157.9833     316.2184      1.873     5.38     874.6926     55.76637     293.7256        26     1.698     0.944 -46.99   0
